hand,timestamp,FC3,FC4,C3,C4,CP3,CP4,FCz,Pz
Left,2025-10-28 18:44:25,"[-64362.61, -63861.324, -62828.473, -63252.242, -64265.78, -64047.65, -62939.695, -63066.387, -64139.27, -64191.348]","[-63962.176, -63517.242, -63258.03, -63724.53, -63993.223, -63619.1, -63249.0, -63627.258, -63989.0, -63706.004]","[-85831.75, -85988.97, -86043.375, -85902.38, -85834.41, -85963.85, -86061.19, -85934.3, -85821.22, -85926.52]","[-81967.89, -81967.516, -82016.086, -82039.44, -81994.086, -81975.16, -82022.9, -82053.74, -81999.68, -81971.83]","[-85153.375, -85324.52, -85377.2, -85224.9, -85160.08, -85304.78, -85408.01, -85269.336, -85154.695, -85272.84]","[-89915.26, -90050.91, -90105.89, -89988.99, -89927.125, -90037.12, -90130.33, -90024.69, -89922.27, -90012.375]","[-68906.875, -68418.06, -68194.21, -68704.836, -68954.51, -68534.49, -68182.3, -68606.195, -68964.43, -68627.81]","[-85150.67, -85147.85, -85201.66, -85221.1, -85167.55, -85146.78, -85198.305, -85226.42, -85170.805, -85140.3]"
Left,2025-10-28 18:44:25,"[-63093.723, -62920.027, -63959.113, -64264.195, -63261.516, -62844.188, -63813.47, -64348.28, -63464.805, -62796.13]","[-63257.918, -63526.766, -63973.4, -63795.41, -63299.336, -63437.47, -63933.79, -63870.086, -63368.516, -63375.22]","[-86052.61, -85970.46, -85843.22, -85914.43, -86050.33, -86001.49, -85864.25, -85906.05, -86052.31, -86030.3]","[-82009.49, -82062.8, -82032.984, -81989.59, -82006.12, -82064.34, -82052.12, -82010.92, -82021.94, -82074.31]","[-85405.32, -85312.79, -85183.52, -85266.18, -85409.91, -85352.234, -85207.33, -85257.4, -85413.75, -85383.8]","[-90125.07, -90063.94, -89954.35, -90006.72, -90123.664, -90092.22, -89977.04, -90005.67, -90133.86, -90122.88]","[-68188.195, -68505.62, -68953.73, -68730.97, -68231.984, -68419.61, -68933.02, -68826.19, -68299.22, -68344.68]","[-85182.63, -85234.87, -85200.71, -85157.195, -85176.06, -85230.305, -85211.31, -85165.87, -85182.09, -85236.234]"
Left,2025-10-28 18:44:25,"[-63628.91, -64372.22, -63661.613, -62764.973, -63388.855, -64284.535, -63827.395, -62797.094, -63187.914, -64199.977]","[-63894.562, -63940.273, -63449.94, -63310.49, -63813.605, -63981.89, -63546.03, -63277.43, -63737.855, -64016.0]","[-85881.98, -85883.445, -86042.77, -86058.266, -85906.49, -85870.1, -86015.7, -86074.086, -85937.96, -85866.73]","[-82068.54, -82018.09, -82025.72, -82074.914, -82085.53, -82035.73, -82024.98, -82067.94, -82091.21, -82044.734]","[-85223.984, -85230.6, -85402.375, -85414.76, -85252.57, -85220.32, -85379.17, -85436.95, -85287.77, -85218.06]","[-89995.45, -89990.31, -90130.64, -90153.62, -90026.99, -89988.33, -90109.65, -90163.83, -90051.58, -89986.58]","[-68886.805, -68898.266, -68375.46, -68277.875, -68818.54, -68961.52, -68484.445, -68251.97, -68755.8, -69018.766]","[-85228.37, -85174.83, -85184.87, -85239.02, -85245.64, -85193.36, -85185.78, -85233.77, -85256.414, -85209.88]"
Left,2025-10-28 18:44:25,"[-63989.266, -62886.254, -62986.703, -64052.926, -64110.48, -63006.24, -62804.445, -63840.293, -64163.207, -63155.613]","[-63645.05, -63268.043, -63636.734, -64005.63, -63723.168, -63270.883, -63532.152, -63982.203, -63811.86, -63318.066]","[-85990.38, -86078.266, -85956.36, -85845.65, -85941.945, -86065.414, -85982.375, -85849.01, -85917.086, -86059.875]","[-82019.48, -82055.04, -82090.2, -82042.39, -82005.17, -82039.305, -82088.1, -82054.15, -82008.69, -82030.55]","[-85356.1, -85448.195, -85315.4, -85204.42, -85315.13, -85446.3, -85351.37, -85213.766, -85291.89, -85443.5]","[-90091.164, -90172.91, -90075.56, -89976.68, -90056.68, -90171.38, -90104.06, -89985.266, -90036.266, -90162.555]","[-68602.11, -68244.55, -68653.63, -69008.016, -68673.03, -68225.125, -68535.74, -68994.516, -68773.32, -68275.016]","[-85182.97, -85219.65, -85249.69, -85197.984, -85159.34, -85196.29, -85245.04, -85209.32, -85165.71, -85192.734]"
Left,2025-10-28 18:44:25,"[-62673.867, -63622.273, -64179.08, -63298.977, -62557.973, -63348.4, -64084.91, -63387.11, -62473.395, -63087.797]","[-63442.008, -63937.723, -63882.36, -63381.59, -63366.57, -63886.695, -63951.85, -63465.14, -63311.07, -63816.734]","[-86013.24, -85858.59, -85891.516, -86047.31, -86041.72, -85888.586, -85891.766, -86040.266, -86057.125, -85909.71]","[-82083.14, -82056.72, -82011.61, -82029.586, -82089.266, -82086.516, -82040.54, -82034.91, -82083.05, -82096.26]","[-85386.26, -85222.58, -85261.89, -85428.414, -85416.41, -85251.43, -85259.48, -85420.09, -85432.125, -85271.81]","[-90126.52, -89990.625, -90015.1, -90154.625, -90157.04, -90025.336, -90022.3, -90149.28, -90169.93, -90046.26]","[-68448.484, -68956.0, -68855.8, -68331.164, -68361.78, -68912.91, -68937.79, -68420.52, -68310.195, -68847.375]","[-85247.23, -85220.36, -85170.48, -85185.984, -85243.9, -85238.42, -85189.61, -85193.61, -85247.14, -85253.4]"
Left,2025-10-28 18:44:25,"[-63982.965, -63544.38, -62487.453, -62837.035, -63844.83, -63658.348, -62524.043, -62590.16, -63637.113, -63712.418]","[-63989.715, -63552.023, -63268.0, -63716.8, -64002.277, -63646.75, -63267.44, -63629.875, -64011.35, -63744.402]","[-85874.484, -86007.75, -86077.93, -85938.01, -85865.61, -85991.27, -86092.93, -85974.58, -85866.33, -85960.9]","[-82047.87, -82026.19, -82074.31, -82096.57, -82048.56, -82025.875, -82071.38, -82105.49, -82064.48, -82028.375]","[-85237.87, -85382.73, -85451.81, -85297.72, -85222.266, -85357.67, -85461.25, -85327.61, -85213.88, -85319.23]","[-90005.984, -90113.25, -90179.92, -90062.98, -89991.03, -90094.12, -90191.34, -90091.79, -89992.95, -90067.05]","[-68992.46, -68516.34, -68258.74, -68747.75, -69015.33, -68611.63, -68248.08, -68658.55, -69028.65, -68708.28]","[-85200.47, -85180.64, -85230.8, -85250.83, -85200.4, -85175.34, -85219.4, -85251.32, -85207.195, -85172.016]"
Left,2025-10-28 18:44:25,"[-62616.51, -62378.777, -63417.82, -63762.664, -62733.5, -62237.203, -63189.074, -63747.49, -62882.88, -62141.18]","[-63288.227, -63537.63, -63996.375, -63836.67, -63341.65, -63466.348, -63975.92, -63929.453, -63430.473, -63405.754]","[-86086.38, -86011.26, -85871.87, -85934.5, -86085.11, -86037.38, -85891.96, -85932.734, -86089.195, -86086.875]","[-82057.61, -82111.234, -82075.625, -82034.03, -82062.51, -82119.055, -82101.83, -82058.88, -82069.125, -82124.65]","[-85450.43, -85364.82, -85220.516, -85291.62, -85449.4, -85390.64, -85234.16, -85279.46, -85442.94, -85430.555]","[-90176.75, -90119.24, -89996.69, -90045.37, -90179.37, -90144.164, -90016.195, -90041.7, -90172.46, -90175.23]","[-68254.23, -68548.195, -69013.734, -68802.38, -68294.125, -68470.766, -68999.79, -68909.02, -68387.87, -68406.42]","[-85204.67, -85257.94, -85221.3, -85178.27, -85213.26, -85274.37, -85254.625, -85210.52, -85228.56, -85292.336]"
Left,2025-10-28 18:44:25,"[-62918.91, -63672.008, -63014.418, -62073.79, -62643.65, -63561.098, -63106.55, -62048.508, -62382.58, -63424.55]","[-63924.87, -63989.65, -63505.105, -63342.543, -63843.734, -64027.086, -63596.1, -63314.668, -63763.848, -64055.004]","[-85933.3, -85927.28, -86072.81, -86108.445, -85955.22, -85909.0, -86056.79, -86121.45, -85988.88, -85901.484]","[-82122.73, -82066.914, -82055.734, -82111.37, -82122.586, -82066.6, -82057.63, -82105.805, -82134.414, -82077.35]","[-85263.234, -85259.27, -85414.445, -85444.44, -85275.91, -85230.69, -85388.734, -85452.016, -85305.03, -85218.016]","[-90041.234, -90027.53, -90147.734, -90187.45, -90056.34, -90006.48, -90130.21, -90192.58, -90080.15, -89997.04]","[-68946.59, -68974.664, -68460.35, -68332.99, -68866.77, -69023.39, -68544.17, -68288.49, -68774.22, -69047.76]","[-85288.36, -85233.28, -85230.8, -85289.41, -85299.4, -85242.49, -85232.79, -85287.016, -85311.984, -85253.51]"
Left,2025-10-28 18:44:25,"[-63257.875, -62137.312, -62175.11, -63250.855, -63335.055, -62250.434, -62022.695, -63074.812, -63423.79, -62411.746]","[-63700.93, -63312.477, -63672.297, -64067.027, -63806.652, -63351.64, -63590.98, -64053.797, -63897.156, -63400.12]","[-86031.69, -86140.02, -86032.695, -85922.01, -86031.57, -86156.3, -86077.44, -85941.516, -86012.664, -86156.99]","[-82057.81, -82104.26, -82148.72, -82106.945, -82079.875, -82108.62, -82154.53, -82122.055, -82084.59, -82104.53]","[-85359.945, -85470.03, -85348.44, -85232.37, -85351.27, -85479.76, -85387.42, -85241.93, -85321.125, -85472.375]","[-90105.78, -90207.305, -90120.85, -90018.27, -90107.52, -90215.46, -90150.87, -90032.31, -90087.09, -90212.36]","[-68642.38, -68270.85, -68673.32, -69059.85, -68745.945, -68293.23, -68583.02, -69055.18, -68846.234, -68336.81]","[-85233.35, -85281.25, -85327.445, -85284.336, -85254.74, -85290.945, -85338.18, -85306.016, -85265.13, -85292.36]"
Left,2025-10-28 18:44:25,"[-61892.293, -62827.312, -63416.125, -62572.234, -61821.215, -62604.957, -63385.59, -62754.4, -61835.25, -62412.598]","[-63507.676, -64019.285, -63983.14, -63481.727, -63449.605, -63969.977, -64047.516, -63574.887, -63405.508, -63901.535]","[-86114.09, -85961.836, -85984.39, -86132.96, -86131.42, -85972.836, -85960.61, -86108.35, -86142.33, -86004.62]","[-82159.805, -82142.88, -82091.27, -82097.64, -82155.71, -82150.28, -82095.63, -82090.72, -82143.71, -82160.01]","[-85419.16, -85257.87, -85287.28, -85447.234, -85439.66, -85270.54, -85265.516, -85425.8, -85458.03, -85309.7]","[-90185.11, -90053.88, -90065.75, -90195.34, -90201.78, -90065.305, -90048.96, -90173.87, -90211.06, -90095.164]","[-68493.55, -69017.914, -68932.31, -68404.695, -68416.97, -68965.164, -69001.445, -68491.31, -68361.18, -68897.06]","[-85352.055, -85330.664, -85273.05, -85281.38, -85341.305, -85333.64, -85277.47, -85277.29, -85331.67, -85347.3]"
Left,2025-10-28 18:44:25,"[-63356.98, -62954.18, -61887.867, -62198.78, -63204.88, -63042.535, -61945.51, -61980.65, -63043.52, -63169.27]","[-64096.465, -63670.17, -63376.293, -63815.883, -64112.203, -63767.426, -63377.188, -63726.633, -64126.215, -63870.38]","[-85958.17, -86103.68, -86174.6, -86038.64, -85961.836, -86080.91, -86178.24, -86075.41, -85963.695, -86053.52]","[-82109.85, -82100.59, -82150.57, -82179.3, -82137.38, -82115.8, -82150.234, -82196.1, -82158.53, -82117.05]","[-85266.79, -85425.125, -85497.86, -85351.945, -85277.78, -85410.93, -85511.9, -85397.14, -85281.16, -85382.37]","[-90048.945, -90173.22, -90243.805, -90133.9, -90067.49, -90168.73, -90256.27, -90176.37, -90077.51, -90146.87]","[-69068.32, -68596.19, -68324.12, -68805.62, -69086.78, -68693.52, -68322.016, -68716.35, -69110.68, -68805.87]","[-85295.6, -85284.336, -85335.74, -85361.555, -85312.97, -85291.75, -85333.4, -85379.91, -85340.21, -85299.15]"
Left,2025-10-28 18:44:25,"[-62083.625, -61824.746, -62858.805, -63234.918, -62250.457, -61718.418, -62646.152, -63266.703, -62412.418, -61625.86]","[-63397.684, -63622.387, -64089.516, -63940.875, -63443.953, -63544.086, -64055.875, -64031.715, -63529.67, -63483.625]","[-86175.56, -86096.39, -85955.734, -86019.91, -86165.305, -86132.67, -85977.26, -86005.65, -86171.72, -86162.98]","[-82138.28, -82181.195, -82145.945, -82098.78, -82116.82, -82180.57, -82163.805, -82117.805, -82139.24, -82193.29]","[-85508.9, -85416.32, -85267.01, -85339.3, -85490.93, -85449.22, -85283.7, -85320.164, -85497.59, -85482.95]","[-90251.336, -90187.14, -90060.97, -90108.04, -90234.93, -90220.58, -90086.38, -90104.17, -90251.13, -90253.69]","[-68338.65, -68613.98, -69081.914, -68880.19, -68371.86, -68520.59, -69052.3, -68985.8, -68457.67, -68453.445]","[-85327.29, -85370.61, -85331.16, -85284.78, -85310.375, -85372.22, -85353.4, -85303.13, -85321.82, -85374.45]"
Left,2025-10-28 18:44:25,"[-62383.047, -63189.79, -62562.31, -61625.234, -62203.496, -63149.47, -62773.242, -61728.97, -62030.137, -63064.555]","[-64002.23, -64091.145, -63616.15, -63438.363, -63932.113, -64132.652, -63714.25, -63412.145, -63840.582, -64151.562]","[-86006.14, -85994.625, -86150.17, -86189.16, -86041.695, -85996.98, -86133.945, -86204.58, -86075.2, -85998.85]","[-82191.48, -82139.13, -82139.94, -82196.62, -82209.05, -82159.36, -82145.25, -82190.805, -82218.32, -82177.125]","[-85315.58, -85311.36, -85481.99, -85518.0, -85357.71, -85315.625, -85464.17, -85534.07, -85391.35, -85314.305]","[-90121.45, -90100.016, -90231.375, -90271.25, -90146.42, -90101.625, -90217.32, -90284.62, -90179.61, -90110.48]","[-68999.14, -69060.34, -68553.31, -68410.95, -68945.03, -69120.31, -68659.1, -68384.49, -68854.88, -69152.27]","[-85366.14, -85310.77, -85312.74, -85372.805, -85385.63, -85332.055, -85315.47, -85363.73, -85391.98, -85350.05]"
Left,2025-10-28 18:44:25,"[-62931.895, -61805.277, -61811.312, -62868.55, -63004.562, -61918.4, -61627.85, -62637.95, -63016.14, -62015.004]","[-63815.906, -63416.684, -63756.652, -64152.457, -63906.027, -63437.918, -63654.727, -64119.2, -63982.18, -63479.223]","[-86124.53, -86229.3, -86117.625, -86000.15, -86089.195, -86217.09, -86140.56, -86005.6, -86065.03, -86206.45]","[-82159.47, -82198.516, -82233.61, -82189.555, -82150.71, -82178.555, -82227.375, -82196.28, -82153.91, -82171.02]","[-85450.516, -85558.56, -85433.17, -85311.516, -85412.74, -85547.97, -85460.98, -85319.72, -85389.48, -85541.4]","[-90216.2, -90314.836, -90224.78, -90116.06, -90184.17, -90299.73, -90240.27, -90119.555, -90164.3, -90291.03]","[-68764.16, -68374.68, -68761.164, -69150.58, -68856.16, -68392.2, -68654.5, -69127.33, -68944.94, -68427.32]","[-85332.39, -85375.15, -85414.71, -85370.23, -85331.49, -85364.51, -85412.34, -85378.75, -85333.04, -85352.91]"
Left,2025-10-28 18:44:25,"[-61449.996, -62367.895, -62988.47, -62160.492, -61365.664, -62098.176, -62913.03, -62309.11, -61337.164, -61862.61]","[-63561.277, -64076.504, -64061.305, -63561.68, -63503.027, -64018.1, -64118.57, -63651.44, -63463.242, -63954.734]","[-86163.23, -86012.89, -86038.7, -86195.77, -86199.55, -86053.59, -86035.8, -86187.97, -86236.31, -86088.305]","[-82222.164, -82212.04, -82168.92, -82176.34, -82233.37, -82239.98, -82184.62, -82177.77, -82236.02, -82249.81]","[-85491.31, -85332.234, -85364.44, -85531.56, -85527.74, -85368.64, -85354.14, -85517.39, -85563.39, -85401.97]","[-90263.875, -90136.18, -90151.89, -90285.05, -90295.7, -90169.195, -90144.85, -90273.375, -90321.52, -90194.3]","[-68558.37, -69093.13, -69032.78, -68505.39, -68497.99, -69049.73, -69118.73, -68608.945, -68449.22, -68974.375]","[-85404.766, -85386.32, -85337.22, -85349.78, -85409.75, -85412.54, -85356.375, -85352.484, -85416.23, -85429.71]"
Left,2025-10-28 18:44:25,"[-62804.535, -62438.727, -61371.34, -61643.586, -62684.35, -62571.9, -61472.395, -61450.02, -62509.69, -62667.676]","[-64165.332, -63757.836, -63447.438, -63874.895, -64192.176, -63863.65, -63456.445, -63780.77, -64188.04, -63950.82]","[-86039.6, -86173.22, -86246.93, -86114.164, -86030.14, -86149.93, -86251.875, -86151.38, -86034.14, -86125.32]","[-82197.266, -82180.95, -82225.05, -82257.46, -82216.375, -82194.0, -82225.54, -82270.05, -82229.695, -82195.91]","[-85354.43, -85500.3, -85573.52, -85429.24, -85343.45, -85474.32, -85580.25, -85468.336, -85346.2, -85448.664]","[-90142.555, -90256.81, -90327.734, -90222.57, -90148.09, -90247.445, -90338.84, -90259.61, -90151.984, -90225.34]","[-69161.39, -68707.85, -68428.26, -68899.27, -69203.055, -68818.984, -68423.984, -68793.016, -69193.67, -68905.17]","[-85376.375, -85359.55, -85408.12, -85437.13, -85388.96, -85366.19, -85407.2, -85446.38, -85402.414, -85365.984]"
Left,2025-10-28 18:44:25,"[-61583.996, -61291.992, -62289.82, -62692.664, -61735.94, -61154.13, -62046.7, -62685.645, -61889.68, -61076.746]","[-63476.72, -63683.9, -64154.668, -64029.254, -63527.277, -63594.895, -64108.402, -64098.477, -63598.67, -63529.492]","[-86248.72, -86170.87, -86040.336, -86087.86, -86230.88, -86203.03, -86052.92, -86070.98, -86226.86, -86236.984]","[-82220.734, -82265.62, -82245.44, -82201.06, -82210.27, -82269.24, -82258.734, -82208.22, -82214.19, -82271.984]","[-85579.53, -85491.69, -85356.75, -85414.305, -85567.82, -85533.89, -85375.73, -85401.45, -85568.71, -85572.516]","[-90337.39, -90278.3, -90169.24, -90205.586, -90327.96, -90313.875, -90183.86, -90191.99, -90324.38, -90338.76]","[-68428.305, -68679.76, -69154.58, -68979.984, -68463.26, -68577.81, -69111.125, -69065.91, -68541.086, -68512.61]","[-85394.77, -85440.68, -85414.94, -85363.15, -85377.67, -85435.54, -85421.125, -85369.445, -85376.984, -85438.586]"
Left,2025-10-28 18:44:25,"[-61820.03, -62657.17, -62041.6, -61065.234, -61577.2, -62550.707, -62201.707, -61107.254, -61338.15, -62373.28]","[-64050.062, -64157.17, -63682.8, -63477.57, -63967.652, -64197.61, -63791.344, -63468.0, -63885.4, -64217.098]","[-86079.97, -86064.38, -86218.93, -86258.0, -86115.52, -86062.24, -86203.17, -86280.15, -86152.27, -86062.195]","[-82271.09, -82217.45, -82213.47, -82262.53, -82282.65, -82234.234, -82221.83, -82270.89, -82300.375, -82254.8]","[-85402.53, -85390.34, -85557.09, -85592.945, -85437.016, -85384.36, -85537.4, -85614.086, -85473.45, -85381.48]","[-90201.984, -90178.586, -90309.43, -90347.85, -90227.24, -90175.9, -90293.05, -90366.07, -90263.05, -90179.01]","[-69064.164, -69133.61, -68622.336, -68456.33, -68985.305, -69190.32, -68735.08, -68438.47, -68899.055, -69212.02]","[-85434.76, -85377.0, -85380.24, -85434.94, -85450.695, -85400.516, -85384.516, -85431.27, -85461.09, -85412.03]"
Left,2025-10-28 18:44:25,"[-62309.152, -61221.406, -61171.426, -62225.402, -62390.56, -61317.965, -60997.13, -61998.8, -62436.18, -61506.168]","[-63896.53, -63487.223, -63802.34, -64212.85, -63986.54, -63516.797, -63713.18, -64186.32, -64069.62, -63570.64]","[-86167.79, -86278.72, -86181.46, -86065.37, -86158.84, -86284.87, -86213.0, -86072.19, -86122.03, -86261.73]","[-82221.05, -82254.51, -82300.62, -82266.13, -82233.9, -82256.766, -82303.73, -82275.81, -82227.95, -82239.664]","[-85499.266, -85612.91, -85503.96, -85383.04, -85486.39, -85620.15, -85537.87, -85391.46, -85451.45, -85601.98]","[-90268.33, -90367.27, -90288.51, -90184.414, -90259.32, -90371.32, -90316.0, -90193.516, -90229.5, -90351.72]","[-68843.195, -68443.7, -68803.2, -69215.46, -68940.71, -68471.086, -68710.47, -69190.41, -69024.51, -68508.12]","[-85379.73, -85420.27, -85461.984, -85422.266, -85389.07, -85419.27, -85464.89, -85430.47, -85379.57, -85396.02]"
Left,2025-10-28 18:44:25,"[-60929.87, -61801.21, -62450.84, -61659.074, -60838.05, -61532.945, -62371.715, -61805.793, -60797.816, -61281.31]","[-63630.812, -64140.344, -64146.176, -63645.88, -63565.543, -64083.277, -64204.133, -63745.945, -63524.24, -64002.926]","[-86234.64, -86094.984, -86111.1, -86270.11, -86277.64, -86130.305, -86102.164, -86253.88, -86303.73, -86149.7]","[-82299.836, -82295.57, -82248.07, -82249.52, -82302.68, -82311.98, -82256.03, -82249.97, -82302.66, -82314.28]","[-85565.9, -85414.89, -85437.46, -85605.016, -85605.15, -85446.61, -85423.586, -85586.22, -85632.88, -85464.734]","[-90338.82, -90217.12, -90221.14, -90353.086, -90366.43, -90242.305, -90210.1, -90338.06, -90388.13, -90256.1]","[-68613.4, -69140.09, -69104.71, -68585.5, -68551.88, -69093.69, -69177.98, -68677.68, -68490.98, -69010.38]","[-85455.01, -85448.375, -85400.85, -85410.89, -85467.88, -85469.43, -85411.58, -85407.83, -85463.91, -85475.125]"
Left,2025-10-28 18:44:25,"[-62255.777, -61922.02, -60832.375, -61029.582, -62061.293, -62021.53, -60920.484, -60848.87, -61886.324, -62107.05]","[-64230.53, -63833.477, -63505.082, -63913.785, -64249.33, -63936.695, -63520.664, -63830.145, -64245.418, -64029.566]","[-86091.97, -86226.33, -86309.65, -86184.664, -86088.08, -86191.73, -86304.84, -86211.016, -86090.29, -86168.055]","[-82263.875, -82249.19, -82297.266, -82330.35, -82282.02, -82245.55, -82282.83, -82333.73, -82301.16, -82256.07]","[-85407.29, -85555.125, -85639.86, -85501.81, -85403.76, -85518.87, -85636.62, -85530.984, -85406.4, -85494.35]","[-90200.82, -90316.875, -90396.47, -90296.266, -90208.51, -90292.266, -90395.75, -90324.43, -90217.56, -90276.35]","[-69216.05, -68768.09, -68462.97, -68916.22, -69238.59, -68876.61, -68470.91, -68826.41, -69240.875, -68976.9]","[-85415.6, -85397.66, -85448.305, -85479.06, -85430.266, -85392.85, -85433.06, -85477.01, -85438.695, -85395.0]"
Left,2025-10-28 18:44:25,"[-61044.445, -60697.504, -61708.605, -62152.266, -61208.086, -60590.504, -61471.098, -62154.613, -61365.33, -60544.84]","[-63553.43, -63736.6, -64221.793, -64113.633, -63612.664, -63660.293, -64176.574, -64185.74, -63683.54, -63594.355]","[-86304.6, -86230.21, -86093.375, -86149.48, -86300.71, -86275.41, -86122.75, -86140.695, -86297.41, -86301.02]","[-82286.83, -82331.58, -82309.695, -82268.37, -82285.29, -82341.305, -82331.11, -82282.29, -82289.11, -82339.78]","[-85639.01, -85553.9, -85409.37, -85474.28, -85635.14, -85601.52, -85438.914, -85463.03, -85630.12, -85627.66]","[-90400.36, -90341.055, -90219.62, -90259.516, -90390.164, -90374.83, -90240.05, -90246.94, -90381.05, -90390.88]","[-68495.695, -68724.46, -69220.07, -69064.37, -68546.516, -68639.66, -69176.34, -69144.49, -68614.36, -68569.03]","[-85429.44, -85474.66, -85450.25, -85406.04, -85428.45, -85486.28, -85469.805, -85417.62, -85425.39, -85477.586]"
Left,2025-10-28 18:44:25,"[-61253.258, -62096.88, -61540.7, -60537.508, -60992.145, -61988.918, -61702.46, -60604.273, -60797.215, -61851.39]","[-64111.53, -64238.734, -63775.605, -63544.758, -64017.742, -64259.97, -63868.746, -63528.598, -63928.78, -64276.04]","[-86155.36, -86138.17, -86284.26, -86333.97, -86189.51, -86118.57, -86255.2, -86338.89, -86207.68, -86111.93]","[-82350.445, -82306.7, -82293.89, -82340.56, -82360.57, -82304.555, -82286.516, -82333.08, -82365.266, -82323.64]","[-85471.33, -85458.695, -85616.73, -85664.83, -85507.984, -85439.48, -85588.586, -85674.39, -85532.34, -85435.81]","[-90268.33, -90248.25, -90370.2, -90419.76, -90299.57, -90231.914, -90346.16, -90427.38, -90322.375, -90238.53]","[-69115.46, -69211.33, -68716.93, -68524.97, -69039.71, -69263.164, -68821.85, -68498.15, -68939.64, -69269.77]","[-85481.5, -85433.086, -85427.67, -85480.49, -85496.07, -85437.29, -85418.51, -85466.5, -85492.09, -85446.31]"
Left,2025-10-28 18:44:25,"[-61823.184, -60720.168, -60631.477, -61680.51, -61896.63, -60863.598, -60504.785, -61525.5, -62007.54, -61081.082]","[-63971.676, -63548.223, -63846.06, -64266.94, -64057.664, -63584.05, -63762.285, -64251.004, -64155.297, -63647.062]","[-86223.82, -86337.52, -86236.36, -86115.414, -86193.69, -86321.23, -86254.4, -86113.805, -86163.805, -86313.54]","[-82295.26, -82331.555, -82374.6, -82342.35, -82305.29, -82329.7, -82379.08, -82354.24, -82314.234, -82323.17]","[-85561.96, -85682.24, -85570.73, -85447.45, -85537.89, -85674.93, -85599.914, -85452.75, -85511.16, -85670.44]","[-90331.36, -90437.44, -90359.12, -90255.09, -90317.68, -90433.68, -90384.734, -90263.875, -90300.76, -90428.5]","[-68917.0, -68502.555, -68849.99, -69274.805, -69021.74, -68545.625, -68772.164, -69274.74, -69130.55, -68606.195]","[-85421.15, -85463.234, -85503.555, -85463.03, -85421.98, -85446.74, -85498.086, -85472.89, -85426.02, -85442.47]"
Left,2025-10-28 18:44:25,"[-60431.34, -61292.754, -61985.457, -61240.004, -60395.016, -61107.703, -61994.285, -61463.832, -60450.76, -60879.18]","[-63675.63, -64189.67, -64206.75, -63715.86, -63613.89, -64133.703, -64275.035, -63822.836, -63587.426, -64055.676]","[-86291.55, -86136.05, -86146.555, -86297.02, -86315.76, -86160.81, -86139.87, -86294.836, -86347.72, -86209.02]","[-82377.375, -82363.164, -82310.586, -82311.22, -82369.06, -82373.76, -82328.27, -82326.8, -82380.51, -82407.82]","[-85640.22, -85473.695, -85491.445, -85655.15, -85668.42, -85502.06, -85484.76, -85651.664, -85702.4, -85550.5]","[-90415.94, -90278.67, -90280.664, -90411.4, -90434.95, -90304.04, -90282.805, -90415.58, -90470.695, -90357.734]","[-68679.71, -69213.23, -69191.59, -68672.47, -68612.14, -69165.39, -69275.45, -68780.19, -68577.74, -69089.76]","[-85499.36, -85484.9, -85429.484, -85433.22, -85494.17, -85497.81, -85450.09, -85449.94, -85505.836, -85527.07]"
Left,2025-10-28 18:44:25,"[-61877.184, -61608.09, -60524.992, -60697.93, -61760.35, -61749.645, -60664.58, -60558.832, -61606.547, -61843.79]","[-64303.777, -63919.664, -63572.297, -63958.938, -64306.906, -64009.562, -63580.586, -63867.047, -64295.375, -64095.395]","[-86138.016, -86268.21, -86352.7, -86220.734, -86122.86, -86233.836, -86341.7, -86248.586, -86129.9, -86207.77]","[-82352.81, -82333.19, -82371.21, -82395.99, -82351.13, -82325.41, -82354.94, -82400.06, -82368.44, -82331.4]","[-85481.5, -85624.95, -85710.83, -85566.86, -85466.73, -85591.16, -85705.35, -85602.15, -85478.81, -85568.4]","[-90293.18, -90403.266, -90479.52, -90368.75, -90279.1, -90372.26, -90470.63, -90397.14, -90291.98, -90354.4]","[-69322.98, -68893.086, -68564.22, -68991.99, -69327.22, -68977.414, -68557.12, -68888.44, -69320.49, -69075.3]","[-85470.03, -85448.91, -85490.21, -85512.79, -85463.664, -85436.81, -85474.01, -85518.29, -85481.766, -85441.94]"
Left,2025-10-28 18:44:25,"[-60814.023, -60405.566, -61399.15, -61892.293, -60958.84, -60293.406, -61146.37, -61852.375, -61124.957, -60248.547]","[-63615.39, -63772.477, -64261.957, -64174.586, -63667.848, -63686.87, -64198.59, -64231.383, -63747.555, -63634.68]","[-86345.03, -86289.4, -86144.72, -86190.984, -86341.414, -86314.79, -86158.06, -86167.92, -86319.914, -86344.586]","[-82353.484, -82407.73, -82381.51, -82337.055, -82349.1, -82399.016, -82386.2, -82338.87, -82341.945, -82402.86]","[-85713.84, -85649.09, -85495.58, -85551.8, -85714.05, -85679.84, -85512.79, -85530.65, -85694.06, -85714.41]","[-90475.234, -90436.09, -90308.31, -90341.414, -90473.875, -90458.875, -90323.805, -90325.34, -90455.14, -90486.945]","[-68589.46, -68790.734, -69289.555, -69155.54, -68635.1, -68700.59, -69234.91, -69226.26, -68717.06, -68643.86]","[-85468.734, -85523.12, -85494.44, -85444.84, -85463.77, -85516.91, -85503.54, -85453.445, -85458.586, -85518.0]"
Left,2025-10-28 18:44:25,"[-60898.78, -61771.637, -61237.117, -60221.902, -60644.688, -61637.55, -61365.863, -60254.76, -60390.03, -61442.04]","[-64143.047, -64287.73, -63831.465, -63585.305, -64048.723, -64307.914, -63929.05, -63578.22, -63961.773, -64314.33]","[-86189.51, -86157.19, -86302.55, -86346.58, -86202.836, -86135.94, -86270.24, -86361.35, -86236.02, -86135.35]","[-82407.77, -82354.29, -82342.125, -82381.53, -82404.13, -82356.88, -82341.97, -82390.27, -82420.72, -82374.875]","[-85547.5, -85518.31, -85675.06, -85717.195, -85561.49, -85495.22, -85642.19, -85735.91, -85597.305, -85494.016]","[-90356.164, -90320.695, -90442.42, -90485.02, -90366.766, -90304.375, -90419.67, -90507.625, -90402.26, -90309.23]","[-69185.734, -69301.74, -68804.08, -68585.52, -69082.49, -69320.914, -68898.07, -68571.4, -69006.54, -69358.02]","[-85521.91, -85466.08, -85456.28, -85500.2, -85516.12, -85462.945, -85448.51, -85499.18, -85528.81, -85482.7]"
Left,2025-10-28 18:44:25,"[-61454.355, -60357.242, -60221.992, -61268.12, -61531.113, -60494.953, -60071.008, -61050.57, -61550.2, -60632.55]","[-64027.4, -63596.055, -63872.59, -64308.76, -64127.2, -63645.496, -63795.23, -64293.004, -64215.242, -63709.56]","[-86240.41, -86354.87, -86265.69, -86139.625, -86226.7, -86362.94, -86307.73, -86167.516, -86213.12, -86357.95]","[-82344.875, -82373.87, -82417.9, -82387.28, -82362.16, -82385.625, -82436.85, -82418.46, -82373.82, -82379.3]","[-85609.7, -85728.33, -85626.54, -85492.945, -85588.875, -85732.04, -85666.28, -85518.29, -85570.66, -85724.35]","[-90393.984, -90496.89, -90427.6, -90315.84, -90387.08, -90506.84, -90467.21, -90345.195, -90376.4, -90499.69]","[-69018.99, -68596.81, -68924.06, -69365.445, -69132.29, -68643.91, -68837.766, -69345.44, -69219.8, -68695.61]","[-85453.11, -85488.65, -85533.51, -85499.31, -85469.766, -85498.305, -85549.72, -85527.99, -85477.72, -85485.07]"
Left,2025-10-28 18:44:25,"[-59947.246, -60776.383, -61481.09, -60771.688, -59915.617, -60561.895, -61439.67, -60950.637, -59934.234, -60330.285]","[-63719.168, -64237.258, -64274.61, -63791.188, -63665.66, -64164.395, -64316.273, -63879.97, -63625.78, -64079.902]","[-86339.086, -86187.3, -86193.516, -86336.27, -86353.125, -86204.33, -86174.06, -86320.05, -86380.75, -86241.44]","[-82432.63, -82428.3, -82379.234, -82368.39, -82418.62, -82426.664, -82378.2, -82368.32, -82415.77, -82437.414]","[-85698.016, -85534.38, -85546.18, -85699.92, -85711.27, -85549.23, -85519.336, -85673.03, -85729.914, -85574.86]","[-90490.37, -90356.5, -90351.65, -90470.63, -90492.18, -90364.836, -90330.77, -90451.85, -90508.16, -90390.88]","[-68753.61, -69290.836, -69289.13, -68777.32, -68694.96, -69227.4, -69344.766, -68866.4, -68645.43, -69137.945]","[-85541.22, -85533.87, -85480.72, -85479.71, -85534.27, -85540.77, -85492.54, -85489.34, -85544.87, -85567.62]"
Left,2025-10-28 18:44:25,"[-61343.848, -61107.656, -59991.523, -60097.312, -61144.56, -61181.887, -60070.625, -59895.387, -60941.63, -61236.785]","[-64349.375, -63979.297, -63615.992, -63987.703, -64347.586, -64067.008, -63624.242, -63890.426, -64331.383, -64153.797]","[-86170.49, -86307.98, -86402.766, -86283.86, -86175.43, -86275.32, -86394.32, -86303.35, -86171.875, -86249.46]","[-82390.54, -82374.875, -82416.38, -82449.91, -82406.234, -82374.36, -82407.22, -82450.266, -82412.42, -82374.83]","[-85500.72, -85647.95, -85742.836, -85609.57, -85497.28, -85608.164, -85733.49, -85631.61, -85495.18, -85583.29]","[-90324.18, -90440.92, -90527.336, -90429.15, -90330.91, -90412.56, -90520.164, -90446.87, -90327.96, -90386.74]","[-69389.29, -68970.484, -68624.95, -69042.86, -69397.85, -69063.74, -68626.85, -68938.68, -69384.4, -69156.164]","[-85517.35, -85503.67, -85552.914, -85587.22, -85542.49, -85508.52, -85546.18, -85589.1, -85551.59, -85509.86]"
Left,2025-10-28 18:44:25,"[-60208.69, -59782.066, -60733.758, -61281.195, -60400.76, -59696.145, -60500.004, -61237.61, -60531.453, -59639.617]","[-63670.49, -63814.273, -64303.844, -64239.516, -63742.234, -63741.52, -64257.555, -64308.36, -63828.914, -63691.766]","[-86391.234, -86334.664, -86196.89, -86230.93, -86389.47, -86381.49, -86231.78, -86229.61, -86381.71, -86403.28]","[-82399.52, -82445.35, -82426.51, -82378.18, -82395.93, -82453.06, -82446.0, -82391.32, -82394.27, -82444.79]","[-85732.06, -85664.71, -85516.7, -85558.55, -85726.47, -85707.43, -85543.5, -85543.79, -85705.59, -85721.13]","[-90512.18, -90466.83, -90345.484, -90370.16, -90508.78, -90504.72, -90373.47, -90362.36, -90494.79, -90520.19]","[-68663.125, -68851.016, -69353.555, -69245.28, -68723.26, -68764.85, -69305.25, -69318.414, -68801.44, -68701.53]","[-85540.8, -85591.0, -85569.9, -85522.6, -85542.18, -85601.17, -85596.19, -85538.83, -85541.04, -85597.28]"
Left,2025-10-28 18:44:25,"[-60266.426, -61187.543, -60726.156, -59695.855, -60088.484, -61093.664, -60878.016, -59757.633, -59859.246, -60937.293]","[-64192.824, -64365.133, -63925.633, -63662.93, -64123.38, -64397.766, -64033.95, -63657.902, -64030.484, -64407.715]","[-86253.305, -86216.086, -86360.66, -86421.14, -86290.79, -86222.37, -86351.09, -86449.484, -86325.81, -86217.586]","[-82451.27, -82402.26, -82386.9, -82434.69, -82464.59, -82418.39, -82395.664, -82435.625, -82469.58, -82426.59]","[-85557.445, -85523.516, -85679.47, -85738.32, -85593.66, -85523.27, -85663.42, -85765.23, -85629.78, -85518.67]","[-90389.02, -90353.33, -90473.89, -90532.88, -90423.13, -90355.875, -90459.56, -90549.42, -90450.266, -90356.055]","[-69237.61, -69376.26, -68892.88, -68656.336, -69157.51, -69413.21, -68997.65, -68644.89, -69067.16, -69432.836]","[-85602.29, -85545.96, -85535.766, -85589.44, -85617.33, -85568.53, -85549.67, -85599.78, -85635.39, -85587.6]"
Left,2025-10-28 18:44:25,"[-60994.56, -59887.453, -59683.74, -60742.387, -61061.992, -60026.215, -59552.332, -60514.89, -61072.766, -60193.94]","[-64136.79, -63687.137, -63945.59, -64397.855, -64227.78, -63735.777, -63860.812, -64355.387, -64297.88, -63795.5]","[-86324.76, -86451.01, -86364.305, -86232.56, -86304.82, -86449.15, -86395.86, -86246.95, -86276.64, -86433.46]","[-82400.31, -82432.92, -82483.19, -82452.21, -82412.805, -82436.3, -82484.44, -82462.94, -82417.34, -82433.055]","[-85637.29, -85768.36, -85670.33, -85535.56, -85620.414, -85773.5, -85710.24, -85553.9, -85592.945, -85760.6]","[-90445.555, -90553.94, -90486.43, -90372.484, -90429.52, -90557.58, -90514.24, -90385.56, -90409.81, -90547.09]","[-69106.81, -68662.01, -68970.51, -69430.04, -69206.19, -68703.25, -68876.586, -69386.945, -69287.93, -68764.85]","[-85558.055, -85593.08, -85641.76, -85605.93, -85562.45, -85590.555, -85642.01, -85617.195, -85566.3, -85587.42]"
Left,2025-10-28 18:44:25,"[-59484.832, -60307.44, -61068.34, -60397.273, -59468.516, -60066.625, -60956.83, -60509.68, -59471.02, -59816.91]","[-63784.77, -64303.332, -64362.742, -63881.82, -63726.188, -64223.2, -64397.32, -63971.723, -63695.297, -64142.734]","[-86419.0, -86265.58, -86264.125, -86419.47, -86449.77, -86296.89, -86261.484, -86402.39, -86466.85, -86332.79]","[-82485.36, -82480.69, -82428.695, -82427.266, -82477.53, -82483.34, -82437.64, -82429.08, -82475.27, -82503.62]","[-85738.25, -85573.25, -85577.09, -85744.375, -85769.7, -85603.16, -85569.23, -85722.984, -85787.65, -85640.46]","[-90542.086, -90410.75, -90400.445, -90531.0, -90562.3, -90431.83, -90395.55, -90516.336, -90581.54, -90470.23]","[-68799.5, -69344.03, -69370.23, -68858.95, -68736.82, -69267.81, -69414.59, -68946.75, -68701.93, -69192.33]","[-85645.49, -85637.0, -85580.336, -85579.95, -85635.79, -85640.69, -85588.63, -85577.48, -85627.52, -85654.68]"
Left,2025-10-28 18:44:25,"[-60840.04, -60658.23, -59542.434, -59625.38, -60664.848, -60752.848, -59678.49, -59463.285, -60522.2, -60880.25]","[-64433.375, -64080.105, -63697.867, -64059.92, -64437.957, -64177.65, -63732.29, -63980.504, -64435.406, -64279.37]","[-86255.16, -86384.266, -86474.45, -86357.15, -86257.33, -86346.445, -86478.66, -86403.26, -86272.28, -86342.53]","[-82456.5, -82439.695, -82475.08, -82511.11, -82479.52, -82440.66, -82476.57, -82531.18, -82498.63, -82460.164]","[-85562.73, -85705.125, -85799.945, -85670.75, -85570.03, -85671.98, -85811.09, -85723.88, -85586.1, -85665.5]","[-90398.61, -90506.62, -90589.38, -90495.1, -90408.36, -90476.305, -90593.23, -90535.07, -90417.26, -90472.77]","[-69465.58, -69061.39, -68695.445, -69098.72, -69462.54, -69154.086, -68711.01, -69012.15, -69478.27, -69275.41]","[-85604.164, -85581.79, -85620.46, -85650.81, -85612.45, -85575.42, -85617.71, -85671.98, -85638.12, -85598.06]"
Left,2025-10-28 18:44:25,"[-59872.188, -59371.555, -60323.492, -60881.793, -60015.574, -59274.414, -60063.875, -60839.95, -60168.15, -59249.11]","[-63787.453, -63902.88, -64397.926, -64347.97, -63851.2, -63827.395, -64345.04, -64415.96, -63936.516, -63776.277]","[-86492.89, -86445.664, -86295.68, -86332.45, -86484.13, -86480.6, -86323.42, -86313.945, -86466.586, -86492.51]","[-82484.93, -82538.625, -82512.6, -82464.26, -82472.375, -82527.6, -82521.79, -82468.59, -82467.766, -82517.97]","[-85825.16, -85768.54, -85608.01, -85651.484, -85813.53, -85802.36, -85632.26, -85627.72, -85790.71, -85811.74]","[-90605.836, -90573.05, -90439.695, -90462.56, -90591.62, -90593.9, -90456.016, -90440.414, -90570.875, -90600.875]","[-68771.96, -68930.3, -69443.945, -69350.71, -68831.62, -68847.93, -69389.9, -69426.17, -68908.98, -68779.984]","[-85629.33, -85684.81, -85661.66, -85611.9, -85625.33, -85683.266, -85675.11, -85616.75, -85615.9, -85667.93]"
Left,2025-10-28 18:44:25,"[-59836.76, -60760.223, -60339.027, -59281.05, -59583.516, -60606.016, -60444.145, -59329.02, -59391.29, -60454.473]","[-64270.61, -64455.258, -64027.69, -63741.34, -64178.23, -64477.316, -64129.883, -63745.32, -64099.46, -64481.25]","[-86340.81, -86293.42, -86435.805, -86508.336, -86379.26, -86292.62, -86417.97, -86524.66, -86409.68, -86301.92]","[-82530.6, -82479.68, -82467.79, -82518.055, -82550.67, -82502.37, -82477.22, -82517.19, -82550.445, -82509.81]","[-85648.22, -85603.96, -85757.92, -85828.62, -85686.87, -85599.984, -85736.82, -85846.66, -85719.01, -85607.43]","[-90475.64, -90430.77, -90551.766, -90620.875, -90516.02, -90437.7, -90539.14, -90633.555, -90536.66, -90438.89]","[-69305.12, -69460.04, -68988.39, -68736.98, -69219.484, -69501.09, -69103.37, -68738.61, -69138.98, -69515.914]","[-85673.27, -85618.266, -85605.33, -85660.336, -85690.6, -85638.83, -85615.25, -85664.23, -85698.22, -85653.09]"
Left,2025-10-28 18:44:25,"[-60555.996, -59474.348, -59243.21, -60262.227, -60597.188, -59597.797, -59100.0, -60042.62, -60648.418, -59812.395]","[-64223.47, -63772.453, -64010.145, -64465.94, -64317.906, -63830.75, -63935.086, -64437.49, -64402.082, -63902.742]","[-86397.16, -86518.33, -86438.266, -86312.266, -86386.97, -86527.805, -86483.305, -86339.02, -86369.78, -86522.8]","[-82477.086, -82505.97, -82555.54, -82532.07, -82499.22, -82517.14, -82564.86, -82552.46, -82507.016, -82514.73]","[-85713.305, -85839.35, -85747.33, -85614.02, -85698.98, -85849.43, -85795.65, -85643.52, -85680.45, -85843.06]","[-90516.43, -90625.57, -90564.44, -90455.586, -90513.414, -90634.38, -90600.02, -90474.43, -90492.2, -90623.875]","[-69206.63, -68752.38, -69035.76, -69500.13, -69302.234, -68800.86, -68949.52, -69471.7, -69394.45, -68869.91]","[-85617.77, -85652.87, -85699.65, -85671.24, -85636.73, -85661.875, -85710.805, -85691.65, -85642.766, -85654.7]"
Left,2025-10-28 18:44:25,"[-59057.266, -59826.812, -60611.965, -59984.504, -59043.7, -59610.895, -60545.445, -60134.418, -59093.16, -59401.504]","[-63861.035, -64376.242, -64456.777, -63987.234, -63815.08, -64309.008, -64502.195, -64081.6, -63790.18, -64220.293]","[-86515.914, -86366.0, -86350.914, -86497.79, -86534.016, -86381.49, -86330.35, -86470.79, -86535.56, -86412.05]","[-82562.74, -82566.65, -82517.03, -82512.875, -82567.92, -82580.29, -82528.2, -82514.95, -82555.38, -82588.47]","[-85829.96, -85669.12, -85658.63, -85816.484, -85849.07, -85684.945, -85636.33, -85789.59, -85855.4, -85719.81]","[-90622.58, -90496.445, -90477.67, -90605.57, -90647.09, -90520.516, -90471.86, -90592.05, -90652.28, -90550.695]","[-68874.086, -69418.125, -69464.39, -68959.2, -68827.15, -69353.98, -69512.12, -69042.95, -68779.516, -69249.33]","[-85710.06, -85708.37, -85651.52, -85646.836, -85703.9, -85715.01, -85657.83, -85642.875, -85689.95, -85717.13]"
Left,2025-10-28 18:44:25,"[-60410.64, -60279.035, -59180.29, -59182.746, -60245.19, -60358.965, -59277.652, -59025.75, -60050.285, -60434.65]","[-64520.164, -64181.83, -63790.156, -64128.92, -64521.305, -64273.156, -63815.46, -64043.047, -64505.258, -64363.906]","[-86333.32, -86450.2, -86552.19, -86447.09, -86328.16, -86427.625, -86546.695, -86466.875, -86335.6, -86397.984]","[-82545.53, -82514.414, -82551.92, -82595.44, -82551.07, -82522.46, -82544.7, -82594.88, -82567.63, -82521.03]","[-85640.87, -85768.61, -85874.22, -85757.38, -85635.055, -85747.75, -85874.28, -85783.94, -85645.625, -85718.336]","[-90478.164, -90569.85, -90662.92, -90576.51, -90469.4, -90553.82, -90659.234, -90601.52, -90485.09, -90528.3]","[-69529.836, -69143.53, -68766.53, -69150.35, -69545.04, -69244.164, -68789.82, -69060.92, -69528.61, -69341.88]","[-85672.49, -85646.81, -85690.53, -85732.484, -85685.55, -85651.8, -85682.22, -85729.83, -85700.99, -85654.01]"
Left,2025-10-28 18:44:25,"[-59427.5, -58879.523, -59823.64, -60436.03, -59597.24, -58842.598, -59594.555, -60384.6, -59755.355, -58802.613]","[-63865.617, -63953.324, -64463.66, -64440.527, -63943.156, -63901.56, -64415.36, -64502.195, -64035.805, -63856.297]","[-86553.375, -86513.66, -86356.21, -86392.086, -86545.086, -86540.97, -86390.836, -86374.516, -86525.88, -86564.305]","[-82545.195, -82598.66, -82580.35, -82541.17, -82553.15, -82607.22, -82610.17, -82556.15, -82552.88, -82605.945]","[-85882.58, -85833.05, -85667.016, -85711.56, -85874.71, -85863.664, -85701.55, -85688.12, -85851.58, -85886.664]","[-90664.69, -90637.46, -90502.484, -90528.56, -90659.77, -90664.84, -90540.14, -90517.62, -90647.25, -90686.8]","[-68833.805, -68976.5, -69503.11, -69430.58, -68908.82, -68912.75, -69450.89, -69503.305, -69002.74, -68859.625]","[-85683.69, -85739.66, -85719.41, -85673.52, -85688.32, -85744.96, -85740.42, -85682.64, -85683.11, -85739.26]"
Left,2025-10-28 18:44:25,"[-59340.215, -60281.605, -59917.582, -58851.9, -59140.348, -60185.805, -60050.02, -58932.074, -58940.77, -59999.01]","[-64348.1, -64548.598, -64135.984, -63832.69, -64256.75, -64563.035, -64222.395, -63820.758, -64158.47, -64559.08]","[-86420.92, -86365.33, -86499.71, -86580.98, -86450.555, -86364.44, -86490.39, -86590.5, -86485.41, -86369.04]","[-82627.36, -82570.25, -82550.734, -82599.375, -82626.22, -82575.48, -82550.89, -82586.68, -82629.73, -82592.4]","[-85731.73, -85677.055, -85822.74, -85903.99, -85760.266, -85673.03, -85811.43, -85914.945, -85798.22, -85676.61]","[-90569.336, -90512.43, -90624.19, -90700.23, -90591.11, -90511.47, -90612.27, -90700.516, -90617.86, -90514.51]","[-69382.875, -69560.17, -69102.516, -68820.35, -69292.555, -69590.28, -69200.69, -68814.766, -69197.78, -69594.91]","[-85751.73, -85693.95, -85672.74, -85726.25, -85756.2, -85703.27, -85680.74, -85723.66, -85762.17, -85718.805]"
Left,2025-10-28 18:44:25,"[-60155.363, -59086.3, -58805.07, -59824.42, -60213.297, -59221.594, -58672.367, -59585.145, -60211.754, -59395.625]","[-64322.375, -63861.48, -64075.836, -64545.47, -64416.363, -63918.523, -63999.707, -64506.8, -64493.5, -63997.56]","[-86455.81, -86586.234, -86514.17, -86382.14, -86448.45, -86597.48, -86553.13, -86403.93, -86428.25, -86583.1]","[-82553.42, -82584.98, -82635.78, -82615.6, -82582.68, -82602.34, -82648.836, -82634.6, -82584.35, -82591.88]","[-85773.75, -85911.66, -85828.305, -85689.414, -85764.83, -85924.33, -85873.21, -85714.805, -85745.23, -85910.695]","[-90580.58, -90699.78, -90645.31, -90531.94, -90586.08, -90717.28, -90685.68, -90556.84, -90568.24, -90702.195]","[-69304.35, -68841.61, -69102.45, -69580.445, -69400.914, -68886.71, -69015.28, -69544.01, -69489.14, -68971.23]","[-85676.625, -85712.03, -85764.54, -85740.305, -85701.64, -85727.48, -85779.11, -85763.06, -85711.03, -85722.61]"
Left,2025-10-28 18:44:25,"[-58615.305, -59355.15, -60154.87, -59534.81, -58566.11, -59094.3, -60057.19, -59692.57, -58604.91, -58868.305]","[-63939.758, -64455.1, -64553.113, -64086.652, -63893.176, -64381.047, -64594.82, -64186.008, -63869.035, -64289.293]","[-86582.08, -86432.74, -86414.125, -86562.23, -86598.03, -86448.12, -86396.805, -86535.25, -86613.61, -86478.03]","[-82647.836, -82652.664, -82600.0, -82596.78, -82646.23, -82660.98, -82610.84, -82595.555, -82638.89, -82664.51]","[-85904.17, -85742.43, -85728.664, -85890.375, -85923.91, -85760.47, -85710.266, -85862.195, -85941.72, -85793.1]","[-90710.555, -90582.39, -90559.79, -90689.5, -90729.305, -90603.734, -90551.875, -90669.586, -90742.45, -90627.45]","[-68957.32, -69497.72, -69562.0, -69063.6, -68907.26, -69431.36, -69619.36, -69164.234, -68874.375, -69341.82]","[-85781.66, -85779.05, -85718.805, -85716.8, -85772.16, -85780.81, -85725.625, -85711.54, -85759.71, -85782.22]"
Left,2025-10-28 18:44:25,"[-59915.125, -59826.21, -58711.15, -58665.797, -59713.89, -59886.516, -58821.098, -58511.03, -59513.062, -59935.914]","[-64610.29, -64282.03, -63874.156, -64194.188, -64600.34, -64374.363, -63904.4, -64102.344, -64570.188, -64451.95]","[-86390.21, -86501.97, -86613.66, -86509.56, -86394.55, -86485.47, -86612.72, -86540.68, -86404.16, -86455.41]","[-82620.984, -82588.71, -82626.22, -82665.375, -82631.25, -82598.46, -82624.5, -82672.664, -82648.34, -82602.77]","[-85704.68, -85828.4, -85946.64, -85831.95, -85713.15, -85815.45, -85950.37, -85868.74, -85726.9, -85787.445]","[-90549.42, -90641.15, -90745.31, -90659.95, -90557.84, -90629.87, -90743.21, -90685.766, -90565.805, -90606.22]","[-69650.02, -69270.914, -68870.28, -69234.39, -69638.67, -69365.625, -68896.68, -69141.14, -69614.42, -69448.03]","[-85733.16, -85702.58, -85742.7, -85784.01, -85746.86, -85711.74, -85739.17, -85787.42, -85761.14, -85715.01]"
Left,2025-10-28 18:44:25,"[-58983.727, -58399.453, -59287.02, -59921.72, -59114.53, -58293.617, -59005.855, -59845.434, -59285.453, -58301.574]","[-63962.8, -64030.28, -64532.996, -64525.62, -64029.008, -63951.336, -64462.41, -64578.703, -64119.445, -63911.55]","[-86607.375, -86580.35, -86430.71, -86446.87, -86601.09, -86604.83, -86453.305, -86427.87, -86575.305, -86625.68]","[-82623.4, -82680.266, -82664.59, -82615.086, -82622.15, -82672.555, -82676.11, -82623.76, -82616.766, -82673.38]","[-85948.516, -85912.04, -85750.45, -85773.08, -85936.734, -85934.79, -85771.984, -85751.88, -85910.41, -85958.35]","[-90737.94, -90719.74, -90585.81, -90592.984, -90726.29, -90734.805, -90606.84, -90580.22, -90706.555, -90760.42]","[-68943.484, -69054.77, -69579.57, -69530.04, -69003.21, -68972.03, -69516.336, -69601.14, -69101.734, -68928.51]","[-85739.75, -85796.234, -85775.67, -85721.555, -85730.09, -85785.19, -85783.875, -85727.75, -85721.6, -85780.32]"
Left,2025-10-28 18:44:25,"[-58808.78, -59786.02, -59443.793, -58348.83, -58552.16, -59591.9, -59554.3, -58452.09, -58379.54, -59440.484]","[-64394.75, -64621.777, -64222.17, -63897.043, -64303.668, -64632.887, -64320.05, -63905.56, -64219.47, -64633.914]","[-86474.586, -86421.055, -86559.414, -86639.695, -86518.28, -86422.44, -86530.98, -86649.24, -86556.59, -86429.93]","[-82688.266, -82640.14, -82624.875, -82669.36, -82703.664, -82656.1, -82621.63, -82661.266, -82713.1, -82670.66]","[-85793.64, -85740.42, -85890.69, -85971.914, -85837.56, -85738.875, -85858.33, -85981.93, -85878.305, -85747.08]","[-90633.51, -90578.14, -90693.74, -90769.3, -90670.3, -90580.914, -90665.18, -90770.37, -90700.41, -90586.68]","[-69450.18, -69652.1, -69210.19, -68909.336, -69359.2, -69679.04, -69314.64, -68915.03, -69276.82, -69689.97]","[-85795.14, -85743.234, -85732.62, -85781.305, -85814.984, -85766.414, -85732.04, -85774.82, -85824.1, -85778.555]"
Left,2025-10-28 18:44:25,"[-59638.008, -58568.254, -58227.344, -59230.066, -59664.652, -58715.73, -58114.914, -59017.973, -59700.617, -58916.492]","[-64413.84, -63941.48, -64131.11, -64611.81, -64502.082, -64003.797, -64056.723, -64569.05, -64577.297, -64085.445]","[-86516.36, -86650.36, -86585.336, -86450.78, -86503.71, -86646.914, -86617.305, -86462.29, -86479.1, -86635.9]","[-82631.74, -82659.055, -82712.336, -82693.48, -82650.76, -82663.5, -82715.67, -82702.95, -82657.555, -82665.22]","[-85845.36, -85985.91, -85910.78, -85768.47, -85828.59, -85982.06, -85942.79, -85776.74, -85802.086, -85970.42]","[-90656.04, -90774.03, -90726.58, -90611.6, -90649.266, -90774.32, -90756.51, -90622.04, -90633.59, -90769.97]","[-69421.44, -68948.695, -69187.164, -69675.88, -69519.71, -69010.695, -69111.46, -69641.42, -69605.234, -69086.76]","[-85737.625, -85771.625, -85825.49, -85802.76, -85756.914, -85775.04, -85830.875, -85814.516, -85761.41, -85768.61]"
Left,2025-10-28 18:44:25,"[-58097.258, -58805.227, -59665.477, -59101.12, -58130.562, -58599.57, -59565.14, -59244.73, -58171.04, -58373.86]","[-64000.934, -64514.824, -64638.16, -64180.64, -63963.72, -64434.848, -64664.066, -64271.258, -63941.793, -64342.38]","[-86642.086, -86492.4, -86472.28, -86628.234, -86666.836, -86528.99, -86464.055, -86598.5, -86675.414, -86556.62]","[-82716.85, -82725.195, -82677.76, -82675.88, -82715.78, -82736.836, -82683.125, -82665.6, -82704.05, -82740.91]","[-85972.56, -85812.125, -85796.39, -85965.305, -86001.555, -85850.32, -85786.35, -85933.61, -86012.195, -85880.23]","[-90784.09, -90661.336, -90641.82, -90774.86, -90808.21, -90692.02, -90628.34, -90741.016, -90810.69, -90714.016]","[-69047.76, -69585.14, -69675.69, -69184.055, -69000.33, -69502.57, -69711.266, -69277.24, -68975.96, -69418.62]","[-85825.22, -85831.7, -85780.45, -85780.09, -85824.82, -85840.53, -85786.15, -85769.66, -85815.99, -85852.625]"
Left,2025-10-28 18:44:25,"[-59405.887, -59352.4, -58249.45, -58157.16, -59240.438, -59491.293, -58450.19, -58079.8, -59093.9, -59543.594]","[-64675.22, -64366.676, -63950.71, -64250.56, -64674.75, -64474.926, -64002.7, -64174.92, -64653.516, -64552.4]","[-86464.28, -86572.016, -86683.8, -86583.93, -86455.01, -86545.77, -86685.48, -86617.52, -86471.44, -86529.28]","[-82697.07, -82666.74, -82699.76, -82738.67, -82696.336, -82665.83, -82689.32, -82734.47, -82706.77, -82669.67]","[-85784.9, -85903.99, -86021.36, -85908.664, -85772.79, -85873.68, -86020.15, -85940.96, -85787.65, -85853.68]","[-90628.97, -90716.48, -90817.44, -90734.36, -90617.37, -90690.52, -90812.91, -90759.91, -90632.77, -90678.34]","[-69741.51, -69380.64, -68973.93, -69319.89, -69746.43, -69494.57, -69013.67, -69228.65, -69722.83, -69575.1]","[-85803.516, -85772.3, -85810.76, -85847.77, -85801.62, -85769.68, -85803.516, -85849.32, -85818.12, -85775.31]"
Left,2025-10-28 18:44:25,"[-58601.47, -57967.016, -58830.37, -59514.516, -58765.285, -57934.96, -58622.902, -59462.75, -58915.49, -57894.84]","[-64055.496, -64091.19, -64605.953, -64627.254, -64140.32, -64042.867, -64549.848, -64674.57, -64222.17, -63985.49]","[-86674.41, -86649.195, -86501.34, -86510.33, -86661.87, -86670.61, -86519.445, -86491.88, -86632.75, -86681.63]","[-82684.445, -82737.555, -82732.836, -82683.59, -82685.74, -82736.99, -82744.055, -82689.875, -82676.51, -82724.41]","[-86007.055, -85971.6, -85814.05, -85828.305, -85991.36, -85995.055, -85831.39, -85806.05, -85958.28, -86005.84]","[-90805.98, -90788.41, -90663.52, -90664.69, -90795.49, -90812.836, -90686.26, -90654.72, -90773.02, -90824.164]","[-69064.19, -69145.5, -69678.61, -69660.484, -69144.875, -69088.52, -69624.3, -69721.84, -69230.484, -69031.82]","[-85793.98, -85849.23, -85842.34, -85790.29, -85793.195, -85844.87, -85847.64, -85791.94, -85778.53, -85832.17]"
Left,2025-10-28 18:44:25,"[-58348.758, -59343.77, -59046.74, -57952.15, -58132.73, -59191.242, -59170.992, -58074.01, -57984.56, -59046.133]","[-64457.18, -64702.938, -64315.805, -63974.312, -64372.867, -64719.008, -64419.383, -63994.88, -64288.2, -64719.99]","[-86531.02, -86469.625, -86606.53, -86690.91, -86571.5, -86475.55, -86590.68, -86701.55, -86608.25, -86489.16]","[-82741.71, -82694.73, -82679.21, -82719.96, -82752.664, -82705.74, -82680.555, -82711.11, -82753.02, -82720.25]","[-85843.69, -85784.38, -85933.78, -86019.234, -85887.74, -85788.586, -85914.79, -86029.43, -85922.14, -85794.555]","[-90702.04, -90646.72, -90759.93, -90836.69, -90738.85, -90647.12, -90737.82, -90835.99, -90759.08, -90650.72]","[-69543.14, -69762.74, -69329.48, -69014.836, -69459.19, -69798.484, -69449.75, -69034.97, -69371.34, -69800.61]","[-85845.54, -85793.17, -85780.07, -85828.24, -85865.21, -85818.766, -85791.0, -85827.21, -85867.0, -85830.586]"
Left,2025-10-28 18:44:25,"[-59295.625, -58245.85, -57843.008, -58815.44, -59309.035, -58385.348, -57732.836, -58596.64, -59303.203, -58567.137]","[-64530.715, -64052.656, -64212.67, -64697.84, -64611.785, -64115.957, -64144.41, -64663.91, -64695.47, -64207.645]","[-86578.055, -86715.54, -86657.87, -86511.35, -86552.98, -86705.48, -86679.08, -86523.445, -86536.81, -86685.07]","[-82695.375, -82716.68, -82766.38, -82743.9, -82694.8, -82713.14, -82768.555, -82760.555, -82717.91, -82715.78]","[-85890.805, -86033.516, -85964.25, -85808.37, -85857.38, -86021.984, -85989.64, -85825.71, -85847.1, -86007.39]","[-90723.3, -90842.54, -90800.586, -90672.984, -90699.94, -90835.63, -90822.85, -90690.98, -90699.04, -90823.945]","[-69559.3, -69076.44, -69282.875, -69780.41, -69650.3, -69135.734, -69207.57, -69742.67, -69735.92, -69222.15]","[-85797.4, -85825.58, -85876.61, -85848.695, -85799.2, -85820.87, -85876.32, -85865.1, -85818.05, -85826.12]"
Left,2025-10-28 18:44:25,"[-57706.215, -58375.74, -59255.055, -58747.203, -57733.15, -58159.953, -59150.406, -58881.87, -57798.57, -57958.43]","[-64089.0, -64589.902, -64734.07, -64288.02, -64043.27, -64505.86, -64760.18, -64386.08, -64041.19, -64430.758]","[-86700.43, -86546.16, -86520.49, -86671.37, -86728.59, -86594.28, -86532.48, -86665.47, -86750.516, -86632.79]","[-82766.63, -82769.805, -82720.48, -82714.22, -82762.945, -82787.71, -82738.07, -82719.56, -82757.36, -82795.98]","[-86016.64, -85848.42, -85824.91, -85986.85, -86042.664, -85892.836, -85829.02, -85972.9, -86057.86, -85926.92]","[-90841.49, -90708.19, -90676.71, -90804.21, -90859.82, -90746.164, -90682.97, -90792.43, -90870.15, -90776.266]","[-69152.54, -69696.3, -69815.18, -69332.01, -69119.664, -69617.91, -69850.56, -69425.164, -69096.1, -69524.03]","[-85881.64, -85883.586, -85831.39, -85826.72, -85883.49, -85908.125, -85860.766, -85848.086, -85897.22, -85936.0]"
Left,2025-10-28 18:44:25,"[-59045.934, -59059.723, -57931.81, -57792.312, -58827.625, -59085.34, -58068.0, -57665.062, -58663.562, -59177.516]","[-64784.43, -64485.52, -64048.03, -64322.13, -64756.47, -64567.73, -64087.57, -64237.395, -64728.91, -64654.074]","[-86526.98, -86641.375, -86760.22, -86661.36, -86540.92, -86612.01, -86744.46, -86690.81, -86546.336, -86597.07]","[-82746.25, -82719.83, -82756.69, -82795.11, -82765.875, -82725.234, -82738.76, -82788.36, -82769.31, -82731.67]","[-85815.88, -85940.58, -86065.125, -85953.836, -85827.21, -85906.85, -86047.17, -85980.79, -85826.43, -85884.586]","[-90674.81, -90766.7, -90875.89, -90795.05, -90689.875, -90744.17, -90857.38, -90816.01, -90690.88, -90731.79]","[-69870.234, -69520.516, -69087.7, -69412.805, -69847.414, -69607.555, -69120.516, -69316.25, -69821.555, -69698.71]","[-85887.67, -85858.51, -85901.17, -85940.266, -85905.96, -85861.63, -85884.9, -85936.445, -85910.54, -85867.984]"
Left,2025-10-28 18:44:25,"[-58254.86, -57583.996, -58421.023, -59143.41, -58441.23, -57568.395, -58209.465, -59105.836, -58623.934, -57610.95]","[-64152.434, -64164.305, -64675.195, -64715.676, -64233.438, -64104.49, -64607.36, -64764.94, -64323.695, -64072.15]","[-86749.87, -86722.734, -86582.08, -86581.41, -86731.81, -86752.51, -86606.28, -86569.086, -86713.93, -86773.586]","[-82742.734, -82786.55, -82785.74, -82736.14, -82734.516, -82786.62, -82800.63, -82749.69, -82738.914, -82788.336]","[-86046.86, -86010.54, -85858.51, -85863.76, -86025.25, -86042.17, -85884.61, -85850.75, -86008.89, -86069.46]","[-90861.766, -90841.02, -90720.63, -90715.02, -90844.58, -90870.91, -90749.02, -90712.19, -90834.695, -90892.41]","[-69171.66, -69227.734, -69767.305, -69778.21, -69264.1, -69170.18, -69702.484, -69826.23, -69342.4, -69116.49]","[-85886.4, -85934.88, -85929.76, -85878.484, -85882.086, -85937.14, -85945.3, -85891.805, -85883.41, -85935.69]"
Left,2025-10-28 18:44:25,"[-58007.27, -59031.83, -58803.28, -57689.652, -57792.805, -58864.01, -58908.223, -57801.41, -57626.953, -58680.348]","[-64529.62, -64799.027, -64435.633, -64073.2, -64445.465, -64812.414, -64536.504, -64101.16, -64365.65, -64810.76]","[-86641.98, -86570.05, -86701.12, -86798.484, -86677.85, -86571.48, -86680.445, -86803.914, -86712.23, -86583.77]","[-82818.016, -82768.6, -82754.18, -82798.28, -82831.2, -82785.34, -82759.28, -82794.82, -82838.83, -82808.19]","[-85924.77, -85854.59, -85999.7, -86100.28, -85967.516, -85858.93, -85980.01, -86109.56, -86006.54, -85872.5]","[-90781.97, -90715.07, -90829.04, -90919.01, -90817.93, -90720.61, -90811.67, -90924.46, -90850.766, -90737.71]","[-69611.49, -69860.664, -69445.53, -69098.54, -69518.98, -69885.32, -69558.945, -69125.85, -69436.7, -69883.42]","[-85961.55, -85909.266, -85892.7, -85943.734, -85978.35, -85931.055, -85902.875, -85945.12, -85990.05, -85955.35]"
Left,2025-10-28 18:44:25,"[-58987.17, -57975.977, -57541.035, -58523.82, -59052.324, -58176.76, -57482.25, -58332.176, -59103.98, -58406.652]","[-64638.363, -64154.133, -64286.547, -64781.188, -64720.01, -64222.375, -64211.8, -64725.332, -64778.195, -64290.613]","[-86658.805, -86798.22, -86742.25, -86596.625, -86637.82, -86783.375, -86768.445, -86607.49, -86607.84, -86760.375]","[-82771.664, -82791.06, -82840.055, -82821.484, -82782.75, -82789.81, -82838.29, -82830.42, -82780.266, -82778.92]","[-85957.45, -86105.89, -86041.03, -85889.1, -85940.49, -86096.08, -86074.984, -85905.33, -85911.586, -86076.55]","[-90797.19, -90919.38, -90877.68, -90752.555, -90784.72, -90910.16, -90903.25, -90767.28, -90760.71, -90892.01]","[-69662.19, -69171.766, -69354.31, -69864.445, -69757.96, -69240.695, -69281.625, -69823.3, -69834.09, -69313.66]","[-85914.07, -85939.555, -85989.87, -85967.76, -85926.164, -85940.086, -85993.95, -85982.914, -85927.305, -85926.03]"
Left,2025-10-28 18:44:25,"[-57508.0, -58117.555, -59032.41, -58588.996, -57580.016, -57955.86, -58961.2, -58750.8, -57652.95, -57753.98]","[-64145.527, -64634.203, -64793.594, -64364.465, -64106.098, -64559.64, -64836.58, -64479.33, -64114.01, -64474.836]","[-86781.68, -86629.7, -86584.89, -86732.34, -86796.65, -86674.63, -86600.85, -86722.06, -86813.484, -86696.695]","[-82826.65, -82833.89, -82776.29, -82766.41, -82817.77, -82854.74, -82811.516, -82791.555, -82831.3, -82862.37]","[-86093.11, -85928.51, -85886.11, -86045.72, -86109.78, -85974.625, -85901.58, -86033.72, -86127.77, -86000.7]","[-90917.84, -90790.484, -90743.21, -90866.68, -90930.25, -90831.945, -90762.92, -90865.36, -90950.63, -90851.46]","[-69208.13, -69729.42, -69861.27, -69382.43, -69148.43, -69640.26, -69902.22, -69493.27, -69141.97, -69555.09]","[-85976.945, -85982.04, -85921.31, -85913.266, -85968.43, -86001.89, -85953.5, -85926.836, -85969.88, -86004.1]"
Left,2025-10-28 18:44:25,"[-58833.637, -58925.055, -57808.766, -57613.008, -58678.96, -59002.727, -57989.523, -57500.555, -58463.938, -59025.055]","[-64844.51, -64572.87, -64119.867, -64372.11, -64820.684, -64654.188, -64168.66, -64288.332, -64786.49, -64737.625]","[-86582.9, -86685.74, -86815.9, -86722.4, -86589.61, -86666.07, -86812.25, -86765.78, -86613.39, -86648.57]","[-82816.164, -82784.805, -82824.08, -82865.9, -82832.39, -82799.734, -82821.84, -82873.83, -82850.63, -82805.3]","[-85886.336, -86001.51, -86139.53, -86034.26, -85895.72, -85981.26, -86135.625, -86079.164, -85914.72, -85957.01]","[-90748.95, -90831.586, -90951.91, -90879.0, -90763.664, -90823.2, -90950.945, -90918.54, -90784.16, -90809.88]","[-69922.85, -69601.19, -69151.914, -69458.09, -69914.71, -69699.47, -69206.164, -69373.58, -69884.695, -69781.68]","[-85953.43, -85919.52, -85961.7, -86003.74, -85966.734, -85929.805, -85958.87, -86011.81, -85985.87, -85936.78]"
Left,2025-10-28 18:44:25,"[-58149.562, -57436.406, -58231.324, -59014.82, -58349.81, -57423.508, -58024.547, -58952.145, -58510.16, -57463.004]","[-64241.016, -64220.16, -64731.098, -64792.477, -64315.223, -64157.17, -64653.004, -64829.535, -64402.438, -64128.027]","[-86797.91, -86782.52, -86634.22, -86621.17, -86780.36, -86810.98, -86657.76, -86613.01, -86758.54, -86824.48]","[-82815.586, -82860.46, -82860.4, -82799.51, -82804.984, -82860.89, -82870.3, -82817.86, -82809.26, -82857.11]","[-86117.38, -86095.03, -85936.35, -85928.914, -86101.36, -86128.23, -85962.71, -85920.77, -86078.69, -86143.4]","[-90940.555, -90932.95, -90807.09, -90785.766, -90923.14, -90956.36, -90825.89, -90781.03, -90905.28, -90967.15]","[-69258.195, -69283.5, -69816.26, -69844.84, -69333.21, -69212.96, -69743.43, -69894.484, -69420.85, -69173.11]","[-85952.6, -86004.75, -85999.41, -85938.1, -85939.59, -85996.99, -86007.12, -85948.695, -85937.36, -85991.03]"
Left,2025-10-28 18:44:25,"[-57779.17, -58788.55, -58631.754, -57515.555, -57585.715, -58654.04, -58738.195, -57652.457, -57455.83, -58500.15]","[-64568.96, -64857.742, -64512.098, -64135.984, -64497.434, -64874.64, -64609.863, -64164.1, -64409.816, -64858.547]","[-86703.36, -86620.12, -86741.914, -86850.74, -86738.516, -86629.51, -86733.24, -86856.664, -86769.625, -86640.34]","[-82893.59, -82845.086, -82817.57, -82862.01, -82903.13, -82860.76, -82827.56, -82860.266, -82906.664, -82877.92]","[-86007.52, -85922.43, -86055.67, -86166.445, -86038.88, -85926.38, -86040.96, -86170.47, -86072.234, -85937.79]","[-90868.23, -90788.9, -90886.77, -90984.695, -90894.58, -90794.484, -90875.914, -90987.18, -90921.484, -90806.89]","[-69655.164, -69929.96, -69534.805, -69173.664, -69580.4, -69956.49, -69645.11, -69204.16, -69496.29, -69951.375]","[-86024.65, -85973.21, -85946.57, -85996.28, -86035.1, -85990.23, -85956.49, -85993.69, -86036.4, -86001.625]"
Left,2025-10-28 18:44:25,"[-58833.902, -57838.38, -57325.832, -58262.93, -58860.414, -58023.05, -57292.395, -58078.816, -58857.664, -58204.098]","[-64697.617, -64207.22, -64316.52, -64818.965, -64780.676, -64283.527, -64252.414, -64763.105, -64835.414, -64365.0]","[-86708.72, -86843.45, -86807.984, -86650.41, -86676.69, -86826.516, -86823.875, -86673.16, -86667.55, -86817.55]","[-82836.44, -82848.33, -82911.695, -82892.61, -82842.92, -82849.516, -82903.54, -82902.44, -82851.63, -82852.87]","[-86015.5, -86159.16, -86116.24, -85951.51, -85987.05, -86149.59, -86142.375, -85981.77, -85982.16, -86145.66]","[-90858.52, -90975.94, -90957.07, -90823.23, -90839.7, -90968.914, -90974.26, -90844.58, -90830.984, -90960.555]","[-69745.42, -69244.68, -69398.37, -69917.016, -69832.234, -69309.766, -69323.17, -69861.96, -69897.234, -69390.92]","[-85960.83, -85979.984, -86039.42, -86014.01, -85962.95, -85976.12, -86033.74, -86028.65, -85973.88, -85975.516]"
Left,2025-10-28 18:44:25,"[-57278.445, -57856.285, -58787.746, -58358.527, -57313.492, -57631.895, -58655.582, -58520.2, -57419.754, -57458.555]","[-64197.652, -64689.3, -64877.703, -64454.25, -64167.387, -64604.434, -64906.137, -64566.836, -64183.348, -64528.3]","[-86849.49, -86701.79, -86656.17, -86801.91, -86864.84, -86739.86, -86661.36, -86781.92, -86887.76, -86777.48]","[-82904.09, -82920.48, -82873.25, -82861.11, -82898.75, -82932.17, -82889.48, -82861.56, -82903.58, -82945.24]","[-86174.94, -86016.71, -85973.51, -86131.125, -86193.58, -86056.36, -85976.08, -86108.445, -86218.44, -86095.81]","[-90996.7, -90874.8, -90833.375, -90955.51, -91014.76, -90913.484, -90837.06, -90929.734, -91028.734, -90941.13]","[-69259.805, -69787.82, -69951.91, -69483.62, -69224.47, -69699.336, -69987.086, -69600.49, -69227.13, -69616.72]","[-86028.78, -86042.26, -85990.49, -85978.71, -86025.18, -86055.6, -86009.555, -85983.38, -86027.7, -86065.055]"
Left,2025-10-28 18:44:25,"[-58537.25, -58645.344, -57563.61, -57309.54, -58332.285, -58715.863, -57737.484, -57204.418, -58142.97, -58749.37]","[-64915.59, -64662.992, -64204.895, -64431.94, -64891.832, -64749.965, -64261.69, -64356.105, -64855.977, -64820.527]","[-86664.58, -86763.17, -86884.45, -86809.1, -86674.27, -86729.125, -86876.734, -86840.35, -86687.51, -86711.13]","[-82905.305, -82876.625, -82900.54, -82949.05, -82921.98, -82874.34, -82895.555, -82951.73, -82933.47, -82881.81]","[-85979.02, -86087.56, -86215.44, -86128.58, -85985.98, -86050.234, -86207.51, -86161.37, -86000.39, -86033.02]","[-90840.91, -90921.06, -91027.08, -90969.74, -90851.82, -90893.234, -91023.57, -90999.02, -90866.59, -90878.51]","[-69997.7, -69693.73, -69240.38, -69515.29, -69979.47, -69792.875, -69293.805, -69437.195, -69958.1, -69878.414]","[-86019.37, -85987.12, -86017.2, -86064.19, -86030.88, -85980.57, -86005.734, -86063.875, -86042.37, -85988.26]"
Left,2025-10-28 18:44:25,"[-57918.98, -57158.33, -57925.305, -58739.312, -58119.32, -57166.508, -57702.168, -58637.945, -58268.695, -57233.7]","[-64325.527, -64281.85, -64796.008, -64886.934, -64419.875, -64235.473, -64718.492, -64918.9, -64510.04, -64216.094]","[-86864.29, -86867.46, -86717.1, -86705.66, -86863.305, -86902.33, -86760.086, -86705.45, -86837.555, -86908.43]","[-82889.836, -82950.27, -82954.27, -82904.836, -82905.77, -82959.234, -82978.21, -82925.266, -82907.336, -82955.8]","[-86198.02, -86196.28, -86035.98, -86029.875, -86200.53, -86237.1, -86083.92, -86031.91, -86177.4, -86250.195]","[-91010.41, -91023.234, -90898.6, -90882.55, -91016.8, -91057.56, -90940.82, -90889.28, -91000.055, -91070.195]","[-69356.99, -69361.95, -69909.484, -69963.58, -69457.734, -69308.555, -69830.695, -70002.734, -69549.4, -69283.125]","[-86001.0, -86061.97, -86062.69, -86009.516, -86011.66, -86065.75, -86082.516, -86026.34, -86009.53, -86061.52]"
Left,2025-10-28 18:44:25,"[-57541.703, -58572.39, -58451.2, -57352.99, -57368.86, -58429.293, -58581.395, -57484.17, -57202.004, -58229.02]","[-64638.316, -64939.082, -64606.62, -64215.42, -64546.875, -64939.125, -64699.83, -64232.7, -64450.85, -64916.37]","[-86778.68, -86698.414, -86820.88, -86925.64, -86817.125, -86704.0, -86795.22, -86932.22, -86858.03, -86726.266]","[-82985.19, -82945.516, -82924.21, -82960.71, -83001.7, -82965.164, -82930.695, -82962.79, -83016.03, -82996.27]","[-86109.445, -86029.805, -86165.055, -86274.875, -86156.43, -86040.13, -86143.625, -86289.375, -86204.89, -86066.64]","[-90964.05, -90891.05, -90990.445, -91083.586, -90996.164, -90895.875, -90968.76, -91091.875, -91036.76, -90922.49]","[-69748.484, -70032.8, -69649.65, -69272.75, -69650.0, -70039.73, -69753.11, -69292.195, -69562.67, -70041.85]","[-86088.93, -86039.375, -86015.59, -86060.25, -86097.51, -86055.6, -86020.375, -86059.07, -86112.8, -86085.914]"
Left,2025-10-28 18:44:25,"[-58623.688, -57643.695, -57068.094, -57976.87, -58614.188, -57801.03, -57019.055, -57763.188, -58580.258, -57981.832]","[-64782.598, -64291.04, -64368.465, -64874.395, -64859.4, -64363.324, -64304.582, -64817.062, -64915.12, -64452.195]","[-86788.05, -86936.016, -86899.02, -86743.48, -86762.945, -86914.29, -86921.64, -86775.84, -86754.83, -86905.52]","[-82956.87, -82975.51, -83032.22, -83017.76, -82967.62, -82973.37, -83033.24, -83043.08, -82989.68, -82985.234]","[-86139.64, -86298.9, -86255.445, -86092.93, -86120.24, -86283.61, -86287.21, -86131.35, -86115.59, -86278.695]","[-90971.4, -91102.984, -91082.6, -90952.18, -90960.02, -91091.05, -91107.74, -90985.77, -90959.42, -91086.47]","[-69861.85, -69355.945, -69475.52, -70000.01, -69942.43, -69421.03, -69406.164, -69949.875, -70017.33, -69521.28]","[-86044.07, -86070.0, -86125.79, -86106.67, -86051.625, -86059.78, -86119.95, -86124.914, -86063.516, -86060.81]"
Left,2025-10-28 18:44:25,"[-57030.32, -57549.64, -58470.4, -58097.234, -57042.97, -57313.023, -58348.246, -58237.45, -57127.797, -57109.02]","[-64262.496, -64741.78, -64946.39, -64542.496, -64242.758, -64658.055, -64964.207, -64633.78, -64236.7, -64564.062]","[-86947.125, -86810.734, -86763.51, -86899.875, -86971.71, -86849.47, -86757.78, -86881.63, -86990.04, -86883.016]","[-83036.375, -83058.68, -83013.555, -82995.89, -83035.234, -83067.94, -83021.914, -82997.73, -83033.83, -83074.7]","[-86317.05, -86166.805, -86119.82, -86267.5, -86339.516, -86202.99, -86108.914, -86243.36, -86353.46, -86233.63]","[-91127.93, -91011.23, -90963.15, -91074.91, -91138.164, -91034.836, -90952.47, -91053.25, -91144.87, -91059.69]","[-69370.07, -69886.4, -70068.83, -69625.75, -69353.664, -69812.3, -70108.234, -69726.984, -69343.67, -69716.19]","[-86117.43, -86133.05, -86081.64, -86063.25, -86110.07, -86138.51, -86088.1, -86066.84, -86107.8, -86146.4]"
Left,2025-10-28 18:44:25,"[-58172.562, -58333.83, -57252.52, -56933.38, -57942.72, -58357.855, -57404.777, -56829.957, -57730.758, -58386.49]","[-64966.375, -64733.938, -64264.684, -64466.543, -64936.957, -64812.637, -64319.223, -64388.133, -64892.703, -64885.906]","[-86764.69, -86859.52, -86986.17, -86914.914, -86774.66, -86823.67, -86961.14, -86935.37, -86781.03, -86800.81]","[-83034.984, -83003.67, -83027.234, -83076.65, -83054.164, -83011.164, -83023.81, -83084.32, -83069.68, -83022.05]","[-86111.52, -86215.84, -86350.04, -86268.164, -86120.49, -86178.13, -86325.97, -86292.914, -86128.85, -86156.836]","[-90953.54, -91028.62, -91142.37, -91089.88, -90973.09, -91012.98, -91135.7, -91122.9, -90990.4, -90999.23]","[-70113.195, -69827.34, -69366.94, -69621.64, -70097.4, -69924.52, -69418.17, -69533.69, -70051.91, -70000.414]","[-86105.2, -86071.38, -86103.73, -86153.95, -86124.11, -86073.91, -86087.54, -86146.22, -86129.19, -86077.08]"
Left,2025-10-28 18:44:25,"[-57591.01, -56757.875, -57458.87, -58290.49, -57726.598, -56755.348, -57248.34, -58209.62, -57870.03, -56786.26]","[-64396.74, -64322.71, -64830.25, -64939.684, -64479.305, -64271.594, -64747.863, -64967.29, -64566.566, -64247.14]","[-86957.61, -86972.336, -86818.84, -86792.72, -86937.85, -86981.836, -86836.51, -86779.33, -86916.26, -86990.6]","[-83033.516, -83089.01, -83090.17, -83032.57, -83021.11, -83067.87, -83084.984, -83034.48, -83017.93, -83059.84]","[-86325.63, -86334.195, -86167.625, -86143.83, -86300.96, -86343.42, -86186.25, -86130.68, -86279.88, -86355.72]","[-91135.1, -91151.95, -91017.24, -90985.59, -91108.28, -91151.42, -91029.38, -90973.055, -91087.61, -91156.13]","[-69486.57, -69458.23, -69995.92, -70072.65, -69579.04, -69408.18, -69916.19, -70113.33, -69670.55, -69378.49]","[-86090.914, -86151.2, -86148.48, -86090.02, -86081.84, -86133.81, -86151.086, -86099.01, -86082.71, -86128.71]"
Left,2025-10-28 18:44:25,"[-57046.055, -58090.418, -58011.605, -56887.87, -56845.895, -57905.77, -58085.613, -57020.508, -56674.926, -57690.23]","[-64660.87, -64984.793, -64671.777, -64260.082, -64571.305, -64980.14, -64754.59, -64284.78, -64473.137, -64948.83]","[-86858.234, -86773.65, -86895.625, -87003.25, -86895.07, -86780.11, -86866.32, -86991.11, -86924.62, -86782.055]","[-83087.16, -83045.94, -83027.766, -83061.9, -83100.3, -83064.72, -83029.04, -83051.125, -83104.08, -83079.96]","[-86210.92, -86125.63, -86260.945, -86374.27, -86254.42, -86134.93, -86233.41, -86366.266, -86289.67, -86139.47]","[-91045.65, -90968.49, -91070.57, -91168.32, -91080.97, -90979.11, -91051.35, -91164.85, -91117.69, -90993.57]","[-69834.2, -70140.805, -69777.43, -69386.41, -69747.92, -70148.4, -69870.68, -69395.84, -69626.336, -70111.63]","[-86152.92, -86108.42, -86088.93, -86131.195, -86165.95, -86126.75, -86090.74, -86117.23, -86164.86, -86137.7]"
Left,2025-10-28 18:44:25,"[-58132.64, -57163.535, -56557.2, -57446.664, -58116.01, -57329.387, -56514.062, -57232.133, -58066.234, -57490.92]","[-64837.473, -64341.152, -64396.94, -64904.547, -64910.492, -64423.582, -64349.086, -64865.188, -64979.203, -64520.746]","[-86843.26, -86993.52, -86965.5, -86812.99, -86832.77, -86990.11, -86994.89, -86846.85, -86829.445, -86976.13]","[-83044.84, -83059.35, -83112.77, -83100.08, -83055.08, -83062.75, -83116.52, -83127.14, -83075.82, -83063.484]","[-86209.25, -86368.836, -86332.805, -86169.08, -86194.32, -86361.914, -86359.01, -86197.555, -86183.55, -86341.34]","[-91040.914, -91169.28, -91150.88, -91018.38, -91029.4, -91164.875, -91175.38, -91051.15, -91025.58, -91145.48]","[-69950.766, -69438.42, -69540.68, -70064.72, -70029.13, -69519.734, -69490.81, -70026.38, -70104.125, -69611.67]","[-86098.12, -86120.83, -86177.87, -86158.58, -86108.914, -86120.89, -86177.53, -86182.47, -86127.17, -86119.73]"
Left,2025-10-28 18:44:25,"[-56485.785, -56953.832, -57932.414, -57618.17, -56521.617, -56732.01, -57777.227, -57716.293, -56604.652, -56525.215]","[-64302.75, -64780.543, -65013.895, -64621.934, -64290.21, -64691.715, -65023.594, -64712.348, -64295.797, -64597.95]","[-87025.49, -86876.336, -86817.91, -86954.08, -87035.63, -86906.805, -86817.73, -86930.47, -87039.86, -86946.48]","[-83113.664, -83131.836, -83081.68, -83060.67, -83100.01, -83131.19, -83088.68, -83061.81, -83094.87, -83140.69]","[-86387.88, -86225.19, -86168.766, -86315.64, -86396.82, -86254.8, -86163.31, -86287.81, -86401.36, -86294.164]","[-91195.63, -91073.055, -91015.99, -91126.586, -91201.086, -91095.25, -91013.98, -91109.625, -91206.766, -91128.76]","[-69428.25, -69938.516, -70150.57, -69719.78, -69415.555, -69862.19, -70178.24, -69820.3, -69422.64, -69770.766]","[-86176.86, -86193.31, -86138.664, -86122.03, -86167.02, -86196.484, -86150.87, -86121.36, -86156.97, -86197.29]"
Left,2025-10-28 18:44:25,"[-57556.95, -57748.324, -56691.58, -56305.92, -57298.383, -57761.98, -56798.844, -56169.645, -57041.695, -57730.375]","[-65008.215, -64794.51, -64326.4, -64503.066, -64983.383, -64880.92, -64379.55, -64425.46, -64938.836, -64954.37]","[-86831.92, -86908.37, -87036.484, -86976.85, -86826.89, -86872.67, -87016.17, -86985.63, -86833.11, -86846.25]","[-83109.59, -83065.945, -83088.36, -83144.71, -83116.64, -83069.27, -83079.266, -83130.45, -83122.83, -83075.42]","[-86173.77, -86260.45, -86396.96, -86326.73, -86168.03, -86221.56, -86374.09, -86334.195, -86172.03, -86192.4]","[-91028.555, -91089.59, -91206.875, -91165.77, -91033.29, -91066.125, -91192.305, -91173.68, -91042.88, -91047.28]","[-70177.44, -69914.516, -69442.336, -69662.74, -70148.83, -69997.375, -69477.85, -69568.33, -70100.14, -70078.11]","[-86158.46, -86117.56, -86141.97, -86193.22, -86159.02, -86107.44, -86119.73, -86174.94, -86165.57, -86116.555]"
Left,2025-10-28 18:44:25,"[-56971.066, -56122.21, -56797.527, -57652.613, -57112.598, -56110.793, -56565.805, -57544.05, -57251.043, -56149.504]","[-64469.652, -64371.39, -64870.125, -64998.492, -64550.14, -64320.406, -64787.246, -65031.953, -64650.05, -64314.395]","[-87004.37, -87018.16, -86863.28, -86829.016, -86975.805, -87014.38, -86874.77, -86811.984, -86945.47, -87029.94]","[-83083.984, -83136.82, -83135.73, -83079.336, -83069.72, -83110.2, -83133.0, -83089.414, -83073.86, -83114.83]","[-86361.84, -86370.02, -86203.125, -86172.66, -86331.266, -86368.57, -86216.76, -86155.516, -86301.67, -86387.64]","[-91183.09, -91201.22, -91068.09, -91030.41, -91155.98, -91197.266, -91081.484, -91025.89, -91141.56, -91216.71]","[-69569.13, -69513.97, -70043.28, -70139.98, -69649.53, -69454.336, -69956.18, -70179.805, -69754.586, -69441.28]","[-86126.99, -86182.76, -86180.57, -86123.4, -86119.664, -86166.35, -86183.39, -86135.266, -86119.234, -86166.29]"
Left,2025-10-28 18:44:25,"[-56328.273, -57379.05, -57340.562, -56221.008, -56107.504, -57171.137, -57447.47, -56413.59, -56012.62, -56985.1]","[-64712.03, -65054.953, -64752.758, -64327.09, -64612.074, -65038.457, -64843.016, -64367.547, -64534.383, -65021.582]","[-86906.33, -86815.41, -86935.66, -87049.23, -86952.445, -86825.84, -86900.63, -87037.16, -86982.195, -86846.63]","[-83147.46, -83106.22, -83084.41, -83116.28, -83155.28, -83119.12, -83079.336, -83104.28, -83159.086, -83145.78]","[-86254.195, -86164.99, -86299.28, -86418.125, -86309.79, -86176.63, -86259.0, -86402.1, -86334.35, -86186.805]","[-91114.516, -91031.52, -91128.195, -91229.336, -91152.85, -91041.336, -91099.43, -91220.13, -91178.84, -91062.33]","[-69880.31, -70209.42, -69856.375, -69441.664, -69774.03, -70201.94, -69954.97, -69470.766, -69680.31, -70174.51]","[-86196.4, -86151.47, -86127.62, -86164.21, -86204.734, -86165.375, -86118.79, -86146.87, -86199.93, -86180.03]"
Left,2025-10-28 18:44:25,"[-57451.316, -56509.457, -55856.63, -56720.258, -57432.516, -56703.293, -55827.594, -56495.598, -57360.992, -56854.367]","[-64937.406, -64443.387, -64473.34, -64986.6, -65013.984, -64529.418, -64414.53, -64919.168, -65065.906, -64622.895]","[-86894.46, -87043.26, -87011.92, -86862.03, -86864.49, -87019.68, -87035.8, -86881.74, -86858.48, -86996.72]","[-83109.086, -83123.164, -83170.75, -83164.516, -83110.266, -83110.445, -83164.31, -83169.88, -83127.39, -83109.125]","[-86240.92, -86398.14, -86358.22, -86198.07, -86207.305, -86373.53, -86384.11, -86216.78, -86197.4, -86344.74]","[-91099.01, -91227.84, -91207.836, -91077.8, -91070.195, -91201.51, -91223.44, -91089.39, -91064.23, -91178.8]","[-70044.266, -69530.625, -69608.25, -70141.79, -70130.81, -69615.56, -69538.49, -70073.55, -70185.22, -69706.77]","[-86137.3, -86155.2, -86206.79, -86196.016, -86142.375, -86148.07, -86205.2, -86207.35, -86160.09, -86151.76]"
Left,2025-10-28 18:44:25,"[-55859.56, -56293.36, -57276.883, -57006.83, -55901.668, -56067.652, -57130.21, -57149.03, -56047.223, -55913.74]","[-64381.9, -64843.33, -65094.137, -64719.832, -64374.926, -64761.43, -65109.938, -64820.082, -64391.664, -64667.754]","[-87045.31, -86915.49, -86855.73, -86989.46, -87076.97, -86950.836, -86854.41, -86958.61, -87081.305, -86987.71]","[-83149.0, -83175.78, -83131.26, -83111.99, -83152.53, -83181.62, -83138.41, -83104.75, -83139.484, -83184.836]","[-86388.93, -86243.24, -86181.305, -86325.34, -86413.07, -86271.92, -86171.09, -86286.32, -86413.14, -86307.555]","[-91223.88, -91115.43, -91056.984, -91166.305, -91247.375, -91142.63, -91054.7, -91137.96, -91247.42, -91173.234]","[-69501.9, -70002.31, -70228.06, -69798.8, -69472.06, -69899.09, -70233.83, -69894.62, -69469.94, -69789.766]","[-86202.03, -86228.67, -86184.86, -86169.04, -86219.26, -86248.66, -86204.445, -86172.99, -86218.3, -86263.63]"
Left,2025-10-28 18:44:25,"[-56968.605, -57230.926, -56181.96, -55766.44, -56747.594, -57273.215, -56364.773, -55688.32, -56535.81, -57253.234]","[-65098.94, -64910.516, -64425.773, -64572.56, -65061.434, -64989.64, -64494.305, -64507.605, -65018.97, -65057.926]","[-86864.29, -86946.99, -87078.125, -87014.266, -86873.2, -86913.016, -87067.78, -87050.92, -86901.19, -86908.92]","[-83153.32, -83120.77, -83137.58, -83183.47, -83166.46, -83119.7, -83135.01, -83188.25, -83178.71, -83130.41]","[-86179.81, -86273.11, -86413.164, -86340.79, -86191.88, -86239.6, -86403.73, -86376.73, -86214.92, -86226.8]","[-91064.625, -91131.8, -91247.8, -91201.29, -91080.836, -91108.62, -91245.45, -91236.13, -91102.56, -91100.88]","[-70216.69, -69976.2, -69490.32, -69683.89, -70176.92, -70054.55, -69539.36, -69600.9, -70134.12, -70131.91]","[-86228.42, -86191.21, -86214.79, -86258.445, -86234.91, -86186.336, -86204.35, -86259.2, -86248.01, -86198.9]"
Left,2025-10-28 18:44:25,"[-56533.15, -55655.934, -56299.844, -57185.953, -56703.895, -55696.188, -56094.07, -57082.62, -56844.02, -55758.035]","[-64578.594, -64456.664, -64959.89, -65110.496, -64675.355, -64423.45, -64877.77, -65142.75, -64777.12, -64424.59]","[-87058.55, -87083.13, -86934.83, -86897.86, -87040.89, -87094.42, -86966.305, -86902.06, -87028.51, -87117.69]","[-83129.85, -83181.99, -83192.79, -83142.03, -83132.664, -83174.44, -83204.55, -83163.29, -83141.49, -83176.516]","[-86387.81, -86407.06, -86245.99, -86211.055, -86365.734, -86418.7, -86277.484, -86213.336, -86352.19, -86443.85]","[-91228.76, -91253.39, -91128.04, -91091.695, -91211.34, -91262.93, -91158.04, -91096.59, -91200.17, -91281.46]","[-69618.305, -69537.1, -70071.78, -70192.836, -69715.74, -69502.46, -70000.57, -70245.055, -69835.12, -69507.82]","[-86202.52, -86259.38, -86266.914, -86213.72, -86203.62, -86253.19, -86282.3, -86239.22, -86216.71, -86262.18]"
Left,2025-10-28 18:44:25,"[-55902.25, -56977.3, -57010.27, -55901.152, -55734.61, -56787.824, -57085.395, -56056.254, -55629.043, -56599.58]","[-64803.117, -65162.844, -64882.98, -64451.055, -64720.234, -65157.703, -64977.348, -64496.094, -64635.344, -65125.473]","[-87003.09, -86902.58, -87014.65, -87138.7, -87052.04, -86921.76, -86991.67, -87130.43, -87073.21, -86932.055]","[-83213.4, -83173.32, -83150.14, -83187.27, -83233.805, -83200.945, -83158.44, -83180.45, -83229.72, -83213.33]","[-86316.78, -86211.39, -86335.71, -86465.17, -86366.9, -86230.305, -86309.63, -86459.5, -86393.49, -86245.95]","[-91188.32, -91097.71, -91191.34, -91302.56, -91233.25, -91118.984, -91174.58, -91298.875, -91252.56, -91131.39]","[-69928.08, -70278.89, -69954.766, -69532.08, -69852.016, -70296.51, -70065.25, -69571.46, -69756.51, -70255.65]","[-86298.38, -86251.36, -86226.81, -86269.664, -86318.8, -86283.88, -86239.555, -86264.81, -86311.95, -86290.25]"
Left,2025-10-28 18:44:25,"[-57127.594, -56239.223, -55548.867, -56361.914, -57121.47, -56432.68, -55536.64, -56165.395, -57082.98, -56611.09]","[-65058.777, -64562.992, -64562.297, -65072.12, -65119.01, -64634.137, -64494.64, -64990.715, -65156.766, -64728.797]","[-86971.29, -87120.84, -87108.26, -86955.375, -86944.87, -87096.055, -87120.8, -86972.56, -86937.336, -87092.7]","[-83164.2, -83175.67, -83231.59, -83226.43, -83164.85, -83161.01, -83211.72, -83223.164, -83175.625, -83174.24]","[-86294.01, -86453.22, -86433.37, -86269.4, -86263.48, -86425.945, -86445.51, -86284.33, -86251.29, -86419.664]","[-91158.1, -91289.84, -91286.58, -91155.195, -91135.88, -91266.51, -91294.85, -91170.28, -91134.08, -91267.25]","[-70140.76, -69622.8, -69670.34, -70204.77, -70215.93, -69697.97, -69597.61, -70127.39, -70263.89, -69793.3]","[-86242.84, -86258.266, -86316.36, -86309.02, -86246.69, -86244.2, -86301.336, -86310.164, -86256.21, -86254.89]"
Left,2025-10-28 18:44:25,"[-55573.613, -55958.754, -56967.734, -56746.004, -55653.184, -55770.375, -56836.91, -56889.75, -55774.82, -55602.668]","[-64467.438, -64919.816, -65196.33, -64834.008, -64468.555, -64837.695, -65203.816, -64929.113, -64485.566, -64739.39]","[-87149.875, -87015.38, -86943.91, -87068.96, -87153.41, -87036.086, -86934.36, -87038.945, -87161.74, -87069.52]","[-83217.53, -83247.484, -83206.41, -83183.94, -83213.96, -83254.016, -83219.21, -83189.484, -83222.41, -83263.086]","[-86474.67, -86327.71, -86258.04, -86396.664, -86485.984, -86358.02, -86256.14, -86373.17, -86500.984, -86396.22]","[-91320.42, -91210.766, -91147.15, -91249.7, -91326.836, -91233.85, -91145.01, -91230.12, -91339.266, -91264.23]","[-69564.98, -70053.02, -70302.2, -69892.74, -69549.15, -69963.016, -70321.875, -69995.625, -69561.89, -69867.84]","[-86303.04, -86324.875, -86276.44, -86251.0, -86289.11, -86325.945, -86283.63, -86250.15, -86287.61, -86330.016]"
Left,2025-10-28 18:44:25,"[-56669.562, -56971.242, -55965.55, -55497.414, -56451.164, -56996.613, -56107.414, -55397.926, -56225.836, -56989.484]","[-65181.13, -65008.06, -64532.863, -64664.582, -65154.64, -65089.195, -64591.47, -64583.668, -65095.97, -65154.53]","[-86941.05, -87021.31, -87160.05, -87123.234, -86969.945, -87006.16, -87161.01, -87143.15, -86984.67, -86980.47]","[-83231.016, -83196.63, -83218.14, -83276.695, -83249.63, -83198.47, -83210.43, -83263.06, -83255.445, -83206.65]","[-86259.875, -86349.46, -86495.17, -86445.87, -86282.25, -86325.79, -86490.5, -86464.82, -86294.81, -86297.13]","[-91148.11, -91210.9, -91334.66, -91307.62, -91169.28, -91192.86, -91325.02, -91317.23, -91183.74, -91175.36]","[-70313.47, -70095.16, -69614.64, -69791.84, -70299.39, -70191.945, -69675.234, -69709.125, -70242.37, -70263.65]","[-86296.06, -86260.48, -86289.89, -86346.95, -86322.305, -86273.664, -86290.766, -86342.13, -86332.516, -86279.66]"
Left,2025-10-28 18:44:25,"[-56311.58, -55373.9, -55979.79, -56894.62, -56440.816, -55398.688, -55744.56, -56759.73, -56574.86, -55452.89]","[-64682.33, -64532.883, -65031.64, -65205.023, -64777.68, -64505.86, -64949.074, -65232.27, -64883.426, -64512.633]","[-87134.86, -87166.91, -87011.34, -86981.164, -87127.01, -87191.27, -87063.4, -86988.01, -87117.98, -87221.36]","[-83210.27, -83269.1, -83274.76, -83227.93, -83214.85, -83262.305, -83294.02, -83249.766, -83230.72, -83273.66]","[-86464.86, -86492.51, -86324.92, -86297.42, -86454.89, -86518.375, -86375.39, -86297.6, -86439.83, -86545.42]","[-91310.25, -91345.32, -91211.34, -91177.37, -91295.79, -91356.97, -91252.27, -91183.92, -91291.766, -91385.016]","[-69758.945, -69647.39, -70173.125, -70310.45, -69843.63, -69605.91, -70088.63, -70354.06, -69957.164, -69604.92]","[-86282.96, -86340.45, -86343.914, -86293.07, -86286.48, -86337.055, -86366.78, -86316.07, -86296.266, -86342.305]"
Left,2025-10-28 18:44:25,"[-55531.59, -56614.668, -56680.87, -55566.145, -55354.633, -56385.137, -56719.453, -55733.113, -55249.758, -56194.184]","[-64871.176, -65247.78, -64981.46, -64530.426, -64778.24, -65218.3, -65050.953, -64564.6, -64678.574, -65166.89]","[-87095.65, -86986.664, -87093.77, -87220.11, -87127.08, -86991.94, -87051.53, -87187.96, -87145.25, -86995.42]","[-83302.516, -83262.305, -83232.914, -83260.94, -83299.27, -83263.87, -83217.58, -83229.445, -83285.98, -83270.44]","[-86405.63, -86292.734, -86411.35, -86542.805, -86437.59, -86296.22, -86364.88, -86509.39, -86456.52, -86297.56]","[-91278.94, -91180.88, -91268.54, -91379.45, -91305.02, -91187.0, -91231.44, -91348.61, -91321.65, -91195.03]","[-70006.05, -70372.39, -70057.52, -69616.836, -69906.805, -70346.75, -70136.82, -69641.24, -69797.1, -70300.305]","[-86369.71, -86324.49, -86297.41, -86333.88, -86372.7, -86332.766, -86286.25, -86306.03, -86361.15, -86337.52]"
Left,2025-10-28 18:44:25,"[-56773.7, -55924.38, -55181.137, -55961.637, -56737.69, -56084.773, -55145.867, -55741.695, -56669.76, -56249.28]","[-65124.086, -64633.6, -64608.88, -65116.13, -65187.79, -64719.902, -64554.34, -65047.355, -65230.258, -64815.05]","[-87023.52, -87178.305, -87173.234, -87019.836, -87010.29, -87166.39, -87197.33, -87050.39, -87010.36, -87158.39]","[-83224.305, -83238.14, -83298.05, -83299.3, -83249.766, -83252.734, -83303.07, -83314.945, -83267.2, -83260.54]","[-86334.17, -86500.2, -86488.89, -86326.15, -86324.31, -86496.086, -86526.086, -86368.17, -86334.086, -86495.77]","[-91214.61, -91348.79, -91354.87, -91229.516, -91215.7, -91352.27, -91385.375, -91257.44, -91215.26, -91342.21]","[-70212.62, -69699.984, -69720.48, -70252.16, -70286.805, -69782.98, -69659.59, -70187.85, -70343.31, -69883.16]","[-86288.734, -86302.86, -86360.59, -86358.49, -86308.42, -86310.86, -86366.0, -86375.91, -86324.72, -86319.51]"
Left,2025-10-28 18:44:25,"[-55182.59, -55519.363, -56551.145, -56391.484, -55290.883, -55325.395, -56407.42, -56521.773, -55430.63, -55183.64]","[-64532.37, -64966.977, -65255.67, -64910.406, -64531.92, -64879.87, -65263.316, -65008.953, -64558.344, -64793.1]","[-87229.6, -87089.055, -87009.125, -87133.18, -87237.72, -87132.4, -87014.36, -87114.12, -87243.59, -87162.69]","[-83308.84, -83327.7, -83279.914, -83256.805, -83295.99, -83341.19, -83295.54, -83260.13, -83292.75, -83344.02]","[-86567.57, -86413.164, -86331.914, -86466.96, -86574.48, -86455.97, -86333.88, -86443.54, -86578.74, -86485.02]","[-91408.95, -91286.2, -91211.86, -91313.0, -91406.92, -91321.96, -91214.43, -91291.32, -91407.59, -91347.13]","[-69630.42, -70104.28, -70375.67, -69984.19, -69626.625, -70019.55, -70396.57, -70092.055, -69647.586, -69933.87]","[-86373.266, -86387.055, -86334.89, -86312.58, -86359.97, -86404.65, -86360.01, -86325.9, -86361.734, -86407.24]"
Left,2025-10-28 18:44:25,"[-56221.633, -56570.367, -55572.07, -55078.117, -56012.266, -56592.402, -55735.01, -54985.38, -55798.27, -56578.48]","[-65242.35, -65085.688, -64595.2, -64699.336, -65193.47, -65150.688, -64655.953, -64624.504, -65135.82, -65209.227]","[-87023.52, -87090.71, -87227.73, -87175.734, -87027.48, -87055.17, -87207.86, -87196.7, -87039.39, -87039.64]","[-83307.09, -83265.14, -83277.82, -83325.76, -83316.17, -83272.81, -83281.95, -83334.99, -83332.31, -83286.16]","[-86339.18, -86415.6, -86560.15, -86499.8, -86344.055, -86380.375, -86543.984, -86526.89, -86359.23, -86365.69]","[-91224.64, -91274.82, -91393.734, -91359.05, -91236.555, -91259.516, -91393.445, -91391.61, -91258.98, -91252.625]","[-70387.34, -70184.39, -69686.81, -69835.14, -70335.87, -70253.164, -69740.75, -69752.42, -70288.26, -70324.6]","[-86366.94, -86322.21, -86340.875, -86387.86, -86367.37, -86319.62, -86330.91, -86383.21, -86377.69, -86326.26]"
Left,2025-10-28 18:44:25,"[-55926.008, -54977.156, -55544.777, -56495.957, -56092.73, -55031.74, -55337.062, -56368.125, -56216.805, -55112.785]","[-64743.996, -64579.688, -65071.27, -65263.54, -64847.305, -64563.15, -65000.594, -65291.902, -64947.508, -64564.043]","[-87191.85, -87230.19, -87081.97, -87036.375, -87179.07, -87252.11, -87124.57, -87038.875, -87162.17, -87262.125]","[-83283.92, -83338.414, -83352.805, -83300.68, -83286.18, -83336.02, -83370.58, -83316.26, -83291.766, -83326.41]","[-86531.25, -86566.12, -86404.22, -86361.086, -86516.9, -86590.125, -86450.31, -86361.71, -86494.59, -86596.266]","[-91382.516, -91422.57, -91294.13, -91245.66, -91362.555, -91434.484, -91332.24, -91247.98, -91347.086, -91436.47]","[-69821.086, -69691.445, -70218.164, -70381.82, -69923.7, -69667.51, -70142.1, -70424.375, -70037.09, -69671.8]","[-86327.734, -86387.88, -86399.17, -86344.25, -86332.3, -86385.36, -86416.16, -86362.914, -86338.125, -86378.48]"
Left,2025-10-28 18:44:25,"[-55141.375, -56199.46, -56310.906, -55225.887, -54957.22, -55986.27, -56339.67, -55338.36, -54810.145, -55735.414]","[-64903.945, -65284.996, -65033.07, -64580.605, -64806.246, -65264.055, -65122.836, -64632.887, -64726.004, -65224.984]","[-87150.73, -87038.01, -87129.89, -87256.45, -87181.17, -87041.984, -87113.84, -87249.07, -87201.195, -87051.664]","[-83364.09, -83323.15, -83288.055, -83313.266, -83364.14, -83333.36, -83302.23, -83316.016, -83367.445, -83357.73]","[-86472.125, -86355.45, -86457.4, -86589.54, -86503.53, -86356.836, -86437.46, -86580.555, -86524.25, -86366.16]","[-91345.63, -91247.29, -91322.21, -91432.625, -91375.63, -91254.305, -91314.45, -91432.875, -91402.67, -91278.086]","[-70056.0, -70430.414, -70136.11, -69690.75, -69965.37, -70427.8, -70230.836, -69727.92, -69863.26, -70374.04]","[-86413.3, -86366.05, -86329.73, -86359.74, -86406.28, -86368.93, -86329.836, -86351.16, -86397.695, -86380.77]"
Left,2025-10-28 18:44:25,"[-56349.285, -55522.0, -54769.664, -55524.28, -56324.34, -55701.71, -54755.67, -55296.562, -56231.69, -55832.47]","[-65198.273, -64710.805, -64672.36, -65180.1, -65267.207, -64805.574, -64627.633, -65110.184, -65308.42, -64898.09]","[-87076.12, -87230.74, -87232.195, -87085.234, -87071.914, -87228.375, -87268.01, -87128.15, -87083.6, -87227.17]","[-83308.04, -83317.58, -83375.29, -83380.61, -83327.91, -83328.24, -83379.23, -83397.17, -83348.9, -83335.1]","[-86397.74, -86564.71, -86559.88, -86402.7, -86393.6, -86562.96, -86600.76, -86449.28, -86404.67, -86560.51]","[-91291.875, -91427.17, -91436.72, -91311.59, -91290.72, -91422.77, -91459.336, -91340.78, -91293.6, -91413.875]","[-70300.95, -69788.12, -69792.36, -70326.43, -70381.375, -69883.53, -69743.836, -70261.836, -70434.836, -69984.695]","[-86329.27, -86343.54, -86404.445, -86408.85, -86353.93, -86355.65, -86412.9, -86429.66, -86379.57, -86370.516]"
Left,2025-10-28 18:44:25,"[-54760.344, -55055.945, -56112.668, -55996.305, -54895.305, -54911.777, -55970.58, -56115.934, -55028.34, -54744.227]","[-64606.2, -65033.652, -65340.766, -65010.25, -64616.188, -64940.914, -65328.004, -65089.688, -64626.605, -64837.85]","[-87299.79, -87166.234, -87079.4, -87203.74, -87305.555, -87197.93, -87084.01, -87174.28, -87301.87, -87224.98]","[-83380.81, -83408.125, -83359.87, -83339.016, -83370.484, -83404.44, -83367.78, -83334.766, -83360.83, -83408.17]","[-86632.92, -86484.84, -86397.47, -86533.1, -86638.516, -86519.336, -86400.06, -86500.266, -86635.0, -86546.83]","[-91480.37, -91364.7, -91285.04, -91388.016, -91477.734, -91388.59, -91286.516, -91359.734, -91473.555, -91415.664]","[-69724.836, -70193.59, -70485.0, -70102.086, -69723.27, -70097.64, -70484.98, -70195.12, -69733.69, -69998.65]","[-86425.44, -86450.53, -86397.96, -86374.25, -86416.96, -86450.734, -86407.64, -86371.48, -86399.82, -86444.34]"
Left,2025-10-28 18:44:25,"[-55759.38, -56146.664, -55165.69, -54612.53, -55543.08, -56179.074, -55362.453, -54583.094, -55346.676, -56161.375]","[-65296.754, -65165.438, -64673.52, -64756.42, -65258.914, -65242.773, -64758.793, -64701.953, -65209.56, -65307.17]","[-87088.07, -87146.3, -87281.125, -87244.695, -87091.445, -87115.56, -87276.34, -87272.99, -87118.45, -87109.15]","[-83381.91, -83341.164, -83353.19, -83408.125, -83392.08, -83345.66, -83359.984, -83406.74, -83408.71, -83364.25]","[-86403.4, -86470.25, -86615.18, -86568.58, -86402.88, -86433.01, -86605.766, -86597.45, -86433.1, -86428.586]","[-91300.195, -91344.56, -91465.234, -91443.02, -91307.86, -91320.6, -91460.48, -91463.31, -91334.1, -91318.99]","[-70463.586, -70280.836, -69774.63, -69901.82, -70420.16, -70357.5, -69846.63, -69834.38, -70373.28, -70438.55]","[-86410.99, -86365.64, -86380.125, -86433.39, -86415.11, -86363.74, -86382.72, -86439.83, -86435.984, -86386.61]"
Left,2025-10-28 18:44:25,"[-55555.844, -54594.293, -55110.1, -56069.35, -55706.74, -54634.84, -54908.87, -55957.055, -55868.97, -54746.664]","[-64850.793, -64664.87, -65145.008, -65353.664, -64949.387, -64640.73, -65057.836, -65370.895, -65043.934, -64642.184]","[-87260.3, -87301.6, -87162.44, -87107.766, -87247.82, -87321.02, -87192.97, -87107.09, -87225.76, -87339.33]","[-83360.14, -83410.5, -83433.61, -83381.15, -83364.09, -83403.55, -83431.17, -83386.67, -83359.02, -83402.43]","[-86591.64, -86629.86, -86477.875, -86424.56, -86577.56, -86650.36, -86508.43, -86423.18, -86552.93, -86669.76]","[-91445.836, -91486.0, -91369.375, -91313.94, -91429.23, -91493.984, -91386.29, -91307.19, -91402.34, -91506.34]","[-69942.9, -69791.266, -70304.305, -70485.266, -70037.09, -69755.88, -70218.9, -70521.34, -70147.53, -69762.56]","[-86386.836, -86440.55, -86457.64, -86406.73, -86396.24, -86442.17, -86468.95, -86421.88, -86393.09, -86438.47]"
Left,2025-10-28 18:44:25,"[-54709.246, -55760.94, -55916.668, -54842.285, -54542.414, -55574.906, -56019.64, -55068.26, -54480.7, -55403.582]","[-64964.785, -65364.12, -65130.547, -64666.08, -64870.664, -65338.484, -65217.965, -64727.008, -64797.19, -65300.89]","[-87236.84, -87120.08, -87206.27, -87330.03, -87251.95, -87116.62, -87169.81, -87323.59, -87293.98, -87131.19]","[-83447.4, -83411.055, -83371.25, -83395.86, -83440.85, -83415.91, -83371.76, -83393.8, -83452.83, -83435.24]","[-86554.65, -86433.44, -86528.81, -86659.52, -86571.1, -86428.63, -86490.34, -86654.05, -86614.69, -86440.766]","[-91427.22, -91325.2, -91394.3, -91508.51, -91447.42, -91329.81, -91369.59, -91507.08, -91489.625, -91351.65]","[-70135.08, -70535.18, -70250.1, -69782.17, -70035.1, -70510.234, -70341.766, -69831.68, -69950.164, -70473.87]","[-86481.89, -86443.27, -86404.06, -86429.164, -86472.28, -86443.85, -86398.92, -86421.88, -86479.88, -86454.83]"
Left,2025-10-28 18:44:25,"[-56045.68, -55250.85, -54449.566, -55167.055, -56006.855, -55426.67, -54467.582, -54985.223, -55961.703, -55623.3]","[-65289.38, -64802.715, -64735.055, -65245.434, -65359.676, -64902.582, -64704.254, -65186.785, -65406.145, -65011.21]","[-87149.25, -87299.164, -87309.58, -87162.305, -87138.74, -87286.49, -87327.62, -87188.45, -87141.85, -87282.31]","[-83391.766, -83398.25, -83455.36, -83465.59, -83413.42, -83407.55, -83456.766, -83479.56, -83432.2, -83420.24]","[-86466.695, -86628.01, -86634.375, -86477.38, -86459.21, -86620.32, -86659.66, -86510.055, -86465.76, -86618.086]","[-91366.42, -91497.76, -91512.6, -91388.1, -91360.34, -91489.086, -91531.086, -91413.9, -91366.65, -91485.29]","[-70413.92, -69897.98, -69874.82, -70412.89, -70493.695, -70001.73, -69839.19, -70352.54, -70546.29, -70111.055]","[-86401.9, -86410.88, -86467.21, -86472.15, -86418.15, -86415.69, -86469.984, -86490.32, -86443.31, -86433.28]"
Left,2025-10-28 18:44:25,"[-54545.297, -54779.008, -55833.07, -55763.668, -54657.39, -54620.824, -55679.38, -55854.19, -54784.438, -54452.74]","[-64696.32, -65099.926, -65417.23, -65093.42, -64684.027, -64994.76, -65395.57, -65174.58, -64712.68, -64905.645]","[-87364.23, -87233.65, -87138.7, -87251.53, -87356.97, -87252.9, -87132.29, -87223.414, -87355.69, -87287.72]","[-83460.61, -83485.266, -83433.83, -83399.37, -83429.83, -83468.63, -83432.29, -83401.13, -83426.79, -83480.7]","[-86699.94, -86555.79, -86457.71, -86581.41, -86690.88, -86573.875, -86448.91, -86552.37, -86691.71, -86612.81]","[-91558.086, -91447.96, -91356.836, -91446.484, -91541.91, -91459.805, -91354.58, -91428.516, -91544.05, -91494.2]","[-69821.06, -70264.2, -70570.29, -70200.99, -69809.88, -70169.836, -70565.04, -70293.305, -69836.17, -70078.734]","[-86481.13, -86507.71, -86455.695, -86422.375, -86456.99, -86492.4, -86449.06, -86415.71, -86447.49, -86496.67]"
Left,2025-10-28 18:44:25,"[-55469.004, -55924.535, -54956.86, -54360.65, -55250.76, -55895.766, -55109.14, -54296.055, -55006.996, -55843.688]","[-65375.902, -65263.137, -64766.39, -64822.34, -65322.996, -65317.7, -64829.938, -64749.965, -65255.715, -65376.305]","[-87140.195, -87188.63, -87340.13, -87300.57, -87151.89, -87163.96, -87311.93, -87323.64, -87183.6, -87161.39]","[-83453.234, -83404.73, -83424.04, -83472.164, -83461.81, -83412.4, -83412.59, -83466.82, -83478.555, -83429.43]","[-86455.9, -86513.37, -86674.48, -86627.13, -86469.336, -86489.2, -86648.8, -86655.5, -86505.66, -86487.414]","[-91367.0, -91403.44, -91536.23, -91509.41, -91381.17, -91387.55, -91514.14, -91529.32, -91409.38, -91382.11]","[-70553.75, -70390.18, -69878.28, -69975.266, -70494.12, -70447.445, -69926.49, -69892.38, -70432.516, -70520.85]","[-86462.74, -86411.15, -86433.66, -86481.65, -86465.42, -86408.6, -86412.984, -86469.445, -86478.5, -86429.08]"
Left,2025-10-28 18:44:25,"[-55277.832, -54279.914, -54774.336, -55770.62, -55456.29, -54362.504, -54574.51, -55613.35, -55558.66, -54465.746]","[-64928.285, -64716.28, -65190.9, -65421.836, -65034.992, -64711.7, -65113.984, -65440.027, -65132.65, -64726.652]","[-87314.27, -87358.91, -87212.39, -87149.61, -87293.734, -87379.45, -87252.65, -87163.78, -87279.36, -87383.23]","[-83423.375, -83471.12, -83488.836, -83436.984, -83426.81, -83468.9, -83500.125, -83457.414, -83430.5, -83458.17]","[-86652.055, -86694.305, -86533.664, -86471.37, -86625.305, -86711.11, -86570.23, -86477.805, -86605.055, -86712.85]","[-91510.3, -91555.85, -91432.78, -91371.56, -91491.45, -91568.88, -91465.28, -91380.86, -91472.03, -91564.55]","[-70032.77, -69856.29, -70366.76, -70572.414, -70136.98, -69841.83, -70287.586, -70601.09, -70244.516, -69851.19]","[-86427.76, -86480.87, -86494.59, -86439.23, -86427.29, -86479.39, -86507.6, -86459.43, -86432.79, -86469.83]"
Left,2025-10-28 18:44:25,"[-54399.766, -55484.76, -55687.07, -54617.65, -54265.766, -55279.13, -55746.836, -54800.934, -54185.68, -55066.184]","[-65028.58, -65443.582, -65229.633, -64755.664, -64937.742, -65416.45, -65311.91, -64818.63, -64864.137, -65371.746]","[-87280.234, -87154.164, -87249.37, -87374.24, -87307.14, -87167.6, -87219.44, -87367.65, -87340.2, -87193.51]","[-83500.04, -83464.01, -83436.31, -83456.83, -83510.45, -83493.195, -83449.945, -83464.25, -83518.234, -83510.5]","[-86597.9, -86467.48, -86574.32, -86706.375, -86629.53, -86482.164, -86541.4, -86697.09, -86658.164, -86499.125]","[-91483.7, -91373.484, -91451.49, -91564.7, -91519.77, -91400.4, -91436.83, -91565.59, -91548.41, -91419.8]","[-70192.39, -70600.31, -70333.09, -69859.62, -70091.23, -70583.14, -70432.47, -69923.27, -70015.61, -70539.13]","[-86509.34, -86466.516, -86433.125, -86458.65, -86510.91, -86490.5, -86445.73, -86467.48, -86523.516, -86513.414]"
Left,2025-10-28 18:44:25,"[-55748.76, -54985.203, -54151.594, -54852.7, -55702.69, -55158.676, -54172.45, -54635.016, -55613.062, -55309.37]","[-65384.688, -64899.965, -64807.117, -65311.844, -65438.62, -64989.91, -64764.246, -65230.215, -65471.145, -65084.457]","[-87210.07, -87366.625, -87378.71, -87230.56, -87206.96, -87350.93, -87393.0, -87252.6, -87198.36, -87329.3]","[-83459.984, -83463.914, -83515.82, -83521.74, -83469.55, -83458.64, -83501.65, -83525.38, -83482.24, -83460.45]","[-86518.73, -86683.95, -86688.89, -86525.59, -86505.14, -86660.305, -86701.586, -86548.44, -86495.28, -86638.67]","[-91424.16, -91557.35, -91572.44, -91442.71, -91411.91, -91532.0, -91576.7, -91461.305, -91407.7, -91513.83]","[-70508.664, -69994.58, -69945.47, -70478.76, -70568.01, -70081.8, -69889.91, -70385.8, -70596.555, -70166.51]","[-86467.3, -86479.55, -86536.836, -86539.14, -86486.07, -86482.34, -86533.62, -86552.52, -86504.47, -86487.1]"
Left,2025-10-28 18:44:25,"[-54232.215, -54435.906, -55504.055, -55480.496, -54371.58, -54272.227, -55315.85, -55559.484, -54516.484, -54128.504]","[-64749.45, -65147.066, -65485.047, -65187.766, -64771.266, -65064.477, -65482.34, -65283.68, -64808.727, -64973.258]","[-87407.86, -87279.805, -87183.29, -87300.93, -87422.14, -87333.766, -87216.414, -87293.11, -87431.71, -87373.17]","[-83494.23, -83523.33, -83478.54, -83456.5, -83491.3, -83538.016, -83506.41, -83468.56, -83493.016, -83544.25]","[-86718.555, -86576.89, -86477.36, -86606.375, -86730.94, -86628.88, -86505.43, -86592.086, -86738.41, -86668.445]","[-91587.01, -91479.01, -91392.28, -91490.516, -91595.86, -91525.5, -91421.32, -91482.336, -91606.1, -91561.734]","[-69855.75, -70292.234, -70614.234, -70262.28, -69857.516, -70201.87, -70622.125, -70372.055, -69891.83, -70107.21]","[-86531.76, -86562.07, -86511.06, -86485.85, -86531.83, -86583.22, -86550.56, -86513.03, -86539.83, -86590.62]"
Left,2025-10-28 18:44:25,"[-55140.637, -55636.44, -54709.227, -54051.613, -54917.43, -55631.86, -54904.355, -54041.938, -54712.734, -55584.07]","[-65456.793, -65365.484, -64873.793, -64902.113, -65410.01, -65436.723, -64960.137, -64856.426, -65358.11, -65495.105]","[-87233.43, -87279.41, -87431.35, -87410.586, -87259.555, -87263.914, -87417.984, -87442.62, -87292.52, -87264.92]","[-83523.46, -83480.32, -83497.94, -83553.77, -83548.18, -83498.336, -83503.305, -83565.93, -83570.4, -83521.45]","[-86519.71, -86574.23, -86735.43, -86706.195, -86543.48, -86552.88, -86719.54, -86741.53, -86579.37, -86555.32]","[-91440.07, -91474.72, -91609.54, -91599.88, -91468.414, -91465.375, -91600.89, -91631.516, -91501.11, -91470.76]","[-70600.445, -70462.24, -69948.69, -70022.45, -70556.414, -70547.96, -70037.13, -69970.28, -70506.39, -70613.836]","[-86567.945, -86521.52, -86539.79, -86596.6, -86585.38, -86531.54, -86539.47, -86605.43, -86612.14, -86559.164]"
Left,2025-10-28 18:44:25,"[-55064.84, -54072.246, -54506.63, -55485.12, -55226.58, -54118.938, -54266.035, -55310.734, -55331.652, -54227.723]","[-65056.832, -64821.29, -65280.1, -65529.438, -65155.582, -64807.273, -65187.88, -65531.36, -65240.85, -64818.473]","[-87409.875, -87454.58, -87320.13, -87267.6, -87394.0, -87482.76, -87358.59, -87256.85, -87352.336, -87484.125]","[-83512.914, -83551.805, -83577.69, -83539.6, -83516.71, -83559.49, -83592.33, -83548.695, -83508.71, -83551.2]","[-86710.555, -86753.65, -86607.24, -86554.445, -86692.625, -86783.71, -86648.39, -86547.01, -86655.52, -86793.81]","[-91592.62, -91636.945, -91524.23, -91473.484, -91578.3, -91663.01, -91562.83, -91473.375, -91548.38, -91666.0]","[-70137.96, -69937.805, -70430.28, -70654.94, -70237.38, -69911.72, -70336.29, -70674.2, -70338.93, -69924.91]","[-86552.62, -86601.21, -86625.125, -86583.125, -86561.87, -86607.51, -86636.73, -86589.2, -86551.07, -86597.03]"
Left,2025-10-28 18:44:25,"[-54095.895, -55164.707, -55423.32, -54377.86, -53955.01, -54953.598, -55470.684, -54553.277, -53867.168, -54724.758]","[-65098.426, -65529.28, -65340.52, -64864.562, -65016.24, -65496.223, -65413.05, -64915.08, -64926.88, -65439.56]","[-87394.09, -87263.11, -87347.31, -87476.26, -87420.625, -87267.24, -87310.25, -87464.25, -87443.89, -87289.53]","[-83598.79, -83564.55, -83526.93, -83542.87, -83594.14, -83562.42, -83516.53, -83530.86, -83585.11, -83578.31]","[-86692.914, -86557.33, -86651.5, -86788.13, -86720.37, -86557.555, -86608.625, -86772.4, -86743.41, -86577.43]","[-91593.58, -91479.79, -91546.94, -91662.07, -91617.79, -91477.95, -91509.54, -91645.39, -91635.4, -91501.85]","[-70252.625, -70681.625, -70434.46, -69945.914, -70144.375, -70640.92, -70510.48, -69995.805, -70054.03, -70585.445]","[-86644.57, -86607.0, -86567.86, -86590.68, -86643.72, -86612.32, -86561.13, -86576.82, -86631.09, -86620.99]"
Left,2025-10-28 18:44:25,"[-55451.19, -54728.402, -53842.2, -54488.812, -55370.277, -54879.68, -53891.82, -54320.33, -55328.08, -55084.13]","[-65478.43, -65003.254, -64883.0, -65380.73, -65527.87, -65094.023, -64852.69, -65310.457, -65569.67, -65197.74]","[-87300.91, -87459.83, -87477.28, -87321.83, -87284.86, -87426.81, -87477.93, -87353.12, -87292.21, -87424.266]","[-83536.2, -83542.57, -83597.71, -83604.555, -83552.36, -83545.164, -83584.84, -83616.87, -83575.27, -83555.734]","[-86595.76, -86766.55, -86779.195, -86612.41, -86579.64, -86735.38, -86786.62, -86649.89, -86589.01, -86732.836]","[-91506.766, -91642.13, -91666.76, -91533.37, -91494.72, -91617.164, -91667.055, -91563.01, -91504.484, -91615.8]","[-70583.055, -70079.31, -70001.87, -70526.62, -70640.5, -70168.72, -69961.81, -70457.52, -70695.7, -70279.09]","[-86571.5, -86577.76, -86634.87, -86633.91, -86576.305, -86569.445, -86620.695, -86651.3, -86609.03, -86589.56]"
Left,2025-10-28 18:44:25,"[-53991.555, -54137.4, -55182.41, -55203.848, -54110.957, -53941.04, -54985.27, -55268.777, -54243.793, -53801.586]","[-64840.49, -65213.965, -65562.92, -65281.6, -64851.977, -65118.926, -65545.95, -65362.758, -64884.297, -65023.707]","[-87508.555, -87392.57, -87297.04, -87394.74, -87513.695, -87428.805, -87294.516, -87370.11, -87500.77, -87450.414]","[-83585.98, -83619.35, -83578.266, -83541.34, -83569.69, -83618.79, -83581.086, -83542.55, -83560.586, -83619.266]","[-86818.89, -86689.14, -86591.016, -86699.69, -86822.06, -86724.52, -86583.44, -86668.94, -86808.836, -86749.04]","[-91690.21, -91593.83, -91505.78, -91584.98, -91691.484, -91627.11, -91509.54, -91569.53, -91685.36, -91653.64]","[-69947.125, -70364.9, -70704.96, -70374.18, -69949.78, -70262.664, -70697.25, -70465.35, -69981.73, -70164.96]","[-86627.875, -86661.02, -86619.2, -86583.305, -86617.81, -86663.66, -86622.87, -86579.98, -86602.484, -86654.79]"
Left,2025-10-28 18:44:25,"[-54753.324, -55299.47, -54423.95, -53744.324, -54567.516, -55292.426, -54587.14, -53696.625, -54332.598, -55238.74]","[-65506.1, -65434.375, -64944.938, -64950.594, -65459.766, -65510.93, -65040.043, -64912.24, -65410.234, -65569.54]","[-87299.48, -87326.21, -87480.46, -87464.27, -87318.34, -87323.664, -87476.79, -87502.41, -87358.28, -87319.055]","[-83597.67, -83541.74, -83556.34, -83612.11, -83616.29, -83572.73, -83571.3, -83622.234, -83637.12, -83583.836]","[-86589.41, -86624.27, -86789.43, -86766.88, -86609.945, -86621.305, -86785.9, -86805.86, -86649.31, -86612.336]","[-91523.71, -91538.46, -91671.63, -91665.64, -91542.82, -91542.93, -91670.43, -91698.164, -91576.86, -91533.26]","[-70654.94, -70537.12, -70024.87, -70071.516, -70602.01, -70615.17, -70112.35, -70025.78, -70557.73, -70690.81]","[-86628.74, -86572.71, -86588.06, -86644.21, -86641.93, -86595.93, -86600.336, -86657.53, -86671.33, -86617.414]"
Left,2025-10-28 18:44:25,"[-54782.895, -53746.133, -54124.39, -55156.82, -54951.34, -53829.73, -53946.023, -55020.293, -55087.797, -53984.535]","[-65140.94, -64880.098, -65324.473, -65595.82, -65238.91, -64876.562, -65245.01, -65606.21, -65338.484, -64902.918]","[-87465.195, -87528.47, -87389.87, -87311.125, -87443.96, -87541.99, -87423.95, -87316.125, -87422.91, -87550.94]","[-83573.266, -83624.02, -83651.2, -83598.45, -83577.69, -83622.88, -83659.27, -83610.14, -83583.234, -83620.65]","[-86770.43, -86833.445, -86682.39, -86603.29, -86748.1, -86849.984, -86718.53, -86607.49, -86724.836, -86857.11]","[-91656.32, -91719.71, -91608.65, -91532.586, -91643.41, -91734.04, -91634.016, -91534.1, -91622.234, -91737.82]","[-70224.195, -69996.08, -70483.14, -70740.21, -70333.54, -69990.35, -70406.07, -70761.29, -70445.55, -70020.234]","[-86611.11, -86664.82, -86687.87, -86633.88, -86612.984, -86660.64, -86695.13, -86648.44, -86618.016, -86659.7]"
Left,2025-10-28 18:44:25,"[-53812.742, -54843.918, -55168.484, -54172.047, -53703.934, -54656.363, -55203.355, -54336.332, -53619.4, -54431.15]","[-65159.65, -65592.516, -65428.207, -64948.133, -65068.92, -65557.8, -65502.21, -65007.723, -64994.87, -65508.605]","[-87459.18, -87335.53, -87395.68, -87535.6, -87487.37, -87342.66, -87372.88, -87520.375, -87509.94, -87355.0]","[-83665.64, -83638.75, -83593.914, -83613.31, -83666.47, -83650.87, -83601.875, -83608.98, -83663.07, -83658.336]","[-86752.664, -86623.78, -86694.73, -86843.73, -86786.39, -86633.22, -86671.62, -86830.695, -86812.3, -86645.016]","[-91666.76, -91560.03, -91604.6, -91728.99, -91695.414, -91571.38, -91590.38, -91719.0, -91716.78, -91582.97]","[-70324.42, -70756.1, -70540.9, -70050.125, -70218.23, -70716.445, -70609.07, -70097.1, -70131.39, -70664.414]","[-86702.22, -86668.086, -86621.64, -86645.555, -86699.71, -86676.87, -86624.23, -86637.75, -86695.195, -86689.14]"
Left,2025-10-28 18:44:25,"[-55205.523, -54522.43, -53607.977, -54202.152, -55120.562, -54694.473, -53651.496, -53998.55, -55015.176, -54827.285]","[-65573.85, -65099.145, -64947.82, -65434.71, -65602.62, -65178.043, -64906.785, -65345.348, -65620.66, -65265.418]","[-87348.92, -87506.5, -87529.61, -87378.375, -87329.27, -87467.0, -87538.53, -87403.08, -87324.96, -87446.305]","[-83607.98, -83608.664, -83653.17, -83664.46, -83607.08, -83590.41, -83639.71, -83663.63, -83613.07, -83585.6]","[-86645.22, -86815.02, -86834.38, -86672.16, -86625.98, -86774.99, -86846.05, -86696.625, -86617.234, -86749.84]","[-91570.74, -91704.695, -91730.76, -91605.65, -91554.18, -91672.39, -91739.336, -91621.5, -91546.375, -91644.97]","[-70686.34, -70182.49, -70072.766, -70592.555, -70733.46, -70269.305, -70029.89, -70506.7, -70760.68, -70358.98]","[-86630.6, -86633.375, -86682.68, -86688.58, -86627.56, -86611.984, -86666.03, -86688.695, -86635.97, -86612.92]"
Left,2025-10-28 18:44:25,"[-53731.0, -53790.59, -54837.613, -54965.71, -53890.547, -53639.918, -54667.36, -55013.363, -54006.887, -53524.45]","[-64891.203, -65246.24, -65623.805, -65368.035, -64923.57, -65154.484, -65596.05, -65435.76, -64949.453, -65066.688]","[-87540.23, -87444.96, -87333.695, -87420.625, -87553.19, -87478.38, -87340.805, -87405.086, -87544.9, -87498.23]","[-83617.12, -83665.62, -83627.47, -83585.78, -83619.8, -83665.53, -83631.734, -83588.22, -83610.74, -83664.86]","[-86846.83, -86738.72, -86623.78, -86722.53, -86862.03, -86775.44, -86631.336, -86705.26, -86853.78, -86795.04]","[-91728.56, -91652.63, -91552.766, -91621.97, -91740.32, -91679.86, -91559.09, -91608.445, -91734.4, -91700.53]","[-70005.84, -70409.266, -70781.41, -70475.36, -70030.27, -70308.15, -70759.12, -70552.72, -70056.54, -70215.48]","[-86655.45, -86700.43, -86659.88, -86616.164, -86652.17, -86697.9, -86662.23, -86615.78, -86639.79, -86692.16]"
Left,2025-10-28 18:44:25,"[-54475.54, -55048.414, -54191.984, -53450.31, -54246.32, -55020.25, -54373.992, -53458.934, -54041.2, -54960.84]","[-65563.27, -65519.715, -65029.918, -65006.184, -65517.254, -65589.766, -65126.434, -64970.73, -65458.445, -65639.83]","[-87352.72, -87384.57, -87539.47, -87535.65, -87379.79, -87374.22, -87522.1, -87554.89, -87405.555, -87362.71]","[-83649.93, -83608.31, -83622.81, -83682.945, -83680.93, -83631.805, -83630.125, -83682.516, -83692.89, -83648.72]","[-86639.97, -86680.445, -86845.266, -86835.12, -86670.43, -86669.805, -86829.64, -86858.25, -86694.82, -86654.36]","[-91575.48, -91598.41, -91734.13, -91741.73, -91608.67, -91596.76, -91723.67, -91758.29, -91631.71, -91591.37]","[-70722.33, -70631.16, -70119.75, -70140.6, -70675.52, -70713.81, -70223.08, -70100.59, -70617.01, -70771.7]","[-86674.63, -86627.78, -86645.484, -86707.16, -86699.625, -86645.78, -86644.28, -86700.02, -86710.95, -86660.77]"
Left,2025-10-28 18:44:25,"[-54543.22, -53515.105, -53841.71, -54847.85, -54691.97, -53586.027, -53614.703, -54685.31, -54788.797, -53687.773]","[-65223.977, -64949.05, -65382.766, -65672.555, -65332.34, -64954.19, -65297.426, -65676.24, -65422.348, -64974.31]","[-87498.61, -87561.195, -87439.24, -87363.49, -87480.68, -87588.04, -87483.52, -87367.336, -87459.78, -87591.125]","[-83633.414, -83671.79, -83707.484, -83667.81, -83638.98, -83681.71, -83725.86, -83680.7, -83643.89, -83675.9]","[-86803.67, -86864.16, -86728.81, -86651.97, -86780.85, -86890.82, -86773.85, -86653.65, -86756.75, -86894.555]","[-91704.85, -91761.0, -91661.93, -91593.875, -91690.12, -91789.72, -91703.11, -91595.39, -91671.39, -91789.05]","[-70312.266, -70062.68, -70531.086, -70801.81, -70413.94, -70053.41, -70444.63, -70823.78, -70517.9, -70069.836]","[-86645.58, -86691.22, -86719.875, -86674.74, -86647.01, -86694.75, -86739.7, -86690.46, -86652.93, -86692.9]"
Left,2025-10-28 18:44:25,"[-53453.996, -54504.15, -54872.883, -53876.176, -53347.4, -54274.305, -54850.11, -54022.086, -53295.523, -54091.69]","[-65210.7, -65660.95, -65513.387, -65027.035, -65125.72, -65621.86, -65583.234, -65092.863, -65056.676, -65566.32]","[-87507.17, -87374.51, -87442.53, -87586.09, -87543.94, -87397.71, -87423.22, -87561.08, -87555.27, -87404.22]","[-83719.95, -83686.05, -83646.445, -83666.76, -83719.35, -83703.77, -83656.19, -83654.76, -83707.555, -83708.734]","[-86798.125, -86658.97, -86737.42, -86890.22, -86838.805, -86682.99, -86716.81, -86865.3, -86852.555, -86690.99]","[-91717.68, -91596.78, -91647.56, -91774.67, -91744.7, -91617.74, -91633.01, -91750.984, -91753.6, -91626.82]","[-70354.555, -70817.61, -70625.12, -70127.37, -70273.17, -70782.09, -70698.27, -70186.76, -70191.12, -70721.68]","[-86737.22, -86701.766, -86661.16, -86682.59, -86733.71, -86717.1, -86663.44, -86665.24, -86721.125, -86718.42]"
Left,2025-10-28 18:44:25,"[-54872.395, -54225.2, -53290.047, -53854.965, -54780.348, -54365.14, -53309.492, -53616.582, -54660.117, -54526.68]","[-65643.23, -65177.797, -65004.28, -65486.92, -65679.125, -65271.766, -64984.457, -65407.105, -65700.41, -65363.027]","[-87397.53, -87545.68, -87576.62, -87430.21, -87389.89, -87532.83, -87600.04, -87462.11, -87373.33, -87496.305]","[-83662.65, -83659.38, -83706.59, -83721.39, -83677.82, -83668.414, -83712.6, -83738.06, -83685.266, -83659.516]","[-86689.54, -86848.35, -86874.5, -86715.42, -86676.31, -86831.766, -86900.586, -86753.05, -86664.125, -86797.5]","[-91613.9, -91740.7, -91772.84, -91651.05, -91611.84, -91730.87, -91795.51, -91685.6, -91604.06, -91704.336]","[-70756.44, -70254.016, -70122.27, -70638.6, -70801.81, -70352.85, -70095.65, -70566.0, -70848.91, -70466.16]","[-86666.92, -86667.52, -86718.16, -86725.8, -86676.29, -86667.68, -86715.96, -86740.664, -86685.74, -86660.91]"
Left,2025-10-28 18:44:25,"[-53421.496, -53427.465, -54500.906, -54629.25, -53557.105, -53294.85, -54301.91, -54677.04, -53704.47, -53176.344]","[-64980.723, -65318.594, -65706.53, -65462.09, -65012.15, -65231.8, -65683.484, -65547.41, -65063.78, -65153.95]","[-87603.8, -87502.14, -87381.22, -87481.04, -87603.44, -87529.92, -87398.07, -87458.06, -87598.7, -87558.87]","[-83700.625, -83742.46, -83696.375, -83668.19, -83693.02, -83740.79, -83715.35, -83674.695, -83688.75, -83743.07]","[-86906.98, -86792.31, -86668.734, -86780.07, -86908.74, -86823.66, -86685.05, -86754.23, -86903.38, -86853.83]","[-91804.56, -91721.26, -91609.43, -91690.68, -91799.086, -91742.42, -91625.39, -91671.03, -91791.555, -91766.14]","[-70100.234, -70483.19, -70867.28, -70571.99, -70129.29, -70395.26, -70848.1, -70659.32, -70164.54, -70299.766]","[-86706.87, -86749.375, -86703.83, -86671.57, -86704.984, -86750.41, -86717.64, -86672.555, -86694.93, -86749.31]"
Left,2025-10-28 18:44:25,"[-54114.043, -54723.375, -53886.3, -53098.156, -53874.297, -54700.016, -54091.824, -53126.79, -53666.516, -54622.59]","[-65656.39, -65626.11, -65135.26, -65082.74, -65592.85, -65684.67, -65224.83, -65037.094, -65519.87, -65725.51]","[-87406.66, -87433.56, -87587.68, -87589.2, -87430.1, -87417.07, -87567.586, -87607.59, -87464.88, -87417.49]","[-83730.77, -83681.734, -83690.516, -83746.31, -83740.56, -83689.65, -83682.56, -83732.79, -83752.34, -83704.266]","[-86693.23, -86727.9, -86892.67, -86887.53, -86716.55, -86707.54, -86869.38, -86905.62, -86748.73, -86702.75]","[-91638.016, -91654.53, -91789.945, -91794.75, -91654.24, -91634.87, -91761.87, -91802.15, -91683.08, -91635.23]","[-70810.305, -70733.17, -70217.086, -70210.54, -70748.055, -70803.82, -70308.69, -70156.27, -70675.39, -70858.45]","[-86732.34, -86680.76, -86691.04, -86750.38, -86744.17, -86687.35, -86682.836, -86736.5, -86753.76, -86703.18]"
Left,2025-10-28 18:44:25,"[-54246.14, -53183.54, -53466.58, -54511.21, -54417.645, -53299.703, -53287.32, -54374.977, -54545.164, -53484.15]","[-65318.594, -65013.715, -65429.68, -65734.38, -65410.39, -65015.01, -65340.676, -65742.875, -65509.32, -65052.54]","[-87554.06, -87619.15, -87487.9, -87396.57, -87516.086, -87627.65, -87522.93, -87400.84, -87492.51, -87622.17]","[-83688.15, -83725.92, -83755.05, -83705.25, -83682.67, -83726.82, -83768.39, -83726.64, -83690.85, -83719.22]","[-86851.1, -86916.86, -86773.56, -86682.57, -86815.02, -86931.79, -86815.56, -86688.086, -86790.21, -86928.52]","[-91748.46, -91813.03, -91706.44, -91623.53, -91725.62, -91830.89, -91748.66, -91640.9, -91712.05, -91829.1]","[-70409.85, -70137.38, -70597.76, -70887.195, -70515.35, -70136.555, -70513.72, -70907.71, -70621.43, -70163.65]","[-86688.02, -86730.805, -86753.02, -86699.11, -86672.33, -86718.555, -86761.47, -86717.1, -86679.414, -86711.54]"
Left,2025-10-28 18:44:25,"[-53181.906, -54184.92, -54602.9, -53647.918, -53084.656, -53993.79, -54639.668, -53833.46, -53033.87, -53771.434]","[-65258.2, -65716.99, -65597.05, -65112.867, -65184.39, -65689.695, -65682.99, -65194.94, -65128.58, -65634.58]","[-87558.69, -87423.75, -87478.58, -87631.04, -87599.28, -87458.71, -87484.19, -87638.69, -87637.7, -87486.27]","[-83774.49, -83751.67, -83708.53, -83726.93, -83779.81, -83774.984, -83732.766, -83737.55, -83787.17, -83791.46]","[-86854.68, -86713.59, -86777.83, -86941.086, -86901.414, -86751.63, -86783.8, -86948.266, -86940.95, -86777.02]","[-91780.35, -91663.41, -91705.36, -91836.59, -91812.54, -91692.35, -91708.05, -91840.57, -91845.195, -91717.5]","[-70414.79, -70881.09, -70715.76, -70222.74, -70344.96, -70867.95, -70821.52, -70305.31, -70282.11, -70817.28]","[-86765.85, -86738.09, -86694.234, -86718.484, -86774.63, -86771.44, -86728.66, -86738.2, -86794.305, -86793.52]"
Left,2025-10-28 18:44:25,"[-54611.547, -54037.332, -53058.84, -53585.312, -54555.734, -54192.676, -53120.707, -53389.98, -54455.957, -54371.758]","[-65739.61, -65285.914, -65086.492, -65564.04, -65774.57, -65371.855, -65061.996, -65474.562, -65792.83, -65473.445]","[-87459.54, -87606.45, -87651.27, -87503.7, -87450.734, -87589.4, -87658.336, -87526.91, -87434.93, -87553.59]","[-83733.7, -83724.984, -83780.414, -83796.42, -83745.51, -83731.336, -83769.22, -83795.26, -83751.25, -83728.805]","[-86754.34, -86914.4, -86957.2, -86796.79, -86744.69, -86895.78, -86965.586, -86821.15, -86728.34, -86859.46]","[-91687.91, -91816.336, -91864.84, -91738.29, -91686.97, -91804.875, -91870.38, -91761.0, -91680.266, -91778.21]","[-70886.61, -70391.57, -70224.58, -70737.484, -70924.86, -70480.82, -70195.9, -70654.445, -70959.39, -70584.555]","[-86731.45, -86723.05, -86777.85, -86789.48, -86732.08, -86717.88, -86763.055, -86790.08, -86740.77, -86715.445]"
Left,2025-10-28 18:44:25,"[-53254.395, -53221.113, -54277.523, -54444.133, -53380.57, -53058.06, -54053.38, -54488.77, -53540.004, -52945.45]","[-65065.57, -65373.285, -65767.234, -65542.445, -65085.62, -65284.504, -65746.25, -65634.734, -65146.594, -65205.36]","[-87657.375, -87545.73, -87427.664, -87518.63, -87655.36, -87590.41, -87460.3, -87508.625, -87657.35, -87626.33]","[-83761.125, -83795.84, -83757.91, -83723.69, -83753.87, -83807.734, -83784.375, -83737.055, -83751.25, -83807.06]","[-86970.68, -86848.125, -86726.04, -86828.484, -86971.78, -86896.48, -86760.016, -86816.164, -86973.37, -86932.73]","[-91872.71, -91784.06, -91679.945, -91751.97, -91871.26, -91823.31, -91708.67, -91742.195, -91869.89, -91851.92]","[-70188.79, -70540.984, -70930.0, -70653.28, -70199.07, -70446.64, -70918.664, -70757.69, -70252.41, -70358.84]","[-86751.63, -86781.19, -86734.58, -86697.86, -86733.46, -86789.27, -86764.98, -86717.234, -86734.734, -86791.805]"
Left,2025-10-28 18:44:25,"[-53838.266, -54501.266, -53708.246, -52885.367, -53608.492, -54442.793, -53892.023, -52942.99, -53456.7, -54441.832]","[-65709.46, -65711.625, -65224.758, -65143.867, -65644.66, -65755.14, -65301.426, -65090.65, -65559.34, -65787.24]","[-87479.01, -87492.375, -87646.266, -87648.52, -87488.46, -87467.49, -87598.79, -87633.79, -87491.63, -87441.27]","[-83798.19, -83746.04, -83749.62, -83802.59, -83802.61, -83754.04, -83735.49, -83775.39, -83799.08, -83759.14]","[-86775.98, -86795.71, -86959.95, -86957.47, -86787.4, -86771.91, -86916.52, -86949.2, -86795.266, -86744.88]","[-91725.28, -91725.945, -91857.96, -91870.27, -91735.445, -91712.67, -91822.305, -91859.08, -91742.87, -91694.99]","[-70881.54, -70841.28, -70325.09, -70291.875, -70828.37, -70904.695, -70413.23, -70234.08, -70740.27, -70943.41]","[-86779.53, -86724.68, -86732.99, -86787.33, -86783.24, -86730.0, -86715.6, -86757.11, -86771.91, -86727.0]"
