timestamp,label,FC3,C3,CP3,Cz,FCz,FC4,C4,CP4
2025-12-12 18:00:02.172296,Right,1968.3153481989145,2285.7161913646923,2291.1101028883973,2262.070193475676,1448.1628243684793,2123.6717125353825,2129.515284959025,2369.631622103155
2025-12-12 18:00:02.189316,Right,10612.735883625934,12322.759608317581,12352.293704349064,12195.554421315908,7791.17411718714,11450.172129534896,11481.4272434364,12774.457597735276
2025-12-12 18:00:02.192319,Right,24351.10827010008,28269.8471720881,28339.239109431885,27979.372171273997,17842.643863719986,26271.306798150883,26342.536749406165,29304.69870184142
2025-12-12 18:00:02.196340,Right,30495.201490134074,35393.393456072685,35484.39567936362,35033.365940212374,22344.294037666863,32897.04883178251,32986.254425691215,36689.3050507835
2025-12-12 18:00:02.199334,Right,20673.996918051016,23986.775315963343,24057.44551390966,23749.056996227016,15263.583231517812,22301.99812352639,22363.722496997172,24871.079143746952
2025-12-12 18:00:02.202342,Right,2360.6519080067956,2740.0784890218056,2767.5970582809823,2721.89486170109,1981.0679358181806,2558.1219790275063,2566.66320923515,2854.2053908930393
2025-12-12 18:00:02.206366,Right,-11380.699378004269,-13191.807884266309,-13196.999851851113,-13050.358426156134,-8183.050331027538,-12245.991049266973,-12281.175064802694,-13663.666972706997
2025-12-12 18:00:02.210418,Right,-14743.180609337054,-17092.961862410128,-17108.202010502806,-16915.301534536935,-10915.256869688339,-15866.816494844446,-15916.211342378461,-17719.860740156088
2025-12-12 18:00:02.214410,Right,-10472.111574872513,-12148.854039402504,-12158.851712296018,-12021.713428570598,-7859.7845455945935,-11272.300860663061,-11308.292941602936,-12600.305666541739
2025-12-12 18:00:02.218328,Right,-4526.784539491113,-5252.212823922164,-5251.9796353073325,-5194.894811543927,-3312.578345769085,-4871.561578227847,-4885.135176746175,-5444.726554584573
2025-12-12 18:00:02.222410,Right,-1326.238784324727,-1527.65573632007,-1519.837854262325,-1510.5995476000244,-862.3776727050426,-1417.583322086255,-1419.7783610348124,-1579.513281034655
2025-12-12 18:00:02.227414,Right,-1966.5117046787636,-2268.331131616491,-2261.555788013269,-2245.900258487207,-1466.2544252573862,-2104.367414139444,-2111.0271177666727,-2353.4527798217023
2025-12-12 18:00:02.230422,Right,-4635.299354260205,-5376.555424600723,-5379.058889348176,-5320.838376700878,-3508.0122888376936,-4988.816092485678,-5005.120749578462,-5580.762110754498
2025-12-12 18:00:02.234445,Right,-6427.814608608489,-7461.041615524795,-7471.819500313606,-7381.365835349541,-4691.819724977424,-6927.366189914639,-6947.959957463783,-7737.328747492982
2025-12-12 18:00:02.238451,Right,-5787.931621834403,-6709.045875808573,-6719.363993988023,-6637.414438360021,-4140.924286279012,-6231.242358778138,-6250.164059801726,-6954.091748265782
2025-12-12 18:00:02.242454,Right,-3769.1561612844234,-4363.684656138532,-4369.014811424306,-4317.590471386677,-2805.0264652405167,-4049.2613237961195,-4064.6021165261045,-4528.649979094276
2025-12-12 18:00:02.246399,Right,-2661.710961737437,-3092.095585303381,-3097.334904931253,-3057.8883594443323,-2099.323398262146,-2865.119558786275,-2876.9855621088063,-3215.964175627101
2025-12-12 18:00:02.250479,Right,-3313.3626296995208,-3857.3546958718216,-3867.921024488518,-3813.371291953139,-2432.90925483522,-3581.172335901414,-3590.8487353957025,-4003.967331073014
2025-12-12 18:00:02.255497,Right,-4326.68005320942,-5024.445183912874,-5037.984407072887,-4969.9630419537425,-3037.3605444433633,-4672.357504472486,-4682.647360980045,-5206.8843522942625
2025-12-12 18:00:02.258501,Right,-4097.100586535991,-4750.225832883967,-4761.320418769028,-4701.555999884848,-2998.5351110240445,-4415.460275635822,-4427.591211418738,-4926.186181704863
2025-12-12 18:00:02.262499,Right,-2914.378696761094,-3387.1105203494662,-3395.55059085018,-3351.7494326914893,-2301.130066594109,-3140.997047562734,-3152.1328572272323,-3519.121480804519
2025-12-12 18:00:02.266509,Right,-2337.5605741369072,-2727.4284447510727,-2736.7017504333053,-2695.364156206837,-1778.0811495647067,-2525.9354322396684,-2533.4999941058923,-2829.5660064077238
2025-12-12 18:00:02.270491,Right,-2915.5242616658797,-3389.459211701178,-3400.1320850724587,-3349.9523793356493,-2012.4438755578594,-3144.974730591872,-3151.5523343740497,-3504.6140170299914
2025-12-12 18:00:02.274551,Right,-3529.7352142670425,-4089.8462033576798,-4099.567006534897,-4045.6419598956127,-2528.7169409825,-3795.735242117895,-3804.8709714501165,-4229.6848980758805
2025-12-12 18:00:02.278545,Right,-3110.840209609247,-3609.1215207678033,-3617.4782170628896,-3570.0979362635408,-2419.161665302352,-3344.387792612426,-3353.5906812957255,-3737.786570833181
2025-12-12 18:00:02.283631,Right,-2114.4550409038784,-2465.023437189404,-2473.823490094859,-2434.6306497477926,-1654.273040204309,-2281.8486106209457,-2285.978525542072,-2550.485042507411
2025-12-12 18:00:02.286628,Right,-1752.4800977514824,-2040.987952658441,-2050.7256944243563,-2013.7149406946264,-1186.1595050942851,-1895.330037385691,-1895.850249993964,-2103.160372827202
2025-12-12 18:00:02.289702,Right,-2284.4798974492587,-2645.4319748803973,-2655.4614965486107,-2614.8827945945086,-1572.8805368047906,-2461.5072425121907,-2465.434387723566,-2730.981959580211
2025-12-12 18:00:02.294610,Right,-2773.601413086755,-3214.6597468606196,-3225.8495064027375,-3181.1246680943295,-2123.4917345806025,-2988.5895480721956,-2997.7236660822527,-3332.3398521902272
2025-12-12 18:00:02.298596,Right,-2432.3237203496974,-2831.3304777613375,-2844.6583801176166,-2801.8948238469893,-1904.8995785842417,-2632.870691705146,-2641.1962968979497,-2940.8995632621227
2025-12-12 18:00:02.302621,Right,-1607.1821374373976,-1874.5459969748044,-1888.1076903254725,-1855.6817262819968,-1125.943079586723,-1750.0967591188382,-1754.0972771734232,-1945.536833951599
2025-12-12 18:00:02.306655,Right,-1220.3348477673717,-1414.8173783632228,-1426.2051677666605,-1404.0428637912264,-798.2941080448218,-1326.1297144570854,-1330.5310186260613,-1469.060433023842
2025-12-12 18:00:02.311601,Right,-1571.4492120598443,-1821.9399420017144,-1832.5232305645477,-1809.1873155052308,-1223.210091255838,-1699.9570620437153,-1709.3681985888397,-1899.0844031061279
2025-12-12 18:00:02.314652,Right,-2024.736383945099,-2359.6803357525496,-2372.2323390813544,-2339.67080814112,-1616.455368556315,-2196.000424649683,-2207.2836949732155,-2459.292562988121
2025-12-12 18:00:02.317665,Right,-1857.3291978783673,-2167.545770000317,-2180.6154842159012,-2147.4838997476036,-1335.2522049774416,-2020.7801493215375,-2028.6494634139817,-2252.0337192624575
2025-12-12 18:00:02.321627,Right,-1167.1697433373192,-1355.8574055985082,-1365.5244880700484,-1345.3969919182127,-754.9241553345928,-1269.2902533079032,-1274.4100022258935,-1404.8407463328913
2025-12-12 18:00:02.326690,Right,-732.3816937423544,-849.3562408325961,-856.3301475350745,-845.7085065261927,-589.4926579834428,-793.7829222116852,-799.9335925569758,-884.5728237684816
2025-12-12 18:00:02.330713,Right,-993.3770863141399,-1164.6616563322023,-1174.0900525203906,-1155.963634278858,-872.404677063867,-1081.0804894125322,-1088.0822844529757,-1215.5342391401064
2025-12-12 18:00:02.334715,Right,-1457.0387970566517,-1707.4961724563036,-1720.8304899540963,-1690.598780816421,-1066.206044386956,-1587.2220062223496,-1592.345206482336,-1772.5315561841708
2025-12-12 18:00:02.338723,Right,-1355.8409952607471,-1578.3485569303157,-1590.9743467996595,-1563.5056999917142,-880.6705972404452,-1471.1513301945524,-1474.8625846597133,-1633.0382892333437
2025-12-12 18:00:02.342671,Right,-714.2779010774102,-826.8233933822485,-835.6325660230359,-821.6707663057605,-543.0728525445447,-770.5497780602891,-775.2259253941011,-858.1300700795837
2025-12-12 18:00:02.345737,Right,-318.9700754779624,-378.03356676909607,-385.9527612066595,-376.16327624814585,-379.3221959686489,-349.31107108923607,-354.1750418719603,-397.33053800009657
2025-12-12 18:00:02.350756,Right,-593.5200649735052,-704.4595965195913,-714.6336522838101,-696.1495539786993,-458.2645999863744,-655.1081325986888,-657.7569959171815,-729.5660184741719
2025-12-12 18:00:02.354759,Right,-1001.0723512580735,-1168.2978179940255,-1178.65917784872,-1155.3105438655475,-611.883594325569,-1091.649081008276,-1092.9955663791625,-1202.5653069074033
2025-12-12 18:00:02.358767,Right,-851.1649194507627,-985.1295466858428,-992.5361768171424,-976.5010467807297,-608.5334723367123,-920.577026007988,-923.0339701761259,-1016.0029670719523
2025-12-12 18:00:02.362783,Right,-294.62587930780137,-346.6709030821803,-352.52331344760023,-344.4205354079604,-364.2415138701326,-322.24926741584204,-324.585998606286,-361.5771733142901
2025-12-12 18:00:02.365796,Right,-40.64533892268082,-61.07855563110206,-68.47854244557675,-59.12174313364085,-91.55377592972945,-57.022050630825106,-56.799295711913146,-62.934577262436505
2025-12-12 18:00:02.369801,Right,-298.31484076357447,-352.5201080373954,-360.81323914806126,-347.7674213683931,-97.13509318878641,-331.8926297086291,-331.6493061877554,-357.3053563349531
2025-12-12 18:00:02.373808,Right,-550.1630545799271,-633.3407206447446,-640.0324674806907,-629.4731945369276,-335.287161439599,-591.5322355551762,-596.0559041402885,-650.3924553999677
2025-12-12 18:00:02.377827,Right,-379.65073875832604,-440.7114233071334,-446.5361268163542,-441.00467034598114,-397.1050955413375,-406.9483690064517,-414.960536259925,-459.9396651686402
2025-12-12 18:00:02.382848,Right,-15.28748983942205,-29.76978034415515,-37.15059709677007,-33.19790264044423,-102.74217203745502,-25.957651385921054,-31.049568353279028,-35.306554886337835
2025-12-12 18:00:02.386858,Right,118.97215742149274,129.54931390774436,121.43240497895749,124.38881847477751,183.99959340909845,113.62889964075293,113.5185883056838,136.39368691091659
2025-12-12 18:00:02.390870,Right,4.574969789624447,8.863228779053316,2.763221916364273,1.8627644773514476,98.52421675130608,-3.2762340788030997,-2.899728878517635,11.259767021314474
2025-12-12 18:00:02.393876,Right,-76.24848646187456,-87.1441991708707,-91.55888249268173,-94.76182989022345,-146.82726913271472,-89.09421554440632,-90.9310633285786,-96.44195801060414
2025-12-12 18:00:02.397884,Right,8.84366716389195,-1.009843189822277,-6.2060888266714755,-7.194450163980946,-105.99781956826337,-6.750662988313707,-7.467468875984196,-8.97605498143821
2025-12-12 18:00:02.401830,Right,160.0726693188335,175.09287622269767,169.5113885832543,169.15944182121893,189.1108060717379,152.45093246579927,155.66878810238268,181.69639953975275
2025-12-12 18:00:02.405907,Right,269.1532901779865,315.1007482178393,311.54243907860655,306.37265805770585,318.7492544018023,278.8364390930219,283.2884301248705,330.61303566239076
2025-12-12 18:00:02.410913,Right,305.71811855683336,360.2194548059924,357.6957313833991,349.7765921916216,175.30805681215497,323.52027527909377,326.23978209831694,370.8498445642035
2025-12-12 18:00:02.414950,Right,270.7536448665114,308.45011389115825,303.19718996978736,300.88183661953553,84.34467406737076,278.1644276630541,281.085633314191,313.3282753615704
2025-12-12 18:00:02.418943,Right,228.26044863672723,256.11005365278106,248.01053982634403,251.99401860452417,215.17245635960353,227.02394556068612,232.38549168312238,265.48353276475973
2025-12-12 18:00:02.421947,Right,294.97856977055926,343.76912746702146,337.02512747535366,338.4316335278272,344.1087072991504,307.5393567513602,312.7985458332114,361.7456055437069
2025-12-12 18:00:02.425897,Right,466.7062770994962,545.3999666812742,541.7955976194353,536.9333169180172,310.6450221731502,501.086266602666,503.56410215588403,567.1447880317282
2025-12-12 18:00:02.429979,Right,564.9312963320554,647.2825784457091,643.8798317403998,639.9226650909986,278.1677737491409,601.3083499745117,603.8050145326706,670.807605247508
2025-12-12 18:00:02.433984,Right,488.43080477486365,553.6493066054245,548.7355396745552,550.298306293349,369.4422178634268,511.1426015890611,517.5969153901387,582.1704919725889
2025-12-12 18:00:02.440013,Right,391.4793277067074,453.39427129301475,449.5343994369614,450.44239483762067,426.1281680488901,412.4618477167969,421.42166045564227,486.1305867813353
2025-12-12 18:00:02.442991,Right,456.08973334819893,536.5512663358822,535.3002550962847,530.0062758308777,345.53705000973423,491.6492343659047,499.4109118328779,568.1959945625858
2025-12-12 18:00:02.446969,Right,612.2989554619417,708.0360734203132,706.3893131339573,699.6972836899804,315.03021312583587,656.4516468569054,663.8161818326334,738.4784787578392
2025-12-12 18:00:02.450016,Right,670.0484049923252,765.9143348053913,761.1094408961362,758.9372384029557,463.0276038298907,709.222908330441,719.298139310733,800.2190381009132
2025-12-12 18:00:02.454014,Right,621.4971372964792,717.5637004004675,711.280129587627,710.4234291799366,582.5323111742036,658.5892265508301,669.9690471741487,754.3169420732302
2025-12-12 18:00:02.458037,Right,605.3578067470808,708.2491120697814,702.7008557049558,698.2404298331239,484.00268805850646,648.5545663073426,657.0193459133152,738.369839714549
2025-12-12 18:00:02.462046,Right,652.4539941662224,756.0006608560216,749.7550653716316,744.8884723468218,354.0531042259536,694.6321656665532,700.6734605190577,776.8641664835159
2025-12-12 18:00:02.466070,Right,684.0637563971104,783.0650629050797,774.6072489179787,773.5943197051529,445.60665225354023,715.7450349297724,724.0982591597713,803.7892930711387
2025-12-12 18:00:02.470091,Right,704.1555659361766,813.0807826169184,805.0389344159048,803.0424706872436,635.6408836124465,735.093275672989,746.8722466632025,840.4586858521216
2025-12-12 18:00:02.475044,Right,770.041271469323,900.8830774609814,896.2583644199767,886.7857910878374,639.1034066119464,814.0020460001542,825.4735294551938,929.2125354567543
2025-12-12 18:00:02.478052,Right,817.7612978140824,951.5490246416302,948.4900116517674,935.6165135687916,493.8054157154984,865.4630293165101,875.2268246170715,973.0916404585587
2025-12-12 18:00:02.482163,Right,752.262969571515,863.9336732419906,858.9814355112612,850.774955189554,468.1121955506969,785.6517282201676,796.8348793816986,881.7267290594755
2025-12-12 18:00:02.486157,Right,676.2881131931208,779.4767561308108,773.7921055578627,767.668328032596,595.5180861083791,703.3193411557004,717.0269437188981,802.0552062630886
2025-12-12 18:00:02.490201,Right,768.6329385550926,899.5618567457423,896.7562456818996,883.7967606355669,663.7225867123343,814.7303514373489,827.2279098858126,928.6262642805232
2025-12-12 18:00:02.494152,Right,944.8582315226085,1103.1518435068429,1102.482220056001,1083.973700390663,609.766924079333,1010.761458009365,1019.8609223132953,1134.211810010136
2025-12-12 18:00:02.499143,Right,933.9325478333049,1078.770183517714,1076.032975303242,1062.6372405736474,579.2595257764333,992.7588668118697,1001.6610887668794,1109.9553839418804
2025-12-12 18:00:02.503161,Right,733.0092596401228,846.2291988462675,840.7645142468391,835.2645743517205,614.0314992161002,774.4278106534621,785.9399025611347,879.150091461488
2025-12-12 18:00:02.506257,Right,664.4647167116636,778.9792207948631,774.2908793084789,767.9124899029266,609.1675184855121,711.2175302087562,723.1661373672541,813.8717922826763
2025-12-12 18:00:02.509209,Right,864.9651749667246,1012.2087715612724,1009.5131275787717,997.4175621815957,577.3250015108497,933.9284480506321,943.9059742777608,1048.5279759945115
2025-12-12 18:00:02.514147,Right,1038.5575232526753,1200.5334920170717,1197.1254396970617,1185.365732610575,635.2048574547516,1113.1368700034218,1122.9669819533592,1239.3023721731734
2025-12-12 18:00:02.518167,Right,917.2487263077637,1056.878881228622,1051.8301129729953,1045.0120274663204,720.0322598833591,975.4218873437494,986.8819489139132,1097.084669038537
2025-12-12 18:00:02.522213,Right,687.0961326353718,802.8921511841472,799.1016082413262,792.5469293440692,650.5788542430382,734.6819541285513,745.2322042615851,839.8258080648957
2025-12-12 18:00:02.526182,Right,687.1613653816748,808.7750802859664,807.6457070130855,797.3625161488308,495.08251651586033,743.7168675680878,751.0672835146543,841.8336816919036
2025-12-12 18:00:02.530213,Right,889.2951272838982,1032.00354038761,1030.9032618748024,1021.1939459175337,522.1329485166352,957.337149722618,964.4101606941549,1068.9364087349968
2025-12-12 18:00:02.533276,Right,983.7491490530083,1134.0027640452608,1131.1632473446662,1125.8401281245751,723.0855545932427,1051.591063345084,1061.7446195316734,1179.6676677004434
2025-12-12 18:00:02.537223,Right,867.4261513968231,1007.6970189199783,1005.1850956012495,1000.0702393524116,767.0405634990893,930.6975702791242,941.1569561420474,1053.548489482724
2025-12-12 18:00:02.542279,Right,741.9545638458803,868.9416768875672,868.2738706424134,859.2481123426696,555.6402313709259,804.0570838984568,809.8407294757199,903.8034143262776
2025-12-12 18:00:02.546248,Right,760.1846373068402,881.5648739574244,880.5519587706076,871.1343248059275,425.820605369634,820.8587888292968,822.8081756457686,909.4292444721796
2025-12-12 18:00:02.550270,Right,845.1453763599275,973.1293358772527,970.0067087856587,963.9076866841642,594.0963651214261,904.939240943524,907.753859551507,1008.1092801194172
2025-12-12 18:00:02.554272,Right,877.9431345312623,1020.6172687503276,1017.5151311154477,1011.0601619946538,780.0850181995193,944.600849592709,948.6195727396989,1065.0708284140565
2025-12-12 18:00:02.557276,Right,848.2156199599849,995.7723439490655,994.7510653850622,984.2906974349171,675.7613860523561,923.2509075775743,924.4214727217332,1036.6260107380804
2025-12-12 18:00:02.561280,Right,789.2947048860369,919.5259112103377,918.5651130441111,908.3597421726445,459.0479910655413,858.8586597759277,856.1587396296673,948.7310449227225
2025-12-12 18:00:02.565283,Right,735.7914808031637,846.2304125415394,842.9989799930481,837.0238053173525,476.1078926268965,791.3536977410549,788.2255209090654,872.1040076550562
2025-12-12 18:00:02.570293,Right,752.5082280576462,871.5609690899728,868.2230271016015,860.6266304698074,664.6938773308648,809.0819684187882,807.1377188707702,904.082120603649
2025-12-12 18:00:02.574322,Right,850.3830577344634,997.3937838383717,997.2579583227634,981.0812717553927,700.3662615570938,924.2292032585246,921.3668676497182,1033.0787614739966
2025-12-12 18:00:02.578325,Right,897.2603604962351,1048.3077737548156,1050.1395201352425,1030.1347182380268,553.2393180443905,976.248286215472,972.1778110828018,1077.9848497753264
2025-12-12 18:00:02.582347,Right,785.1276311746333,906.065932564321,906.585293739452,892.214037489146,483.52156829601154,846.0523270667763,843.7569717476144,929.8193092067959
2025-12-12 18:00:02.585357,Right,647.6346324678743,748.1883850597078,748.2666451914702,738.0709604980657,565.0572930299677,695.5506277184468,695.3925858499715,773.311330567929
2025-12-12 18:00:02.589363,Right,695.9531459427672,815.820041220868,818.91373881849,803.9363706259755,611.3226497095311,757.4382104892284,755.607125586248,844.9502676486736
2025-12-12 18:00:02.593370,Right,861.4346131173661,1007.2794115087017,1012.9246513927355,993.1795535126003,554.1101441568462,940.6514592323219,935.8610138612567,1037.362972444971
2025-12-12 18:00:02.598374,Right,865.4073182507418,1001.0782569886651,1005.431921041687,990.0624849433079,528.1836180188693,937.7142916906159,933.9456699378788,1030.8140905145556
2025-12-12 18:00:02.602398,Right,669.9510520979529,775.5253699588357,777.9820067526307,769.1794905840652,564.4146558820503,723.9855597811984,723.720970598748,805.9423886409495
2025-12-12 18:00:02.606415,Right,562.6563289564801,664.6441361516481,668.5139797317097,658.0913757256931,539.2495338058798,618.520926716621,618.5115209728247,694.7799811370205
2025-12-12 18:00:02.610419,Right,694.9608656244818,821.1508449919056,827.5624395015184,811.5490104648052,462.534706359962,769.2574804197066,766.410714847967,850.0849420989398
2025-12-12 18:00:02.613440,Right,832.9139146301895,970.0155774204759,976.455118583981,960.9643488760339,487.63479870255105,912.6075023353333,909.1257824595086,1000.6032067259075
2025-12-12 18:00:02.617458,Right,742.1360553943086,861.9649401985807,867.693133489578,856.5796427689493,588.265042723855,809.0240751669044,807.795359261916,896.0925433412194
2025-12-12 18:00:02.621510,Right,558.4770857688272,661.3176363141974,669.0400928936433,657.0673985489411,556.6371403827798,617.2200238874648,616.5754329564516,694.6367327669868
2025-12-12 18:00:02.625479,Right,539.353607179597,644.8496719771065,655.4278384785866,638.8309306913288,392.57562512671575,602.9887514535803,600.450462807552,673.1648686088156
2025-12-12 18:00:02.630472,Right,650.9936614240287,763.4911986896768,773.9130183174275,757.3348103730241,351.6882011020789,716.7468465015991,714.2156711533898,790.8292675566627
2025-12-12 18:00:02.634550,Right,674.7969112647697,783.9432429763256,792.6874393350445,779.3992386864265,499.300565785612,733.7202425524592,733.9496250780066,816.0807313857367
2025-12-12 18:00:02.638589,Right,585.5068226356525,689.5252311823424,699.2646429236047,684.0158969372278,568.02198358858,641.9582032266771,642.8312948024832,722.6233384810621
2025-12-12 18:00:02.641544,Right,542.5184840711299,646.8846721849404,659.273383257445,638.0664070668863,418.64264997909777,604.4360661663814,602.2688527602004,672.2720049571944
2025-12-12 18:00:02.645542,Right,582.3015210229205,683.777011054568,695.9830299713649,674.477495278581,294.39219329005573,643.5682912582997,639.8784474995919,702.430842963513
2025-12-12 18:00:02.649547,Right,588.6771442217287,682.1441869424889,691.7044568402926,675.8688859583344,395.21455235162284,640.501138131367,639.6315903811483,703.7328239775961
2025-12-12 18:00:02.653549,Right,537.1348907225765,630.4831134267151,639.6323519644793,625.4552889541956,524.8602237767773,586.6863080714829,588.2923363766167,657.5961281048367
2025-12-12 18:00:02.658547,Right,520.67226539494,622.1825078114634,633.7103495895863,614.9631583768642,443.4409096589079,578.6151231393451,578.5960325197084,646.505417221575
2025-12-12 18:00:02.662585,Right,539.4405447029276,638.4256326511968,650.7420609227847,630.372156871832,287.5325762552675,598.3773759515025,596.3708036930766,655.0238751050783
2025-12-12 18:00:02.666587,Right,497.5162131107645,579.599546925514,590.0376630459214,574.0987434749259,309.4872278373223,544.1255833876785,543.7597635281272,594.2641152957221
2025-12-12 18:00:02.669607,Right,415.7013925879728,489.90028657217044,499.8732118140906,485.6945323877735,428.0341782976175,456.5171495875111,458.25246338150464,508.01667774573434
2025-12-12 18:00:02.673604,Right,419.3077644193545,505.31574109755456,517.6720649132039,498.7327858969802,400.63171179336496,471.1632289243862,471.3467028369196,523.3969206350157
2025-12-12 18:00:02.677618,Right,493.6377694507828,587.4886602631304,601.2089441030985,579.5612409687601,271.7492991129402,553.4969587513478,551.4752182422671,601.6609720928827
2025-12-12 18:00:02.681679,Right,481.1137616648339,560.6209927075543,572.8573875399306,555.4353615476284,268.678491920582,530.2227086920757,530.0973764450755,574.796278964961
2025-12-12 18:00:02.685634,Right,362.6625571155455,425.35369310260285,436.87432564166375,422.1897570019355,366.2098425439326,399.0058100412134,402.5874293495435,443.84160194394644
2025-12-12 18:00:02.690657,Right,309.5971594413277,376.56877898657694,390.3242534453748,370.56504442403093,344.30913066258654,350.56705262931064,354.54036413889844,395.84893800714053
2025-12-12 18:00:02.693673,Right,386.23439768643584,465.468327066279,480.93415348313283,456.28880981111433,216.12503813637886,437.37390300177503,439.6634156528162,481.04428788938094
2025-12-12 18:00:02.697728,Right,433.428175284178,508.11416684510186,521.9829420294845,501.04533554799855,207.38852264010347,480.35712319018785,483.56103490735404,523.347247301368
2025-12-12 18:00:02.701681,Right,349.93325081747025,410.410101489746,422.45354308153037,407.7463902249001,323.89826196222566,386.393123085727,392.059931781725,430.2695845925482
2025-12-12 18:00:02.705722,Right,263.74260623787995,323.03968009876553,336.33828855492175,321.10252328263596,328.5895000100136,302.413213416934,307.2080009835772,344.2221274453914
2025-12-12 18:00:02.709711,Right,289.4276409992017,355.9076244783355,371.0480018806411,352.37919454835355,182.68933440477122,336.33429447212256,337.5562165848678,372.02520987787284
2025-12-12 18:00:02.713767,Right,326.5900468657492,387.5311745509971,401.6256698173238,385.14404587692115,126.23633476131363,368.66692661866546,369.12084573321044,400.2006394810742
2025-12-12 18:00:02.718736,Right,263.23385156551376,310.32331498980056,322.74941301869694,310.6694401791319,238.0919329894241,293.14867997088004,296.33599970687646,325.8112809800077
2025-12-12 18:00:02.721756,Right,188.76791291579138,235.67233437404502,249.72002218686976,235.58093964064028,289.0851929395576,219.97282837633975,224.2626359506976,253.25355572695844
2025-12-12 18:00:02.724758,Right,216.35021495982073,273.23568464792334,290.24566469108686,270.7049986530328,162.89893193123862,258.70466868637595,260.9802342541516,286.5796522893943
2025-12-12 18:00:02.729769,Right,261.178027864662,313.94565060408786,330.63900675449986,312.0511389593594,67.40455410798313,301.9066268604947,303.6542325722985,322.7785871278029
2025-12-12 18:00:02.734916,Right,203.42996392317582,238.932823556941,253.02428035333287,239.85954527615104,150.25800018635346,229.8506945706904,234.22395266965032,249.54035626503173
2025-12-12 18:00:02.738789,Right,125.6965372414561,157.50550398242194,171.35888441838324,157.76380071300082,233.61666825436987,148.52939066884574,153.93470606859773,171.4081275620265
2025-12-12 18:00:02.741804,Right,161.68714021588676,206.79145257140044,222.46802884456702,203.01564264157787,149.99460024700966,195.3265903381398,197.81312209460884,218.35476431506686
2025-12-12 18:00:02.745829,Right,231.17919440375408,278.27389132929966,293.3193496542517,273.36069526860956,44.59580075071426,266.5726544855861,266.9523289287463,284.97499425476417
2025-12-12 18:00:02.749826,Right,173.42919598764274,201.73800755420234,213.57646175043192,199.9063833411783,90.54173374641687,193.8241530942032,196.3822271504905,207.74234342132695
2025-12-12 18:00:02.752837,Right,51.742962319171056,68.35143331589643,79.09967548004352,67.8141023410717,166.97448217705823,63.209111913340166,68.16632594447583,75.62775082024746
2025-12-12 18:00:02.757842,Right,56.95672587136505,85.69557230744977,98.55057526251767,82.07459743390791,101.47579433757346,78.14269295806298,81.53605428733863,90.43009477527812
2025-12-12 18:00:02.761850,Right,163.47780149418395,204.58728598308517,218.58479030476883,198.649780962558,3.025568394223228,193.17299000517232,194.23977235105122,205.55904763774015
2025-12-12 18:00:02.765878,Right,162.49194744537817,193.68868308636593,206.38000271224882,189.57379330613185,48.111877215327695,183.23922572296578,185.67368610057747,195.83734829333844
2025-12-12 18:00:02.769884,Right,26.581552646006458,41.43170474743238,54.06765624525724,39.32570833771024,131.8108979134122,36.37794943654444,41.24099918321008,47.19577932159882
2025-12-12 18:00:02.773891,Right,-41.022786932298914,-25.582745268940926,-10.321654439729173,-28.77595147723332,61.43979336612392,-26.778404115641024,-23.154376080667134,-20.695370860339608
2025-12-12 18:00:02.778910,Right,40.23456349334447,63.90877114434261,80.52126551861875,59.98707577609457,-64.9018243890605,62.29009340686025,63.21855421207147,65.35936174588278
2025-12-12 18:00:02.781922,Right,98.22556959366193,116.65458282997133,131.2530956218252,115.55522448616102,-26.74388916551834,113.76135962636909,115.64355409989366,119.64321917790221
2025-12-12 18:00:02.785923,Right,17.83353956468636,23.176443264936097,36.11233783699572,24.883775274036452,98.04938115482219,21.74696239444893,26.625305809720885,31.12647930358071
2025-12-12 18:00:02.789933,Right,-73.11287492216798,-70.27135402255226,-55.974772955232766,-69.59003396733897,58.05240525939735,-68.39553365350002,-63.803249507269356,-62.457169323868584
2025-12-12 18:00:02.793944,Right,-51.74034885596484,-44.49486544850515,-29.13400918309344,-45.54039862245554,-106.90042137214914,-40.2306179717998,-38.3351216596202,-41.148071309842635
2025-12-12 18:00:02.797964,Right,-6.5787048055790365,-3.0479495094623417,9.944608029152732,-2.3427758106263354,-122.51426026283298,1.9271948726964183,3.987090625159908,1.2109425648814067
2025-12-12 18:00:02.801974,Right,-47.457059552602004,-50.960574496828485,-40.78088167204987,-47.64874583983328,24.32938043694594,-45.84540884598391,-41.09604638349265,-39.55240272823721
2025-12-12 18:00:02.805980,Right,-106.02849655592581,-106.54790259414585,-95.79013709985884,-104.12167913041776,55.10609517572448,-100.76160128170159,-96.07558873388916,-92.71489158977056
2025-12-12 18:00:02.809004,Right,-88.95752533257473,-84.78861957188928,-72.13621890300419,-84.46594634180656,-99.8407605951652,-77.61407162999967,-75.90106429593288,-77.63572173268767
2025-12-12 18:00:02.813036,Right,-60.52165738280746,-66.03022676249384,-54.03109780329396,-64.36119824802154,-177.77655971507193,-57.87978276371723,-56.71447852876736,-64.97602861610358
2025-12-12 18:00:02.818015,Right,-101.84237931796815,-121.2190950945078,-111.0155198428838,-116.69171665518661,-59.1448962855211,-114.51096775088808,-110.77415514952736,-118.84179524934734
2025-12-12 18:00:02.822020,Right,-139.7329893578135,-155.4540706986445,-144.6778395132278,-151.87025351365446,25.117024065577425,-152.64696224726504,-148.81235868681688,-151.6536862278299
2025-12-12 18:00:02.826045,Right,-94.51672489754856,-97.1459762644663,-84.95155456566135,-97.2243987924885,-80.36841438316333,-96.70147892448585,-97.04753582901321,-99.44499758075108
2025-12-12 18:00:02.830072,Right,-57.273742737219436,-64.4617618250777,-53.900661350024166,-65.25198323192308,-185.1043538107333,-61.02472801547265,-64.48712788085686,-74.76032952452078
2025-12-12 18:00:02.833071,Right,-127.00543723229202,-153.75397839266225,-146.49483341761515,-152.22620057952008,-116.46573417678883,-144.557038206578,-147.106361783779,-165.5343361183768
2025-12-12 18:00:02.837085,Right,-202.32291238600737,-233.48775260504044,-226.50439733380335,-231.7713369068515,-27.391394467878854,-222.01267903053667,-224.14688687416492,-243.49973022207269
2025-12-12 18:00:02.841100,Right,-148.75112670594535,-164.8276471461868,-155.54543248814298,-165.22147421492264,-92.87045214835962,-154.83562032836198,-160.7444184821361,-177.58006924136134
2025-12-12 18:00:02.845106,Right,-58.77451640961226,-70.91588356033026,-61.72351500054356,-70.1219438797707,-185.89497403114365,-59.311956244840985,-69.798702610904,-88.94928971896297
2025-12-12 18:00:02.850119,Right,-107.43809377805155,-138.9476544205536,-132.92259423341602,-132.9360268831224,-134.1831705388904,-119.21939361016848,-131.5361308507563,-157.8798578989663
2025-12-12 18:00:02.854129,Right,-236.18606628010457,-282.4733325978741,-278.2827473945945,-273.74272671002836,-51.921474521644996,-254.15766954220453,-268.3248508363831,-299.44070650099457
2025-12-12 18:00:02.857143,Right,-241.52215434286336,-278.92073805303517,-274.17787374019827,-272.8268483084612,-114.33612182651996,-248.59279913362116,-267.5793754373299,-297.47426385960716
2025-12-12 18:00:02.861145,Right,-130.18417523537937,-156.89202369575105,-153.23784203451942,-153.09618987822978,-213.93858474533045,-129.19086495247393,-152.41417489470405,-178.9556879645388
2025-12-12 18:00:02.865153,Right,-108.90275653368553,-145.81882164111084,-145.90039024960424,-139.66374498904543,-163.24046294891605,-118.2605070857644,-141.09307770090925,-166.81404488175576
2025-12-12 18:00:02.871189,Right,-222.16052527179454,-275.14183772205797,-277.18908313741485,-265.90523416348515,-61.65787968751829,-243.5773078523871,-264.56266577219503,-292.3229589133589
2025-12-12 18:00:02.874180,Right,-282.7192293702974,-334.7557042227272,-335.11962122511613,-325.8250916824618,-117.80303383727733,-299.46813133770775,-322.1514417279104,-352.4657584301458
2025-12-12 18:00:02.878185,Right,-209.693987343584,-253.41737825648306,-252.59865235124744,-244.90323872440786,-249.11425747080648,-216.72844999602967,-242.56892718696326,-274.1808830549853
2025-12-12 18:00:02.882229,Right,-160.17164702148875,-209.15093426704698,-210.33346730204357,-197.26104323328764,-222.00129566542455,-170.47646163007448,-195.82593104803527,-227.4481158002891
2025-12-12 18:00:02.885219,Right,-233.23013347643428,-294.3099627513584,-297.2933655018278,-278.5543456191954,-88.6078646204187,-251.4731614254997,-274.10312306029664,-306.0461114779173
2025-12-12 18:00:02.889258,Right,-298.97564595218864,-360.04693606408546,-361.95798795617884,-344.4763144120807,-101.61924898916186,-313.699199186638,-336.5691399362695,-370.9143722033332
2025-12-12 18:00:02.893235,Right,-248.70311354550358,-303.2717913330125,-304.7035070732527,-289.4390789507015,-248.54452934864094,-256.8088668536366,-281.9579890543682,-319.9523627438757
2025-12-12 18:00:02.897321,Right,-187.09885384011432,-246.42242135605193,-251.36574685765663,-231.39847626345,-267.170776194107,-202.39949681292637,-226.49761002698506,-265.7510456808959
2025-12-12 18:00:02.901273,Right,-223.66298569097125,-293.2046652373101,-302.5679027373262,-276.05419943344896,-124.6085439556191,-251.75796232369612,-272.02739780928823,-308.56310026571737
2025-12-12 18:00:02.905340,Right,-273.63777682807995,-340.6455360875989,-351.16130942016025,-324.6542337120918,-79.75634618027834,-300.472359966574,-320.22329158635694,-353.983192935877
2025-12-12 18:00:02.910290,Right,-236.91847200895427,-294.582160521677,-305.0676752633299,-280.9658747254871,-211.56561628614145,-253.9523785325582,-277.2479373430833,-312.7382136535598
2025-12-12 18:00:02.913295,Right,-197.14586848919862,-258.9260415197641,-272.29527744516963,-244.26287854951806,-279.9437879060133,-216.5980527117208,-241.5326082596439,-281.46404089362477
2025-12-12 18:00:02.917306,Right,-256.11312964427634,-330.594722756563,-347.9982260087854,-313.36499409386306,-169.9546328826982,-287.4739187331288,-309.92583304143045,-351.0563035644591
2025-12-12 18:00:02.921327,Right,-325.45206033258,-398.05112485412974,-416.22650744984276,-382.2177182273299,-95.94714249533718,-357.3481735381065,-377.6705083831039,-415.5558315204107
2025-12-12 18:00:02.925333,Right,-284.24931922907126,-342.29593268805183,-359.1305127306259,-330.71859232801944,-196.95165575350984,-306.1118772964692,-326.57566403530654,-362.0476025036187
2025-12-12 18:00:02.929340,Right,-211.9051505853713,-268.60176277987193,-286.53663367335685,-257.9940677367558,-282.7705444495077,-235.05720241565723,-253.92380669128033,-291.26280066143954
2025-12-12 18:00:02.933357,Right,-247.9349825885729,-319.99954693071777,-341.02257164171897,-306.80487415910466,-196.17171336273896,-285.9277504196798,-300.22717777555226,-340.5018272792222
2025-12-12 18:00:02.938390,Right,-329.83120816823794,-408.12196745572146,-429.7421293372754,-394.7421015439322,-105.51962086153799,-373.70572492686915,-385.63077081769006,-425.8803460932686
2025-12-12 18:00:02.941372,Right,-304.5261249874893,-370.8555961594102,-390.4503400780959,-361.0949444840662,-184.10589582432294,-338.78598629962653,-352.97467412933474,-391.28829408460297
2025-12-12 18:00:02.944387,Right,-215.61866788830957,-274.89651698525995,-294.11943707900355,-267.1614204599755,-284.7425951026089,-245.31479163380573,-261.1494167452911,-298.59276827808935
2025-12-12 18:00:02.949405,Right,-229.6461054623942,-298.99942393857054,-319.894397414173,-289.39210284414,-220.02431310046813,-268.5829170127399,-281.38199782388983,-318.8044468049775
2025-12-12 18:00:02.953410,Right,-329.8473891870817,-405.9441707698279,-426.1651101002353,-395.052203112049,-117.42526711683604,-372.6665273896069,-381.64767948928056,-418.3752164951875
2025-12-12 18:00:02.957453,Right,-342.40179916942725,-407.6419251864427,-424.06651795841753,-398.4530709742685,-178.82416195745463,-373.16365946788574,-381.9903641080018,-418.4930235175998
2025-12-12 18:00:02.961434,Right,-251.09232343552867,-306.55019598366925,-320.8497210169444,-297.9325674129068,-296.3667244827084,-272.75178980169585,-282.3997794772149,-320.77231585403206
2025-12-12 18:00:02.966449,Right,-223.20621502492577,-286.835829407908,-302.72226680919994,-275.49959664652124,-250.47064738464542,-253.3404662044486,-260.73947722971207,-301.3543933031033
2025-12-12 18:00:02.969468,Right,-302.325619114039,-376.1458195789601,-393.24268521822523,-363.5971395515371,-123.08479865448317,-342.55198434880003,-347.2251949478523,-387.96517722896533
2025-12-12 18:00:02.972473,Right,-337.6358357341378,-405.20011369895656,-420.48177848313935,-396.0411047046655,-150.4203703176463,-372.4092985870084,-378.3444450472598,-418.2786372435512
2025-12-12 18:00:02.977569,Right,-272.32518036151305,-330.45434652036056,-344.11227254674304,-324.410875977308,-285.2963308916951,-298.21902264555683,-307.0095354531659,-347.85066364187514
2025-12-12 18:00:02.981528,Right,-245.9698151340126,-310.5084402639768,-325.20758906163974,-302.7632590616704,-284.59649726745556,-276.5461718319566,-284.3414555253112,-326.8368650259217
2025-12-12 18:00:02.985549,Right,-324.1583502194262,-398.94571634358726,-414.1610584440059,-388.479653911083,-160.03530581714585,-362.39043974730885,-366.5216294170823,-408.2791022339952
2025-12-12 18:00:02.989544,Right,-369.8616553537431,-437.9265149743296,-450.3279943643138,-428.9347848983598,-153.3842027587234,-401.3340797438286,-404.52200468286173,-443.5300547920633
2025-12-12 18:00:02.994531,Right,-300.75001941772643,-355.2814089464373,-364.6464496040717,-349.4007960005547,-284.4956747624674,-321.17629841604503,-325.6642092958209,-363.59555612457916
2025-12-12 18:00:02.997542,Right,-248.03909092320828,-305.49414056917885,-315.0812893137918,-299.1806155772647,-315.8627591524855,-273.0870561351185,-275.8335585700697,-315.31740463204915
2025-12-12 18:00:03.000554,Right,-313.0765126320184,-383.20072381279897,-393.789873567468,-374.7094926335267,-196.93442563927965,-350.78958809992764,-348.85796970670344,-389.4744902322418
2025-12-12 18:00:03.005556,Right,-373.704852038587,-441.6036016335129,-450.3180479792063,-434.3162067491794,-155.89999886759324,-410.0603646147065,-406.3055233352352,-446.14228264434496
2025-12-12 18:00:03.009605,Right,-308.6872040836606,-362.51278818037827,-368.5807128372253,-358.4865447347984,-270.1650436120108,-333.4314334486844,-331.9506791825406,-371.3254126512911
2025-12-12 18:00:03.013586,Right,-228.60554885229794,-281.936354884936,-288.4773600511835,-277.98496183153475,-323.31958118407056,-253.95322386920452,-253.64763509534532,-294.07339639303973
2025-12-12 18:00:03.017602,Right,-278.6167505023768,-345.97048823471414,-354.40064822504064,-339.8573454077705,-215.5347733591916,-316.3923771822592,-314.2736510837567,-355.1463026420097
2025-12-12 18:00:03.022650,Right,-371.28150942205684,-441.6685700326925,-449.2018500310951,-436.7724013608531,-153.5180698717013,-410.93219722103095,-408.4702193288249,-447.88417667662725
2025-12-12 18:00:03.025623,Right,-344.4796536185313,-401.28460735239787,-406.197434943635,-400.62106512417085,-260.70601298537804,-372.3080426338711,-372.6018716567196,-410.29583394515794
2025-12-12 18:00:03.028633,Right,-254.9648545574746,-305.0091272009304,-309.8663000255474,-305.43758309126133,-340.45328281179536,-278.40917945909314,-279.5834361888701,-316.41720352880657
2025-12-12 18:00:03.033647,Right,-268.2617915357696,-327.2223603662569,-334.1125555806211,-324.6029956196435,-241.91629346384434,-300.66212114243535,-298.2821808346198,-334.0095242423122
2025-12-12 18:00:03.037656,Right,-354.0292688156478,-416.94778196921106,-423.64945584570523,-412.858725580154,-145.74087009287905,-389.53611543844454,-383.8999388018274,-417.99455654690973
2025-12-12 18:00:03.041676,Right,-349.17410115274834,-401.0007188843447,-405.2318144129822,-398.8853055066429,-229.68521883920766,-374.95993130048737,-369.8441016806755,-403.396048545721
2025-12-12 18:00:03.045685,Right,-262.1746399507974,-307.01739036134677,-310.7948430965189,-305.25487327371957,-334.51694580499316,-283.91409121936886,-279.4013867248432,-313.5473582909908
2025-12-12 18:00:03.049696,Right,-252.25913785136072,-305.5945771554834,-311.4143580819946,-300.4288925693254,-257.63331093260786,-283.9175380941015,-276.8628098643967,-310.2621168688638
2025-12-12 18:00:03.053709,Right,-331.8174427643535,-390.92973959457595,-396.8090195689583,-383.6078748203581,-132.04290849604877,-368.8214763648575,-359.81701740575954,-390.6113737312844
2025-12-12 18:00:03.058766,Right,-348.7059560730122,-397.77199627342634,-400.55453307391144,-392.5108542215312,-182.8503095501801,-375.5043867532513,-368.79559210292064,-398.41843203280587
2025-12-12 18:00:03.061801,Right,-271.79865031602094,-311.9256271184422,-312.8456067478983,-308.6567669197684,-309.85208769346355,-290.4615789569798,-286.34723818692146,-317.95154804282356
2025-12-12 18:00:03.065796,Right,-241.5938995963661,-288.5608984407736,-290.7542941838037,-284.0297982430784,-271.8412040080875,-268.2176695858361,-261.86601109226467,-295.1005285807187
2025-12-12 18:00:03.069853,Right,-299.90138883923646,-353.70977305655833,-356.4574722184334,-348.4978084383765,-131.89926677854965,-335.32165823102696,-324.59813593979925,-355.78078822616953
2025-12-12 18:00:03.073830,Right,-315.6665471539018,-360.15638362045866,-360.7392350251321,-357.99796577042434,-138.9349690587842,-345.09987085097237,-333.4153847428388,-361.48582546098623
2025-12-12 18:00:03.076850,Right,-244.82227619044716,-279.0939985852456,-278.7679352334235,-279.58911099494435,-268.6392701731529,-266.81992824049667,-256.21092054626206,-284.58214692014735
2025-12-12 18:00:03.080888,Right,-222.78921916132094,-264.7662645743694,-267.4758021638263,-263.3503786016954,-274.7875807451783,-252.4991072921548,-240.0972574861371,-271.12611360824667
2025-12-12 18:00:03.084851,Right,-304.1485950455535,-357.53706812125165,-363.4034535988467,-353.26036607229616,-147.37487729312852,-344.0736675495282,-328.263002712396,-359.56073244742583
2025-12-12 18:00:03.088886,Right,-343.07006547536,-388.6892154995585,-394.1623886002926,-385.73101798736025,-123.13738935155561,-376.29833940253593,-360.5740924659185,-389.18686191167217
2025-12-12 18:00:03.093880,Right,-255.42865718947724,-284.73412687680684,-289.1147143797716,-284.9549389168387,-238.10602265957277,-275.1250297600636,-262.3693703795434,-289.55291993066203
2025-12-12 18:00:03.097918,Right,-181.05529529060004,-211.5154019149486,-217.86821092141327,-211.7796428120928,-263.52250659797573,-202.25465602840995,-190.30823863000842,-219.12767750374041
2025-12-12 18:00:03.101895,Right,-236.06215241138125,-280.08549339778256,-289.06779002503026,-279.00995803577825,-139.95383475843119,-267.9703974655131,-254.71055080747465,-285.1141565981088
2025-12-12 18:00:03.104923,Right,-304.9220747917425,-348.5720820488641,-356.7503134752624,-349.60734512854833,-90.457754019415,-334.6211692309589,-322.67147063161246,-352.17996704706457
2025-12-12 18:00:03.108874,Right,-255.57519836217398,-285.0172548092669,-290.80017813981976,-289.7248266210081,-200.9169119631988,-272.66941379674245,-264.51711852429435,-292.43863794137724
2025-12-12 18:00:03.112926,Right,-180.83120501530357,-207.22006495960522,-213.41369952319656,-211.4141023909906,-258.12835671234643,-196.95780513912905,-189.51512615033425,-217.2873170140665
2025-12-12 18:00:03.116955,Right,-220.7473358361749,-258.547939229873,-266.8073329415638,-259.0809171019355,-150.72235725063365,-248.0971896853298,-237.25383607723052,-265.21331250458024
2025-12-12 18:00:03.121902,Right,-298.58405716123525,-338.7290933900513,-346.29212008055765,-338.86490685486933,-78.86644822027301,-327.85605473502073,-315.21266888745595,-341.9701815242879
2025-12-12 18:00:03.126975,Right,-261.60870141588384,-288.9897039264906,-293.8341369346017,-292.5816143908305,-176.7374465506873,-280.1933663559612,-269.9334746609675,-294.74338763859123
2025-12-12 18:00:03.130004,Right,-163.67981169256382,-185.22434202884324,-189.90524025505874,-190.23169617907843,-256.3463895964087,-179.69666582590435,-171.21982876828406,-194.3554077569861
2025-12-12 18:00:03.132951,Right,-165.9152878698078,-196.99320994666778,-203.84354452311527,-199.62878774438286,-157.94601701234933,-193.1898857668275,-182.61812949122395,-203.71010783384554
2025-12-12 18:00:03.138019,Right,-243.01769832347054,-278.701422390237,-285.37672503327485,-279.84686902852263,-53.358290459786076,-274.93739885202376,-262.5186550725484,-281.14883985498454
2025-12-12 18:00:03.141977,Right,-237.6777998059988,-262.84209526795894,-266.59202392876614,-265.01739305758383,-129.39613707811804,-258.5367502445006,-248.28186149388785,-265.91685838333797
2025-12-12 18:00:03.145041,Right,-154.27072080929065,-172.64506368886214,-175.38888402440352,-174.141569144791,-237.98088552773697,-167.06376992264995,-159.3015948596876,-177.96007957332768
2025-12-12 18:00:03.148984,Right,-144.37257559777936,-171.22805593698286,-176.08089695457602,-169.16439787478885,-168.8647705972544,-163.66016347915865,-154.39180027588736,-173.5943010385381
2025-12-12 18:00:03.153054,Right,-218.36188452638453,-250.8383670283365,-256.59685056027956,-247.46874987654155,-40.62162274355069,-242.52967121242546,-230.63774455559906,-248.33810684247874
2025-12-12 18:00:03.157068,Right,-227.5080909774406,-249.41729943361133,-253.15304910461418,-249.1877086632885,-81.48540025250986,-243.02482264640275,-231.69228044105694,-248.06679454358527
2025-12-12 18:00:03.161082,Right,-147.37072230922058,-160.08577555743977,-162.94186647358583,-162.1095989543246,-206.8653699553688,-156.31437607033877,-146.32393704465358,-163.74783676111838
2025-12-12 18:00:03.165084,Right,-124.34479231463047,-145.18662269524066,-150.54863082582597,-144.92635262594558,-178.2355833625188,-142.0046628024429,-130.06201093050186,-149.07869301305618
2025-12-12 18:00:03.170118,Right,-196.94675314577762,-227.11172717501177,-234.44916308904067,-224.36357825470623,-45.34154025261523,-223.193097713287,-208.61627930722898,-226.93273750093067
2025-12-12 18:00:03.173120,Right,-220.5496211203863,-242.54553468868835,-248.30204695672728,-241.14178890670883,-49.495106714894064,-239.14032072236296,-226.06057271239115,-242.42811464425176
2025-12-12 18:00:03.177121,Right,-140.9555173284025,-151.04566422081552,-154.83266250393353,-151.06528924807208,-172.84067680494627,-149.15368064231006,-139.51524780597538,-155.66497806593543
2025-12-12 18:00:03.181137,Right,-100.77645040326752,-116.14918812230462,-120.7903105886071,-113.38655165745877,-175.03305076737888,-114.46319590811618,-104.38447458075825,-121.66410579730291
2025-12-12 18:00:03.185144,Right,-172.0672837368329,-198.9196984724258,-204.81785773433512,-192.92121286300244,-44.05085402861005,-196.57732922409195,-182.90996815933613,-199.8816271596006
2025-12-12 18:00:03.189146,Right,-214.5845617040177,-236.30051289108815,-241.12987740524113,-232.19919892185135,-16.40433670231141,-235.1482051886851,-220.70887074852362,-236.07784423342673
2025-12-12 18:00:03.193125,Right,-131.94635817344533,-139.55446540168487,-143.5818163054064,-139.9767328327871,-132.32834171585273,-141.16801664192462,-129.55865096783964,-144.80060711328406
2025-12-12 18:00:03.198185,Right,-53.25177979748696,-61.71902390458854,-68.06534385727718,-63.09183801955078,-161.39058260212187,-64.44178980315337,-54.18713701155502,-70.74219334300142
2025-12-12 18:00:03.201189,Right,-99.48374152951874,-119.75487627711846,-128.5402221424738,-119.19116018217755,-36.82579413958592,-121.41731102205813,-109.8679581284523,-125.97270640119677
2025-12-12 18:00:03.205145,Right,-164.26979740546085,-183.1997426469461,-190.46678520005662,-183.01226416102145,17.432223266805522,-184.9393221042119,-173.73321222583763,-186.85738085815683
2025-12-12 18:00:03.209203,Right,-114.46483106340747,-119.79584037547465,-123.72863951092586,-121.9475029889145,-93.74111535429256,-124.38955682626693,-115.55858169280691,-126.22262320871232
2025-12-12 18:00:03.213164,Right,-36.92951588804135,-40.50849592720624,-43.95615163788898,-42.346639425319154,-157.20164098555688,-48.077038962743245,-38.55827873130329,-48.973661530646496
2025-12-12 18:00:03.217234,Right,-72.4390324052656,-88.37182033929275,-93.29286400804995,-87.97617406840436,-49.70709652919322,-96.58180164272198,-82.6399842951796,-93.08892224467127
2025-12-12 18:00:03.221185,Right,-148.6210422941367,-167.16518792975694,-171.33276668109465,-167.8273505208199,31.64827324351063,-175.0451059474144,-159.10051670169923,-168.4487375766039
2025-12-12 18:00:03.226266,Right,-113.01821080892114,-118.79368354700273,-120.56838070735103,-123.44045939599164,-61.15044674114324,-127.15375684510218,-114.2564424170996,-122.86144976608921
2025-12-12 18:00:03.229266,Right,-18.577580564073287,-18.87204596324591,-20.80581962451106,-24.486810203408822,-149.24226654111408,-27.296149787202012,-17.18587716127513,-26.389863963471726
2025-12-12 18:00:03.232278,Right,-27.092917468224186,-37.506722156424075,-41.9860672976356,-40.245653074467555,-61.47957653281628,-44.538041861960664,-33.18687819526531,-42.557928016991355
2025-12-12 18:00:03.237289,Right,-110.19084700330859,-125.00613524194341,-130.11085713631473,-126.93867460684851,44.11971737683052,-131.4586320911185,-118.78927476453828,-126.69348164630355
2025-12-12 18:00:03.241245,Right,-105.11067516298499,-108.1991792130284,-111.55982155457605,-113.37021883693524,-25.540673853480257,-116.82883172307629,-106.45859854615992,-113.04579889815068
2025-12-12 18:00:03.245309,Right,-18.406953777302988,-14.10589796997374,-17.569395870668814,-21.1816431042389,-137.43153347691987,-25.43483235570602,-17.46841085003689,-24.217411250108853
2025-12-12 18:00:03.249325,Right,-10.550130065937992,-16.220671454269905,-22.539061584044248,-21.13888523890637,-79.68084863037802,-27.7622788437875,-18.467843980819453,-24.884841386578046
2025-12-12 18:00:03.253350,Right,-93.33449035551166,-107.05714787432225,-114.73896073229844,-110.51752304413822,43.627832873607986,-117.33271319646155,-106.25459939439315,-110.10289045434911
2025-12-12 18:00:03.257329,Right,-107.1011367533356,-110.91509468469303,-116.89338992192643,-116.75775169150438,7.309496057569049,-121.14030046272092,-112.10779387399089,-113.31465811171802
2025-12-12 18:00:03.260354,Right,-19.964303787157405,-12.996405038167723,-18.160894332278986,-20.7401324568782,-115.1106343724241,-23.827913822897244,-17.856992243032437,-19.23804985015886
2025-12-12 18:00:03.265382,Right,11.92190447502071,12.096260315156542,4.856857626058627,6.377719665237237,-90.51978450320894,2.2850119050126523,8.9088785557542,5.646361903403886
2025-12-12 18:00:03.269376,Right,-63.2534904165077,-72.93360666080844,-81.32569074607454,-76.82615352113498,37.935538098128745,-80.98369634093251,-72.14231975516304,-75.93800593185006
2025-12-12 18:00:03.273407,Right,-95.45790856692474,-97.77608148357831,-103.875787957164,-104.03787059191382,33.73769179606461,-106.24044818343828,-98.65084210777422,-101.79412125219824
2025-12-12 18:00:03.277411,Right,-13.23033765607397,-2.7907310135196894,-6.829849384725094,-11.840766491310205,-88.32833540794672,-13.499936441716272,-9.253362143819686,-13.11506254359847
2025-12-12 18:00:03.281481,Right,41.74486393289408,48.52259886870161,43.04256305354647,40.981739942973945,-89.62332308714394,37.174771398247685,41.036478204943705,35.10229824506678
2025-12-12 18:00:03.285439,Right,-22.4943711431697,-27.07515024690656,-34.27150144171901,-31.66516657389002,43.89499781964696,-36.20250961108832,-30.716112986876396,-37.61737607570831
2025-12-12 18:00:03.288445,Right,-77.67633609834593,-78.61082086875103,-83.87861506757326,-83.67422066471772,72.97135979376617,-84.93992986885132,-81.11680414457805,-87.55996928940294
2025-12-12 18:00:03.292437,Right,-14.288726936327294,-2.0790888084447943,-4.238155382045079,-8.9026868060173,-48.201997676544124,-6.820438870985527,-7.333372287132079,-13.70296852698084
2025-12-12 18:00:03.297459,Right,56.75396000390174,68.81126936053624,66.78678233161918,63.72737697706907,-85.2822495099972,64.98785243128077,63.68022328973166,57.394571728858864
2025-12-12 18:00:03.301464,Right,14.002964901417727,15.383270750258816,12.217880163661903,13.467195616132813,38.86611656655441,11.827955751505215,14.240699715563096,10.313931870885426
2025-12-12 18:00:03.305489,Right,-48.380964638112346,-45.56850825677975,-47.26814646762796,-48.52037415080122,99.49072511319537,-50.953384073247435,-46.26657264190726,-46.26057296138606
2025-12-12 18:00:03.308512,Right,0.41758271082653664,16.02840222042869,16.78132679554983,9.011113794578705,-10.47155485462281,7.28758384755929,10.313099785154918,12.26353145367466
2025-12-12 18:00:03.312507,Right,81.12198732723482,97.57931718122563,97.59631775895832,89.69047405160381,-80.13732149836142,87.33638225391041,89.20799998412258,90.38334578138893
2025-12-12 18:00:03.316593,Right,52.165992295369506,55.61661936703604,53.05549487308599,50.41591096264892,25.57039697212167,46.98189161528717,50.58438186562853,51.61262516930583
2025-12-12 18:00:03.320567,Right,-24.1557396784483,-23.385825927573023,-25.54375435214024,-27.936993820330827,113.92930119734956,-30.443735656881472,-25.961125826404896,-22.77984868150088
2025-12-12 18:00:03.325587,Right,3.077946598728886,17.308874286303762,18.295452703518094,10.416863362828735,24.807370510912733,9.369759126420831,11.96931285521714,16.919833344989456
2025-12-12 18:00:03.329557,Right,90.73897577324533,111.11835528336815,113.35877191167674,104.02387124800589,-70.54609484750836,101.90750037549878,103.9071225154621,108.37898539620801
2025-12-12 18:00:03.333576,Right,82.24421301754774,92.14965090941405,93.15026298022713,88.03660266834777,10.138553911616327,83.74194082527538,88.52335062227212,92.77685383317294
2025-12-12 18:00:03.336566,Right,1.4694058759196196,6.042039196618134,7.2326094864693005,2.627013142540818,120.39131200908741,-1.0061600492335856,5.177349921606947,11.770351037674118
2025-12-12 18:00:03.340584,Right,8.168674833636032,24.33588266427978,27.61194580697338,17.35568439893541,59.76467165505164,16.564032957947347,19.439884851133684,28.76748779270565
2025-12-12 18:00:03.344589,Right,97.1409089777444,121.45559307574877,124.6034394838207,112.03754280379508,-52.42682370384864,111.67933823744534,111.3801620263257,121.04810291901231
2025-12-12 18:00:03.348615,Right,105.62373370898422,120.3746304186352,120.41109289546148,112.95806503639324,-2.4780335627292516,109.92783049188438,111.68561518768547,120.65027598608867
2025-12-12 18:00:03.353615,Right,18.588093284270144,25.096078278147615,23.52514219394652,19.929997553961584,117.69443540058273,15.447881706437329,20.918558530014707,30.6850399489922
2025-12-12 18:00:03.357641,Right,0.8668649008614011,17.617292942057247,17.751743768516462,11.564562461338937,85.08442450972507,8.679441377535113,13.399790453579044,24.299745944561437
2025-12-12 18:00:03.361659,Right,91.58285588758008,120.00890780492045,121.08802697778447,113.57893245729792,-34.668902689620154,112.00825169796008,112.98055824592302,122.71424319442303
2025-12-12 18:00:03.364650,Right,129.02840341685805,150.20908712282835,149.02065783570288,147.13969108037418,-10.687765496346401,144.691048923778,144.1685024855542,151.47692851314787
2025-12-12 18:00:03.368659,Right,47.47114294898347,55.94182393648953,52.863257213903125,55.94345606310526,117.84957346999727,53.21673466419452,52.78642079693964,59.587948444415815
2025-12-12 18:00:03.372673,Right,-4.265205475749099,8.194600754708517,6.489459412739961,6.696755583616323,112.14524953106593,5.846897945128148,3.0998407522565685,11.2360537762288
2025-12-12 18:00:03.376677,Right,60.45703830823186,84.23772571327572,84.08653388360108,80.1410397018044,-19.31551626145665,80.24137214792427,74.48177115396538,82.9964512376755
2025-12-12 18:00:03.380634,Right,111.19232493596792,131.54409944446525,129.99622124884627,128.81882232274802,-34.03241623772192,127.12728536092618,122.5973518358951,130.18049211487232
2025-12-12 18:00:03.385706,Right,51.21783358385437,60.0826652214746,56.89032525049697,60.17102984680969,93.24606359425525,57.24877103205654,56.76774374851084,64.47000530704099
2025-12-12 18:00:03.389732,Right,-0.7055537604901474,10.629974807452527,8.843316650702036,9.594804569715052,123.67174549704941,8.535129391369992,8.855375972285401,18.160578987779445
2025-12-12 18:00:03.392658,Right,63.57162698570755,86.53307608939213,86.49060867477965,81.97290624487505,0.28952885230683023,82.84875690170884,80.4441900772872,90.63078880539979
2025-12-12 18:00:03.396732,Right,135.23876220458624,156.2448222661551,154.18984087974968,151.0358234034793,-45.82406841652846,150.74426158566348,147.63471504412882,157.4564427144869
2025-12-12 18:00:03.400750,Right,89.86196051972365,97.82144671053538,92.11795405037265,94.18299843264685,72.32719725898642,92.09798352501821,91.24356757590431,101.5648909813608
2025-12-12 18:00:03.404763,Right,19.69480501689395,27.08860180708143,20.83805806138116,22.641673369362252,134.89050445602334,21.75568263799505,20.827202428292367,32.855364856550295
2025-12-12 18:00:03.408718,Right,61.92293589928158,81.62896037181781,76.96313006274431,74.85705123943626,26.107924881340296,76.22446977972868,71.49945068254601,83.8343707926324
2025-12-12 18:00:03.413762,Right,143.57468793488806,164.42452793740085,159.0586366534335,158.6752663226507,-49.16523386858535,159.23118213751877,152.50234200594423,163.0247635741107
2025-12-12 18:00:03.418818,Right,118.8037150280943,125.88678932814582,118.07758446857042,123.67414568331515,51.68214984819497,121.2725586294764,116.95546648541858,126.56673854187102
2025-12-12 18:00:03.422823,Right,40.03814528575094,42.33727510038807,34.64015023592219,40.502354725853365,142.125598302875,36.901342337823735,34.5272233346368,45.83753965174037
2025-12-12 18:00:03.425818,Right,57.05105193016061,70.97875106365245,65.65034345398908,66.34572989100343,54.548506332863326,63.23431670190621,58.78513569387178,71.78306667572906
2025-12-12 18:00:03.428834,Right,136.29698264678882,155.65256012547252,150.36820249372374,151.12746941115438,-46.76304811381851,147.18795875432443,140.34793215160062,152.68271067922615
2025-12-12 18:00:03.432780,Right,127.73982483738564,135.850684728393,127.9015457368414,135.48159074604018,28.214121073924616,129.66218081990064,123.65867409157727,135.0367567442172
2025-12-12 18:00:03.436873,Right,51.82801787139215,52.946950661117626,44.20546333832317,54.68247072433678,142.46171776894516,48.780361276778876,43.74678749591271,56.52119917125856
2025-12-12 18:00:03.440869,Right,63.471138358196185,74.757284927402,68.18110653346957,74.05102551867458,89.9326698394234,69.3461279045332,62.1048004758095,77.0746011811425
2025-12-12 18:00:03.445878,Right,157.33674489390614,176.72564279304424,170.98274631813547,174.45555715302544,-20.52217319207068,168.79191797167368,159.4678843987931,174.63863424073134
2025-12-12 18:00:03.448890,Right,170.19517133835507,180.45305075833312,172.72953568975208,181.04146655887234,27.591119553259887,172.2509000700593,164.85086879364098,179.16758908200063
2025-12-12 18:00:03.452912,Right,82.89097172537004,84.17024350832435,75.79960432378721,87.79112566761978,150.96601610498965,77.57690336016458,72.8074241111608,87.59811703668674
2025-12-12 18:00:03.456914,Right,59.51564165493619,69.32307480727468,63.55903858476813,72.36221941704571,123.0516586556787,63.66521587293755,57.14805909804636,72.70742878002784
2025-12-12 18:00:03.460870,Right,146.37875028882263,166.83268377179047,162.81410977126507,168.96640001448395,0.38899944475269876,161.55906507370673,151.10144995970768,165.16674425922247
2025-12-12 18:00:03.464944,Right,188.04307438207616,201.7450781736843,195.91718846395815,205.90052262317477,18.142872754342534,197.99113891249,186.8486088663558,198.03146260476933
2025-12-12 18:00:03.468960,Right,115.96165336399281,118.51805004967173,111.00227856846323,123.99258858444227,149.2675196033706,116.33124196349672,106.75921654301055,116.70407870507188
2025-12-12 18:00:03.473966,Right,72.06381847721059,80.47578256671113,74.67737625588052,82.91753902957134,153.4733271421901,77.31915132067661,66.71231906050525,77.21313239783922
2025-12-12 18:00:03.476971,Right,139.06803020201187,160.07323273055954,156.3154024315154,159.0690698626786,25.672823023105593,154.24158243467537,140.9682941967476,151.46229555964965
2025-12-12 18:00:03.479972,Right,184.31418436011154,201.6797859749131,196.68762206373503,201.7880433238388,5.016725172888982,194.9583762438706,182.54290955315082,192.31893324333214
2025-12-12 18:00:03.484941,Right,109.72849112129188,114.22228408760566,107.30758881638758,117.04968093927164,127.34689925945713,108.89707464613457,100.37254533867963,110.90801002641092
2025-12-12 18:00:03.489014,Right,39.65171680296771,45.96339699221426,40.27507459180197,47.569454064330785,158.56118912440434,41.140653160138754,33.9795715258806,46.68808611189888
2025-12-12 18:00:03.493016,Right,94.00992287969711,113.46611310083244,110.10403328774555,111.81273762110504,34.071781799415476,106.91953157895477,98.0328738001117,111.65727661291021
2025-12-12 18:00:03.497043,Right,168.50835461675888,188.69529194096685,184.89921052439604,187.52583615866024,-17.960367999556183,180.72678821925365,172.3157772756531,185.35102333636314
2025-12-12 18:00:03.501044,Right,129.97242721288058,138.83952031840454,133.5107528061926,141.03227670326305,98.5433738148713,131.49504040375177,126.79182574580773,140.70533825618622
2025-12-12 18:00:03.504056,Right,60.52399406573386,69.16951227467507,65.1054748318711,72.03725318523357,167.88246374797018,63.08481190315797,59.70812133245636,76.54546090729127
2025-12-12 18:00:03.508081,Right,97.13672683786717,118.42701029863383,117.02517225034535,119.55151458793262,63.988453112782736,113.39843194610148,106.77502304631344,125.0665219694929
2025-12-12 18:00:03.513035,Right,171.70862053299788,195.10324921675783,193.58693853887962,197.49100288024056,-16.437885361643566,192.605898845708,183.5141023015458,199.91016135226528
2025-12-12 18:00:03.517104,Right,138.8404831357475,149.11178518101224,145.7271631767071,155.9115498130268,76.36413745967002,151.14408841257682,143.76663656713208,157.73911450328887
2025-12-12 18:00:03.521116,Right,50.47814540834224,55.800204004495754,53.450980054272804,64.43513304443331,164.95186117968842,61.506960700498894,55.97052555116534,69.7648139091616
2025-12-12 18:00:03.525141,Right,62.198529784640414,79.22284102452977,80.5650026431249,85.80165399223915,78.19879236949055,85.38599418191006,78.63692894976703,93.26057531681727
2025-12-12 18:00:03.528134,Right,144.62067956491956,168.21799158690555,170.93115231014963,174.01671123453707,-26.325784058397403,173.17462856812926,165.85589409219392,180.3092800515442
2025-12-12 18:00:03.532154,Right,139.16537015997164,152.95953555917367,153.7366660581465,161.14200231875293,44.32344501715852,157.44617662837845,153.2241232956876,167.42850203986745
2025-12-12 18:00:03.536168,Right,54.2958447488345,61.758577551489,61.7053840867884,70.78910395325511,157.49961372899998,65.8216294967715,64.26442569901701,79.32170502474764
2025-12-12 18:00:03.540151,Right,48.288477869005874,66.01530933979666,67.8641776406148,72.24208947840089,101.99488097400172,68.01970168088155,64.67174693304696,79.80031254953064
2025-12-12 18:00:03.545163,Right,132.1758523805329,158.2209007449128,160.96053872609627,162.67044729807822,-17.987915528778103,157.65804711297096,151.5832588159683,164.04249417668325
2025-12-12 18:00:03.549166,Right,149.1899285482068,166.11287835294206,167.0260470978683,172.44007397106907,21.828499114708393,164.76446986543306,159.51792916945124,168.46807107608765
2025-12-12 18:00:03.553174,Right,67.97400547059078,75.12420678071794,75.09755495312857,82.34288469572493,146.4625195411645,74.14617801265558,70.26835109450622,77.90646703577659
2025-12-12 18:00:03.556234,Right,40.94476855470566,55.62883808904735,57.57920792931691,59.39211511790927,122.49066917379969,53.78898349653173,46.97599090388394,54.91061103096581
2025-12-12 18:00:03.560205,Right,119.2803802677081,144.4841486143996,147.88198286708212,144.90520523616578,-4.578645675181178,140.99524762234068,129.5479741415911,136.80420072593552
2025-12-12 18:00:03.564218,Right,157.6119992720196,176.45387165369175,178.38877263167524,178.05337774951477,5.194742617561133,173.20689717432833,161.1034443370154,166.98632775904844
2025-12-12 18:00:03.568246,Right,85.96839353501855,93.2545492136851,94.23513604627806,96.94939792923105,137.33385097052087,91.9477863394568,82.15224831624073,88.40488369669765
2025-12-12 18:00:03.573254,Right,39.810278725621174,51.83904928521952,55.45118709295639,53.5607830627705,148.97986520083214,51.091462126685656,41.510720082427724,49.7647221297957
2025-12-12 18:00:03.577201,Right,105.4073629258055,129.76024449244142,136.53066353703616,128.03409012616612,21.488153345810133,127.53031957465282,116.6253888348001,125.89121372567024
2025-12-12 18:00:03.581256,Right,158.01228286867263,179.810984800366,186.44772696733708,178.20843244995922,-5.971759764302988,176.4939491393452,167.57801915932214,176.42755705863237
2025-12-12 18:00:03.584268,Right,96.44517262729642,106.68592739940505,112.01806266716449,106.9814867664827,116.44470587538672,103.28492596988508,99.23503862791404,108.65092737515806
2025-12-12 18:00:03.589299,Right,33.67720111706876,46.38208643189864,53.020524974388536,45.58145214745309,157.50773716591357,41.853671084856614,40.02671407441085,51.6009427413519
2025-12-12 18:00:03.593297,Right,84.50759641929471,110.43419656678452,119.41473323910031,107.21928397781448,38.55513647326734,103.89325153955724,100.65499908254424,113.5284586380003
2025-12-12 18:00:03.596309,Right,148.4184694555588,174.64956609238288,183.46125675199437,172.9104118834366,-19.459624558672658,168.33529198900214,164.86420852600713,177.2711862126016
2025-12-12 18:00:03.601309,Right,97.43009514920413,111.33600477644359,119.01574031601194,113.75066798561602,90.2785329582257,107.90154329745565,106.88658455153927,119.36113390041282
2025-12-12 18:00:03.605323,Right,19.55064801935805,32.42815611048718,41.81219302475802,35.66423591275816,161.11584868071077,30.553945249703247,30.371241569388076,44.38984828593675
2025-12-12 18:00:03.609351,Right,58.971376077315654,84.84881939706975,97.40841592662036,85.25239410126233,60.7525093901495,80.97484981190064,78.43949673933093,93.07606723703793
2025-12-12 18:00:03.612352,Right,146.96590822523285,175.88092311070068,188.68435211363249,175.31528123884345,-20.61694653518498,169.51607489798334,165.88053760959883,178.90767078319914
2025-12-12 18:00:03.616357,Right,125.80080745169835,141.57284367230022,152.2013155783643,143.04701114757336,73.10933627199847,135.5884499635722,134.03540321579203,145.44157807593
2025-12-12 18:00:03.620392,Right,36.862678743375,46.534190181526355,57.06458683262463,48.23425704924739,170.0660044340184,42.40453521560994,41.613427064352436,52.98264734301483
2025-12-12 18:00:03.624383,Right,40.70246952898742,61.179810153204016,74.06868880576803,60.042987703491235,90.58079381506832,57.22781139786821,53.63086355134146,64.6434013589751
2025-12-12 18:00:03.628396,Right,121.83894729400345,148.89427368252655,162.54615860659396,146.6901626206236,-16.39110303853522,143.62963843980106,138.73944119759835,147.42023599159438
2025-12-12 18:00:03.633392,Right,124.73372315330198,141.77964512156905,153.89626497155405,141.98099940421525,49.157205981056904,135.67827276772005,134.6462845976348,140.93715770886047
2025-12-12 18:00:03.637410,Right,47.220692213246366,56.711277349473676,68.9003173573874,57.9351967490511,164.59192469518166,49.85582347874879,53.0585188002151,59.05435081681935
2025-12-12 18:00:03.640368,Right,41.79662921848649,60.282646542589646,75.2102225489507,58.76146377250552,113.79319859285897,51.42028797455714,53.946548507752595,60.36095768841915
2025-12-12 18:00:03.644445,Right,124.37682868806587,150.8425394463411,167.28507040417753,147.46443089543027,-9.256383365689544,140.1064621846308,140.02147340698866,145.46570032919408
2025-12-12 18:00:03.648453,Right,139.09781976655358,156.38783389978926,171.5663687432534,155.11379646798014,22.825073478845297,146.25690049433615,146.85172635922208,151.12236709252466
2025-12-12 18:00:03.652473,Right,49.46570382890059,56.38658102683257,71.33633609858225,56.85724369759555,145.17642498857458,48.363919358933344,50.98495675326558,55.923629923927365
2025-12-12 18:00:03.658480,Right,10.683962109367712,24.42843946479843,42.30242450168589,22.519601436448283,122.81290462928882,17.093200663628522,18.32502512692008,24.51574422669364
2025-12-12 18:00:03.661432,Right,83.3969054932677,107.30404056355474,127.62190498629934,102.71684919006657,-8.571089982797275,99.29995970524033,97.57876073467196,103.26537308382103
2025-12-12 18:00:03.665564,Right,122.23284836517996,139.20088429006864,158.68305586944916,136.0425980075961,-8.483304169407347,131.76948727478157,130.61996772355633,135.20183627615916
2025-12-12 18:00:03.668548,Right,48.13968501967611,52.44905704256962,70.80401235679165,51.75973379181232,118.83460772434773,46.96938582175062,48.52495986345457,54.247136072663125
2025-12-12 18:00:03.672500,Right,-4.097221269068541,4.28183651616564,24.072885922389105,2.455363707005745,132.11810404660355,-0.46676897336146794,0.5145837871532422,8.941520771128125
2025-12-12 18:00:03.676569,Right,61.25322129044798,82.44467687045108,103.43748411751585,78.42309523557196,3.6288638682162855,76.77076995678362,74.70775414741365,84.1083201081201
2025-12-12 18:00:03.680579,Right,121.42538687231718,140.82169029698707,159.86629956550314,138.424927636137,-29.613292711248505,135.12497533750138,133.38665460870834,141.76669237855822
2025-12-12 18:00:03.684594,Right,64.24962538102409,71.79884700416005,89.03374788849032,72.68559840813396,90.68105747236405,67.77513263680157,69.99252688400156,78.4943685758335
2025-12-12 18:00:03.689597,Right,-5.327585184015334,3.4795339484116994,23.421279180591227,4.012518580420874,134.6636060478486,0.5654951761098346,4.636250928218942,15.42116390861338
2025-12-12 18:00:03.692588,Right,34.55603044619784,55.683813387091504,80.60510360938497,53.67552159592742,13.559332272343454,52.41778088254796,54.94087468749785,67.48709687907831
2025-12-12 18:00:03.695600,Right,95.69632642372744,116.9293750000943,143.89048411796102,115.57610517146531,-54.131622290820815,113.92669869727979,116.48587455433153,128.84274272533366
2025-12-12 18:00:03.700597,Right,50.666020989971,59.24138050593319,85.51104520776425,60.83909159385075,50.28419349894102,58.01961933732673,63.48961254165624,75.86849108341266
2025-12-12 18:00:03.704621,Right,-23.120959619642235,-16.432869701413438,10.234560569224413,-15.170720350535703,125.87946099050168,-16.69477898547484,-10.693417051516008,3.260688432288589
2025-12-12 18:00:03.708622,Right,12.822569187133922,31.987200357369147,59.84054713041405,29.88263437250862,29.092576991490205,30.33994896087097,32.632497235317715,47.536959481745725
2025-12-12 18:00:03.712638,Right,94.42092233142466,117.0328308296157,143.5788685172447,114.31814708234742,-58.65007526772388,113.63166394918517,113.75002840794332,127.41747902077623
2025-12-12 18:00:03.717664,Right,68.3254244478594,78.50544012719183,102.35959873412503,78.41955371332006,27.41546647659561,74.66892958857352,77.72209174418822,90.07050411985256
2025-12-12 18:00:03.720650,Right,-23.588361655391054,-18.98761022905819,5.244688210950699,-19.168769018666353,125.65559231553925,-23.576113831819384,-17.326222698698984,-4.593619412742555
2025-12-12 18:00:03.723625,Right,-18.682415875940933,-2.5384399923932506,24.884829825052293,-7.017680818084045,50.99461804710154,-9.608942107646726,-4.495485805426142,8.2745739647944
2025-12-12 18:00:03.728677,Right,67.25594833276409,91.01369161295588,119.55090427785763,83.81134508459945,-57.4104305182409,81.82158805140352,84.7359172005381,95.1664602287492
2025-12-12 18:00:03.732715,Right,70.66255445507704,85.23818292791839,111.85415519040544,79.47316826978931,3.561656107689487,76.4360976106691,80.31688789112377,88.1810622271878
2025-12-12 18:00:03.736788,Right,-15.888739921909291,-8.035081449372228,18.060620729083894,-13.084695087745786,119.5767406195373,-15.637640212007682,-10.392822188718128,-2.507590717752464
2025-12-12 18:00:03.740697,Right,-32.17640427169681,-13.7810504725785,14.746018160658423,-21.70506671568728,71.47190501769364,-21.93457961975946,-19.095180767282727,-10.058596680086339
2025-12-12 18:00:03.744660,Right,48.47621932574839,76.48220225187833,106.28350054236944,66.52436958705948,-54.936039868422085,67.17712791860686,66.37124326983758,74.59581780768349
2025-12-12 18:00:03.748742,Right,69.45364393178897,88.31405590045324,116.12812801176915,80.28408019665221,-28.519108867578325,79.86969014705392,78.76236945331038,84.82057810213882
2025-12-12 18:00:03.751748,Right,-15.270489838294452,-8.541009816050064,17.688943994551664,-15.00345749562257,96.0808212425618,-15.013249479845399,-14.848063339362852,-9.530716560591827
2025-12-12 18:00:03.755700,Right,-54.716329643299105,-42.709104776600725,-15.250152946129674,-51.758233659304096,81.30787983357732,-49.000225039621,-50.444511069290456,-44.69441867362184
2025-12-12 18:00:03.760764,Right,18.042578564491123,40.56840450913296,68.69789649476297,28.811752701512887,-48.94401464133989,33.07595847228367,28.682155489892466,33.60830012107908
2025-12-12 18:00:03.764768,Right,64.64246140990872,81.73275047396601,107.30391773080919,71.92211392286117,-53.56578794779489,74.76295291660063,70.74137491043075,74.01107982742542
2025-12-12 18:00:03.768802,Right,4.5285254090995295,9.6001847229345,32.70405330127687,3.4243509241205174,76.10023084495333,5.389017256631632,3.613855125862756,7.081626268380205
2025-12-12 18:00:03.772818,Right,-34.032559521263465,-26.04528101620963,-1.91552062908886,-31.875205360542168,101.20307124935789,-27.617687001111335,-30.832181767895236,-25.589330712915398
2025-12-12 18:00:03.775818,Right,40.16367536515463,58.37570015111123,84.37129977243603,51.64309266701457,-18.5290475886286,58.81040493500768,50.92293276339478,56.46453328995267
2025-12-12 18:00:03.779791,Right,101.00070016094833,113.81640856823651,138.84038544890063,109.50229545090406,-52.49824144746526,117.54322417899675,107.73990099932416,111.75235263924696
2025-12-12 18:00:03.783829,Right,33.98005119334266,30.857789189583855,54.09530918310338,30.122621832691948,65.69159408305131,39.170859913152526,31.077411561462213,34.605787161839544
2025-12-12 18:00:03.788840,Right,-48.95068264906877,-54.034344627318205,-29.76517795039399,-55.278457798369345,112.3471655795729,-42.626344620250165,-50.9211130671174,-46.12538926585694
2025-12-12 18:00:03.792882,Right,-11.327009935732349,-5.4423314721061615,20.78584315396438,-9.677567848586477,-6.3807800261856755,6.406013252228149,-5.485979713484994,-0.4261113278043922
2025-12-12 18:00:03.796871,Right,61.621671582586714,67.12947961129248,92.0180776850757,63.45969768396753,-75.56708860765502,79.05050337577995,65.40382553185918,68.58253083954332
2025-12-12 18:00:03.800893,Right,27.217202948391787,18.7752744507452,40.06978198896104,19.04493416925834,29.27450492470234,31.965101226553088,20.526090356594068,22.22085536571103
2025-12-12 18:00:03.803875,Right,-49.83343462776975,-62.16585498893983,-42.5128136886633,-60.3062669490173,109.8082963044435,-48.10494757964625,-58.27145736076636,-56.10885271387815
2025-12-12 18:00:03.807831,Right,-23.94863736932166,-25.08006584206305,-5.543387308862293,-24.521418708129204,14.362040935564437,-11.370493441805593,-24.107138524457696,-21.786667958425824
2025-12-12 18:00:03.811900,Right,55.81304262361664,57.84283244545804,74.91501952869294,59.71845163279795,-80.03578481380828,72.4504516326997,57.42834519443568,57.68720668065362
2025-12-12 18:00:03.815919,Right,37.78648190576496,26.688356914717588,39.50193547591334,33.55512062142952,0.4676354819966946,44.93193603079999,31.0280587857269,28.902420475467807
2025-12-12 18:00:03.820866,Right,-47.00434785961261,-65.63593030488119,-54.36124439392006,-55.71644876537903,101.74227020653052,-43.90377289056778,-56.951405189043726,-59.614051594166085
2025-12-12 18:00:03.824926,Right,-41.53473652523098,-50.92015260912012,-38.25079723649833,-41.99327259216807,31.305643382744165,-29.03372098741238,-44.53125229124271,-47.239042862071074
2025-12-12 18:00:03.829976,Right,43.29075316491071,39.75725629134104,51.92835665056191,48.52059079638275,-80.60288891466917,59.61335571546806,42.32482742420689,38.209099685336696
2025-12-12 18:00:03.833978,Right,47.76803201225994,33.11436125815089,41.440579853908275,44.7587780856702,-24.919185797356477,51.69982380737201,37.01609680939873,31.73957579153648
2025-12-12 18:00:03.836978,Right,-37.64197921879531,-61.72912817676843,-56.37054641486611,-49.026404486117826,94.30789885452396,-43.623694548492495,-55.27809404396248,-59.23692897334695
2025-12-12 18:00:03.839982,Right,-52.521740471420344,-68.04082294327964,-62.70425809951848,-58.8118172375689,54.16438356690924,-51.35183408363082,-64.4376150290118,-66.10546625913412
2025-12-12 18:00:03.843996,Right,35.138386715902016,29.99138119921554,34.79266077304783,36.187236622703495,-69.68240248250368,44.87448819214478,28.889105174690485,27.750108372580144
2025-12-12 18:00:03.849953,Right,69.55385894366918,58.38234107301105,60.21823885742924,65.93282652308699,-43.33676815425133,72.92612078619277,57.9204485309092,56.487396605851245
2025-12-12 18:00:03.852961,Right,-2.108410913067928,-22.113052179389342,-22.198789588801446,-12.828518879679905,89.00347769114887,-7.412191971314314,-19.346367250283947,-19.097727413689427
2025-12-12 18:00:03.857043,Right,-33.20180913366494,-45.720025717404496,-44.53918292011076,-38.612910614356224,87.69341019823332,-32.99303882314416,-44.69340355772147,-41.449672018163255
2025-12-12 18:00:03.860034,Right,43.1858311019605,42.35603125994385,44.35316871177929,46.924392659639125,-36.46804652153514,51.92479826104682,39.108784659845696,43.48864828668593
2025-12-12 18:00:03.864042,Right,83.55918638662843,77.45121316050063,76.88903241169464,83.94256725395098,-46.708562694868306,86.4274235386838,76.28711934245803,79.66130453881487
2025-12-12 18:00:03.868049,Right,0.6564683462056564,-17.913815474028524,-21.134956235000573,-8.078925742920546,73.35015438140545,-6.7812601038313005,-11.390671450113587,-8.618465061859752
2025-12-12 18:00:03.872082,Right,-69.64766839849472,-84.52872098055377,-86.91374539650133,-75.5054745301968,89.13774990684033,-72.43085229676944,-74.26941851250012,-71.28374406480725
2025-12-12 18:00:03.877106,Right,-14.981093079331913,-16.005661426730512,-16.705032171281346,-10.192951768112835,-42.20345401531813,-5.891087903386506,-8.121141964031267,-6.169051830838725
2025-12-12 18:00:03.881078,Right,50.462247076698986,49.48486704820243,47.30057746761304,55.0225220129214,-86.44500095494732,57.120053661754355,56.25098709327722,56.07213655304804
2025-12-12 18:00:03.885127,Right,0.9670437088425388,-11.565037451866374,-16.527878446737304,-4.383253081272414,32.6755880872297,-5.134121144008532,-2.382068997947499,-3.009834140284511
2025-12-12 18:00:03.888111,Right,-70.11727570583025,-82.50177002277633,-87.4948187752234,-76.65322872709658,90.1660274123351,-77.2772221792984,-73.69947319597122,-72.79167802471056
2025-12-12 18:00:03.892117,Right,-30.09815765478197,-30.410344494346646,-34.05640731067251,-27.769318097285577,-22.17462839698419,-26.95783587804908,-26.27570616500452,-25.09741646288603
2025-12-12 18:00:03.896133,Right,43.227219040225464,43.62003854454815,38.632319974589336,46.69649200355343,-95.75343279793742,46.90424888124471,46.27404904510331,45.02296455287433
2025-12-12 18:00:03.900151,Right,8.597436431897222,-4.536416843737243,-12.551363322651014,2.255594786551228,3.9843543078313814,1.1459807831088256,2.66636661823577,-1.110565272407257
2025-12-12 18:00:03.906201,Right,-71.90941895892684,-89.41375023616274,-97.84226370496617,-81.51248731284068,86.81179927233825,-81.56077464841292,-79.17442581323485,-83.68486532761017
2025-12-12 18:00:03.909188,Right,-48.0148042006731,-54.41303716726907,-61.03476622390008,-48.851182215272274,-5.149391765866312,-46.91373417653085,-47.09011238285893,-52.33499832264715
2025-12-12 18:00:03.912203,Right,35.74255263388113,33.781096149523364,26.902452573598566,38.88993333150938,-101.89720050440519,40.36835692804016,38.83878226570596,31.37455287226112
2025-12-12 18:00:03.916154,Right,20.831231147374638,7.811450781526219,-1.4279316895117518,15.517773312651116,-24.424264923462033,15.40203753770038,16.425067757492798,7.368316511503508
2025-12-12 18:00:03.920213,Right,-69.11984774974553,-87.62392405083665,-97.04752651729359,-79.66799298139813,79.76180573020247,-78.58138625412175,-75.62066009057526,-83.7632448138902
2025-12-12 18:00:03.924214,Right,-70.744033508563,-77.8894729276617,-85.072742898039,-73.91495413152734,12.853728726244299,-69.50908529186381,-68.82266467985028,-75.78997988577976
2025-12-12 18:00:03.928239,Right,15.89940225092505,16.918477225623064,9.467953557686997,18.05573552660644,-102.41805978606135,23.275041413131476,21.55045858401354,13.3718294624814
2025-12-12 18:00:03.932250,Right,28.282810914906804,20.0039669689304,8.247719154296647,22.514095020311288,-51.879282997586415,25.05947261336405,25.497155901513906,15.406181401813228
2025-12-12 18:00:03.937277,Right,-55.984190071802004,-73.03837918573117,-88.4838373307266,-69.27207250686115,69.27093437251824,-68.9854143364937,-64.64744909768706,-74.3996367373511
2025-12-12 18:00:03.940271,Right,-79.31478956832143,-87.92663669649482,-103.66146698229022,-86.08076626764705,34.00887374787453,-85.67274272217855,-80.72104636536642,-88.86053676739539
2025-12-12 18:00:03.944284,Right,0.05720980845580925,1.564051250630655,-14.368478195028729,2.3171818156970403,-92.42861035470924,2.8141782484317446,6.874031781737358,-1.1690635934464808
2025-12-12 18:00:03.948303,Right,30.600048485126536,25.485841738174713,6.878955914540711,28.915418094795314,-75.02946753875221,28.310022076649147,34.73607890455969,25.822918467421914
2025-12-12 18:00:03.952300,Right,-47.72307522544543,-62.90748383883965,-83.77159667987235,-57.646988671232975,51.30081945236816,-57.92688100151349,-47.59974787788269,-55.80555261036352
2025-12-12 18:00:03.956346,Right,-90.71747276672158,-99.40240933694167,-119.59926326115465,-97.36341841100875,47.27887218652904,-95.00608756866455,-84.60848618349883,-90.95289069154751
2025-12-12 18:00:03.960353,Right,-20.16821024754381,-16.84453667959133,-36.06964213246431,-18.826008628495856,-82.98815075960556,-15.198600684530447,-7.468938501378943,-13.319690968763098
2025-12-12 18:00:03.964356,Right,29.291505369580136,28.24744004075228,8.095531267596925,27.1867746545993,-99.78343753058834,28.609278323293438,36.63578407642308,30.275292933561104
2025-12-12 18:00:03.968363,Right,-37.85072325185063,-51.48369481157465,-71.26349715416154,-49.24561850391456,23.831348365921258,-49.94623875827074,-38.83343318178595,-43.878073982606566
2025-12-12 18:00:03.971388,Right,-98.28969782991521,-109.32782911527568,-124.63474181734819,-107.44709387387002,52.12282506824113,-107.02297896092387,-95.41425621715871,-97.37350170999548
2025-12-12 18:00:03.976385,Right,-39.84697415704886,-37.701960675567534,-48.200050506586194,-38.88025015187668,-71.70623685581995,-36.807816257784,-27.398674607877183,-27.92081159834001
2025-12-12 18:00:03.980374,Right,28.666301585262318,30.719770141232857,20.479594308728338,29.014631687714427,-118.85483019032154,29.695607327083053,39.71107781838873,37.71574527807206
2025-12-12 18:00:03.984381,Right,-18.72850704596476,-28.897155071331326,-41.62096495451988,-29.13134717586945,-2.524632726915172,-31.083553464141005,-17.17426464057189,-20.96428553138776
2025-12-12 18:00:03.988378,Right,-89.60152922364341,-100.72379234761047,-113.84726603128365,-102.16641334025189,60.173954924530335,-104.76400926434144,-89.72115833456928,-94.06881310389235
2025-12-12 18:00:03.992406,Right,-46.87797869810311,-46.0063383210927,-57.894442999573585,-50.4990615454044,-45.35607667880913,-53.33466304454305,-41.66207670886524,-47.047763168780875
2025-12-12 18:00:03.996415,Right,34.124253957174005,37.19773853367951,24.388735686177824,32.925739967568006,-116.94507685835242,27.22468960604965,36.84524367118411,29.184093699885125
2025-12-12 18:00:03.999416,Right,5.9427451953251875,-2.6303090539931873,-17.855661363500985,-4.114795129708,-14.79832856986468,-13.272877548341057,-1.3798368131147072,-10.110536566149676
2025-12-12 18:00:04.003456,Right,-75.481179690707,-87.24385454316325,-102.43438890405378,-89.51126096591543,75.35992124872155,-98.42812489399512,-84.80456921633231,-92.04691271798583
2025-12-12 18:00:04.008507,Right,-54.84648467641637,-54.9224330665038,-68.00548619209803,-62.17903284883505,-11.613410895807647,-67.8302707224575,-56.60586746440276,-62.29050926065793
2025-12-12 18:00:04.012484,Right,32.293281387273964,36.708113873857656,23.699056563371414,26.69500316955964,-111.8479595746976,23.280011941456905,31.80142243667251,25.635281735398166
2025-12-12 18:00:04.016493,Right,25.32455594151361,17.69060378082213,2.6608670088025974,9.664475013680203,-38.96293049356245,7.112547517899657,16.177818783922703,9.363797601019542
2025-12-12 18:00:04.019492,Right,-63.01406229397617,-77.86994194916224,-92.762087089759,-84.39416775979771,67.3032508540673,-84.83077011394926,-75.08008483654521,-80.44811757406933
2025-12-12 18:00:04.023482,Right,-73.01322887276547,-77.4113014297618,-89.30969287921835,-85.86424859535327,2.305390366767824,-83.88726536162358,-76.29980064332995,-79.57487373727417
2025-12-12 18:00:04.027486,Right,3.358095379458973,7.788713739824743,-2.4886991355378996,-1.5391691187760443,-120.58296097207858,-0.5564173508209933,5.697037129206365,2.851662620829302
2025-12-12 18:00:04.031482,Right,11.016016851503082,6.938583318376914,-4.525252318228013,0.7003649181970104,-81.09820774119726,-2.0071596435773245,7.463082668520656,4.337420453884988
2025-12-12 18:00:04.036495,Right,-74.525269358066,-87.83115114947941,-99.48118734686796,-91.51860710735855,37.520160682937785,-95.64898126409389,-82.204159390727,-84.37026362083998
2025-12-12 18:00:04.040507,Right,-100.1892486193392,-105.81772042964076,-115.01755175547441,-111.13494870271097,5.967794352220153,-113.23982212021292,-100.14693543049725,-101.18247299633731
2025-12-12 18:00:04.044519,Right,-22.859792382827436,-17.946274823130807,-25.93676881074498,-25.277707337692846,-121.12075320820077,-26.079572763796023,-15.11622195884047,-16.973671386251226
2025-12-12 18:00:04.047537,Right,8.23956953011293,7.58153492368001,-2.653814160003094,1.7072040035491227,-107.41610733867856,-0.4136174049854162,11.89313667872193,8.380845286857948
2025-12-12 18:00:04.051530,Right,-68.59367430561542,-79.16483325765148,-91.22316511993267,-83.34108483037562,22.443622738093836,-86.18660285833175,-70.80128666286691,-74.01889491019756
2025-12-12 18:00:04.055588,Right,-109.80496779363966,-114.51360244250827,-124.68895407138189,-120.4935770859629,28.340420109336264,-121.83848116428271,-107.00861588492626,-108.3977658816184
2025-12-12 18:00:04.059688,Right,-34.52464369199879,-27.3359919600407,-34.91207232953457,-35.23880869720233,-96.97066774987252,-36.25196628471895,-24.602251517833793,-25.51159924130843
2025-12-12 18:00:04.064593,Right,22.763208970405685,26.321396446117433,18.359779192811402,20.84507056991788,-115.1648602358946,16.884922191871738,28.248295209708886,26.149333078134077
2025-12-12 18:00:04.068625,Right,-38.75548987356888,-47.217105199099024,-56.557939452832215,-48.9164451504148,11.235259829740244,-55.59869932140282,-41.7926442576354,-44.3530935072813
2025-12-12 18:00:04.072709,Right,-99.44128183678913,-105.62983887200244,-114.01804319652729,-107.5629405214786,48.62001123727168,-113.50841396677424,-99.95712680587167,-101.99375576297825
2025-12-12 18:00:04.075683,Right,-42.418308942898875,-36.30971392700303,-43.28071055959299,-40.65860991914815,-70.21000989691674,-44.91593806447054,-34.84920551125106,-37.89863463297297
2025-12-12 18:00:04.079693,Right,29.243286270404496,34.24493079067179,25.72336715223355,30.66626441772678,-119.80803400496734,25.578826331999153,34.22597220682292,28.218245336694963
2025-12-12 18:00:04.083716,Right,-13.487917743252183,-21.763440875394735,-33.022210591741896,-22.631004497969116,-3.612342215856188,-29.528901369201776,-19.000118550691695,-27.016124932695675
2025-12-12 18:00:04.087703,Right,-84.05514895699889,-94.05191854859368,-105.27889773317293,-95.89414589250373,65.42345389588445,-102.66998558320483,-91.93860064760156,-99.69380773999
2025-12-12 18:00:04.091676,Right,-43.8820616085286,-42.02328310863595,-51.655600985010096,-47.955466851533856,-37.233331112813175,-54.14334623652394,-46.59145495523626,-54.095384092892346
2025-12-12 18:00:04.096751,Right,37.373747112880665,41.48750662101884,30.87007641242235,34.27731884024979,-115.16681322903969,26.422293445859395,32.38326648670409,23.740957508329302
2025-12-12 18:00:04.100742,Right,13.594010208111285,5.560809353897639,-7.854109710628109,0.3422675962865469,-18.168146179832547,-9.627247193246149,-1.1285484133550199,-10.195626111140882
2025-12-12 18:00:04.103766,Right,-63.11799202758266,-75.0592872748457,-88.6261472917613,-80.60675984235422,77.25480926689852,-89.6156530220178,-79.1256952517906,-86.45163419219898
2025-12-12 18:00:04.107765,Right,-40.62418396407884,-40.3589932860159,-51.398423778307915,-49.38409013158525,-1.9394196146422473,-55.71667424664338,-47.02825757093524,-52.53890545714967
2025-12-12 18:00:04.111784,Right,46.55095428520144,53.619757283639046,43.37618724592903,43.76648764174752,-102.30374937799934,37.48624116319843,44.811145070256316,39.37589388154447
2025-12-12 18:00:04.115792,Right,38.62301254049089,36.198445762565825,24.09725131632149,29.81360790411418,-32.403790563203074,21.108869485928153,31.142209823887242,25.725506100148777
2025-12-12 18:00:04.119781,Right,-53.15446061116745,-61.84310205001748,-74.60577850256959,-66.2421124759785,77.52357337053763,-75.63861558753706,-62.81397745822687,-66.48401121025381
2025-12-12 18:00:04.124802,Right,-66.94769314965015,-65.91026662357763,-76.84744450431026,-72.5149232774711,18.801277975904668,-80.18263459209265,-68.70311658155333,-70.56150881380745
2025-12-12 18:00:04.128822,Right,10.12050049145546,18.69001072766696,8.711759491641715,10.881885304508614,-104.35965932314866,3.468061739600671,12.985212750700157,10.999895008528256
2025-12-12 18:00:04.131825,Right,21.336611499111314,20.51084269061539,9.446954806415306,15.896624809072819,-68.21189305043663,5.844492303076549,17.56201484999474,15.197898872735095
2025-12-12 18:00:04.135827,Right,-63.77295978181792,-73.79011959515628,-84.5066235354243,-75.4400364869507,53.74952467883122,-87.65840429744276,-72.55692708775678,-73.00984087149118
2025-12-12 18:00:04.139834,Right,-90.09214481021627,-91.44278689986822,-99.05276137315377,-94.4209230332417,30.13480495319527,-106.33001579926349,-92.21470170315297,-89.84784166709142
2025-12-12 18:00:04.143857,Right,-5.272480285500933,5.083493535101297,-0.6470121498787194,0.27928358686040156,-94.09655938106152,-11.064241501822835,-0.5501609895654838,2.266982245062536
2025-12-12 18:00:04.147810,Right,41.2437749157034,46.056811960967025,38.57615172678197,43.153934934518475,-81.93961194151052,31.526938118309772,41.37252755447116,42.44671610680234
2025-12-12 18:00:04.151881,Right,-26.492719453395694,-33.09242363147496,-42.36012655030936,-33.739578084263485,50.25515185853146,-43.91920656988805,-32.47335493360151,-32.45644216776418
2025-12-12 18:00:04.156905,Right,-73.312613117414,-75.66042997754266,-83.50681062608055,-78.18843384071806,60.796216471604566,-84.44950587509811,-73.99227390842134,-73.90429304658028
2025-12-12 18:00:04.161900,Right,-8.744750086407294,0.4913938321842579,-5.415720001081354,-4.888843436710886,-66.96981077913006,-8.589861268614186,-1.1317140937317163,-1.9325777852645842
2025-12-12 18:00:04.164926,Right,43.16836811873145,49.1421422661806,42.273940950130054,45.18848642305238,-93.91641470697505,40.38176528028998,47.753242413833505,45.01367342656886
2025-12-12 18:00:04.168945,Right,-21.405559018494387,-27.681380215777608,-36.31449502764008,-28.28733965378342,28.489908185398235,-34.45618720931816,-24.75211954966653,-28.321365426381817
2025-12-12 18:00:04.171945,Right,-87.41992186714924,-91.965582085606,-99.62550657813699,-92.99544808449718,69.16129980615005,-97.14479417375696,-88.49762938766071,-91.69498846747592
2025-12-12 18:00:04.175891,Right,-32.83879108603287,-24.866038142201432,-30.410616915170976,-28.78916427999502,-48.981126796574245,-29.48534141561686,-25.890924175677355,-29.839930988760898
2025-12-12 18:00:04.179905,Right,43.928730988114694,51.602307883083995,45.778780606531654,47.92672607846907,-104.63088695246915,48.29317668569274,49.09641457309044,43.05610055946454
2025-12-12 18:00:04.184988,Right,6.553647139524401,1.2112455741589656,-5.933261076141207,0.4280458488065051,7.396979596174788,0.03674991759908153,2.6047085410318687,-4.133954665376223
2025-12-12 18:00:04.187971,Right,-68.74902412302981,-76.20720248793077,-82.09347583256022,-76.7793482699999,78.55191547956565,-76.97233705090184,-73.39347798634117,-78.48834009414713
2025-12-12 18:00:04.190932,Right,-41.445302678694134,-37.1562313835384,-40.470080343024165,-40.064535070661805,-24.262251454892976,-39.97148482280318,-38.821588353966945,-42.442759684658085
2025-12-12 18:00:04.195998,Right,29.543745140425017,36.26852776343003,32.77719876691117,33.91625836105959,-109.82069556483475,31.670701114140684,31.818923844322853,28.099387352602207
2025-12-12 18:00:04.200017,Right,1.8427597294903535,-4.083424922035192,-9.70430976767966,-2.6266499350313097,-19.183429335145775,-8.470805457851384,-4.928892485651886,-8.163139337630128
2025-12-12 18:00:04.204035,Right,-75.84501787388945,-86.60802244576917,-91.82718267950258,-83.96311297179636,78.6428006212409,-90.9156619923524,-84.29387679673528,-84.91329029163899
2025-12-12 18:00:04.208021,Right,-49.70174537031562,-48.189500528656936,-50.44322132162051,-48.6924506463547,4.039424114096619,-54.73688570938248,-49.05965830336936,-47.01388286553265
2025-12-12 18:00:04.211984,Right,48.58066715046152,57.81741309795325,56.487734911148436,55.09410930652666,-97.90153764964998,48.30929671780177,52.85706048742577,55.53965637957299
2025-12-12 18:00:04.217077,Right,50.83923756516742,50.47529932254838,47.03462699735974,49.02205732697621,-31.6597486401879,40.019708167492354,46.88927060622518,49.56319424814137
2025-12-12 18:00:04.220071,Right,-41.92821609154271,-50.10813134681666,-54.44795946168597,-50.942835259324056,80.11706712912928,-59.869157097164134,-51.05421461418155,-47.143400169909
2025-12-12 18:00:04.224074,Right,-61.99516191536168,-61.50035033770109,-63.95606484371092,-64.4613008432716,25.682863808477123,-70.89893647732242,-64.80333675514703,-59.758092122807284
2025-12-12 18:00:04.228074,Right,17.826652855921566,26.42221096125286,24.74423947645846,23.001042493495333,-97.59294338659674,17.251063190822606,19.625022818814614,23.57051051971939
2025-12-12 18:00:04.232101,Right,41.06928362879262,40.9935505905305,36.984762526692066,41.11919762130128,-62.61529888108271,33.12388507844298,36.43446663855866,38.18642118720891
2025-12-12 18:00:04.236125,Right,-35.57685296050113,-45.41814006729692,-51.36908623294585,-42.74779865387245,64.29415742963101,-51.93877707824868,-45.1701562561575,-44.410085234150756
2025-12-12 18:00:04.239147,Right,-62.40082437778619,-64.73993296395929,-70.00861900424934,-64.29740329412016,47.268714537731285,-71.58068915986951,-64.6748552347126,-64.59153657325078
2025-12-12 18:00:04.243085,Right,19.398814574473363,28.147998011867458,23.01535069237434,25.920754056885926,-79.38830559904818,20.441320204779913,24.91273318313324,22.5556783288921
2025-12-12 18:00:04.247156,Right,65.09066297930985,67.92168880340978,60.1922065220715,67.19775599593777,-76.61519157342263,61.12595293881168,65.5764031515464,60.52081081041251
2025-12-12 18:00:04.252169,Right,-3.967387129756389,-13.316936724459083,-22.92795163835399,-11.78256587258511,52.04492639331511,-18.2610543338742,-12.199551204106683,-17.06845954374876
2025-12-12 18:00:04.256175,Right,-54.93263462118557,-60.64916322483623,-68.56432844624214,-61.06280383747071,67.35094921124255,-65.73946076699212,-61.51463538519238,-64.22215814020456
2025-12-12 18:00:04.260127,Right,5.905646341449028,12.150895971433783,6.248955725917767,8.366320324588742,-58.130963984691334,5.114038590283599,4.655443786559772,2.222928751267318
2025-12-12 18:00:04.264197,Right,57.483808503668115,61.27018575362308,54.037099793313246,58.19905697734066,-89.17547261302025,53.982069531710295,51.66304032413245,46.97374807000597
2025-12-12 18:00:04.267197,Right,-6.589843107405613,-15.161648009267083,-24.551962862278742,-15.080108774956898,31.83100608827226,-19.813286679149314,-20.534735331682896,-27.01907171378116
2025-12-12 18:00:04.271198,Right,-73.98201839988906,-81.7336845638456,-90.02805230529339,-81.34861370451836,77.88937403384989,-83.54097798957446,-84.3049675201546,-90.93935009092093
2025-12-12 18:00:04.275197,Right,-20.294587231139303,-15.88978367675736,-21.482907047080516,-17.047522480312182,-36.68371190119797,-16.203632709450176,-19.728583107484155,-26.829219972001738
2025-12-12 18:00:04.279244,Right,57.676994108951476,62.193362764304766,56.75495248686639,62.534833874258766,-95.55658170163224,63.807594218862505,59.57951354510442,51.17797357302334
2025-12-12 18:00:04.284190,Right,18.543746296978497,10.138411154581263,3.1520166632762994,13.91460360387282,13.701162671328348,14.994997012418025,13.390929608827719,5.29722009049874
2025-12-12 18:00:04.288250,Right,-64.60055257604836,-75.46869083825004,-81.87411538109882,-71.7815156628858,87.09881570779544,-68.52107907683967,-69.11973676564958,-74.42105073155108
2025-12-12 18:00:04.292285,Right,-43.14635293203537,-41.813090740542975,-46.05009469494689,-41.318570102106605,-15.560771635540732,-35.731551950211724,-38.84522145425581,-41.59147468075389
2025-12-12 18:00:04.295284,Right,31.54638679316122,36.910456712492305,32.765734727661766,36.960855663990515,-107.84909812041224,41.15991318081069,36.90902181180354,34.74004686911212
2025-12-12 18:00:04.299311,Right,9.445637490727677,3.544058877894713,-2.0923518415147555,6.600978616621433,-23.42224969535164,7.282247216451651,5.87912386804237,4.451324151013978
2025-12-12 18:00:04.303309,Right,-73.67533096340776,-84.34216114928131,-89.11935621751036,-80.59413883084926,74.72179736686303,-80.85985741846889,-80.2173140820596,-78.9231414242604
2025-12-12 18:00:04.307347,Right,-62.50288051383541,-61.71010852295876,-63.4318790519028,-61.36272973785162,-0.29044096506549977,-59.71209533507499,-61.52144359055819,-57.604433027918276
2025-12-12 18:00:04.312329,Right,26.633131754308124,34.43894550650657,33.6533926576667,32.716907482856186,-110.1818385722836,35.477403035209136,30.591248599444953,34.872267749888124
2025-12-12 18:00:04.316340,Right,35.01715419667744,32.98309647240967,30.422582875267835,33.319605139473424,-50.91419989248607,35.606310408107674,31.107266843664547,35.404111325380654
2025-12-12 18:00:04.320350,Right,-44.43753033967732,-54.19408604392447,-56.89736718231143,-52.22952466920469,65.20281990702642,-49.20172802225352,-52.92848472775586,-46.44776665665995
2025-12-12 18:00:04.323513,Right,-57.47739613343583,-58.219596759648994,-58.09526410076796,-58.04782094199982,19.6467225253582,-52.84226390313779,-59.38119883895706,-50.212338055182045
2025-12-12 18:00:04.328381,Right,21.227633441751095,29.027852163435455,30.758420813494013,28.11390810411831,-103.09530381215154,33.52201646912363,23.777788070652605,33.06692383839618
2025-12-12 18:00:04.331381,Right,42.27913637935126,41.46197724744343,41.375598252227064,43.12449729179207,-73.16313566734607,46.057984380156995,37.496367435796856,45.009246936941054
2025-12-12 18:00:04.335420,Right,-34.803431783409906,-45.955580016092426,-47.7698489438626,-42.435264901199844,54.9168117445879,-40.88876484246066,-46.47748460054936,-39.90842057586633
2025-12-12 18:00:04.339409,Right,-62.338418386367266,-66.48582062652713,-67.4217170492193,-65.5845070610485,44.52581539323728,-62.78761665312777,-68.9855641787326,-62.55791794864126
2025-12-12 18:00:04.344408,Right,18.150618393920013,25.361150968605216,24.968622622080147,23.27492265955152,-80.52787229625028,26.579381679322978,17.711710514016886,22.908601755720156
2025-12-12 18:00:04.348429,Right,61.562397701491136,63.26278213160913,60.709185959356546,62.54979502354763,-81.77163493167973,63.919866646006994,55.427156404271955,58.794914612004504
2025-12-12 18:00:04.351453,Right,-12.65078589368568,-23.635891136556893,-27.91088714700163,-21.775826731587586,46.221126745353104,-21.392762161354767,-27.611676944361534,-24.50789191570948
2025-12-12 18:00:04.355476,Right,-68.12551883187007,-76.51849031609527,-79.11749214419979,-75.99742909658016,65.22893984182883,-73.6890274449579,-80.8994596713128,-76.82250329720773
2025-12-12 18:00:04.359443,Right,-2.526476550121515,0.855080462180922,0.41582314627885353,-1.5202982120536035,-59.8875384194871,2.041763733714106,-8.578745785656793,-4.643323292417335
2025-12-12 18:00:04.363523,Right,63.11517334900418,65.25153371104898,63.81089310572497,63.76869746522425,-93.77261327260567,65.13253402963164,54.44672227498086,57.01679426352712
2025-12-12 18:00:04.367474,Right,9.3612472817058,1.0912270171720593,-2.3879577537154546,2.6261308505600027,30.24951189737476,1.4878669134723168,-5.566475650986831,-3.446667318003165
2025-12-12 18:00:04.371540,Right,-60.85602890050177,-66.42366986059642,-69.20342489980976,-65.37058604057165,85.39103709378833,-65.88400315414765,-71.15847969450988,-68.47285771176757
2025-12-12 18:00:04.376526,Right,-15.635462256206665,-7.764393493940588,-8.607273493675166,-9.89521927617534,-25.4488155536892,-8.898749345777105,-15.53861273986331,-13.650937927297491
2025-12-12 18:00:04.379519,Right,60.10627637961261,68.06590091541511,66.7489509063671,65.66788867890318,-89.6883155534615,65.69015703740297,59.434869536074984,58.840579464344046
2025-12-12 18:00:04.383517,Right,24.699351234134156,18.090576179751224,15.240966279819986,18.34305196562491,16.05517029276416,16.69207693433964,13.96317908429046,12.120413746262784
2025-12-12 18:00:04.388547,Right,-54.05823475431498,-65.04840428073658,-66.57515778051311,-64.52858858718355,95.40708084695689,-65.18139376094769,-66.35718222831929,-66.7858619126273
2025-12-12 18:00:04.392550,Right,-25.31657721878946,-24.276512449301663,-22.793493869849044,-26.18465473967808,0.7915257938147988,-24.552914367792255,-28.346392467999976,-27.104313195224677
2025-12-12 18:00:04.395496,Right,62.15647685139629,68.75268436708211,70.28085959870805,67.05649243121479,-89.6143952227776,68.86166219166444,63.346173494606774,64.4367957251925
2025-12-12 18:00:04.400580,Right,51.27718475994334,47.67454808109687,46.42975403818127,49.55846396726156,-4.9029630206023285,50.40373122943765,47.46834680889515,47.96771622796223
2025-12-12 18:00:04.403577,Right,-30.39804033049404,-39.488670642938814,-41.61571393437407,-36.154768815498755,98.49394784130709,-34.00885489357188,-34.27652481659425,-33.17703586697826
2025-12-12 18:00:04.406592,Right,-25.749408133946417,-25.16403950744825,-25.453574312050478,-23.906247551927663,28.46548444227119,-18.897803290118645,-20.530753962773815,-18.96360434916278
2025-12-12 18:00:04.411618,Right,54.5989986504992,60.372550206417145,60.38139980233973,61.65215361901028,-84.1701562565031,67.53486048612831,63.5291897001116,63.82604203217488
2025-12-12 18:00:04.415562,Right,51.67659762452058,45.99635717124693,43.481129809093545,51.78745712372438,-30.265101387307368,56.72496228414093,53.29245869933402,51.99934221163858
2025-12-12 18:00:04.419623,Right,-41.98349370599317,-56.10066466664102,-60.02313191558642,-46.831440697149446,87.18642212375926,-41.37778664625375,-43.77686715009804,-45.00170292686562
2025-12-12 18:00:04.423629,Right,-63.97272214142413,-67.57668496865153,-70.1412633388536,-59.75020461789609,46.6504451812998,-52.47184267279408,-57.11972722180144,-57.895973812141165
2025-12-12 18:00:04.427645,Right,18.460415959289094,26.829554028512575,24.823857639174093,32.45831765514595,-76.67988176920153,39.22772534079559,31.662053985917737,29.39123049454065
2025-12-12 18:00:04.431660,Right,48.35644431830042,50.94371146305457,46.974401912058966,57.69635688870312,-51.17380013951333,61.2333654785682,54.45517556624509,49.86127559103443
2025-12-12 18:00:04.434675,Right,-29.919824464852354,-37.2566075971572,-42.03508843652526,-29.357560373485285,77.45494295731442,-27.818258285652746,-32.22278717169138,-37.07588546280567
2025-12-12 18:00:04.439619,Right,-69.642258758352,-70.90883815691268,-73.03349557469483,-65.56380208697283,70.75263231472672,-63.363102826292334,-68.51907903693973,-71.90441761918555
2025-12-12 18:00:04.443686,Right,4.040094186562783,13.989734723661968,14.367544989829184,16.545048955298626,-56.98377731856726,18.6382993057573,11.239578571079619,8.25354751098348
2025-12-12 18:00:04.447713,Right,56.519949462826844,62.04300139607585,61.51115897514319,65.84716939512873,-65.54222973304968,65.48352828728139,59.28054689147211,55.57241875547879
2025-12-12 18:00:04.451725,Right,-4.437228601442257,-10.300918656783324,-12.377563491529145,-4.366323641988856,61.73295035721094,-5.8711728722757925,-8.782201776250076,-11.611895386226024
2025-12-12 18:00:04.455730,Right,-59.43402511124714,-61.74070194664819,-62.514234595017115,-57.68250762337266,86.42336936199263,-56.45626326260117,-59.60593295086073,-59.797465559004195
2025-12-12 18:00:04.459673,Right,-4.001296438924783,6.008336424823938,7.21925162817206,6.666358670790942,-39.300515408933734,11.331542834257107,4.782061442718259,5.854372892035826
2025-12-12 18:00:04.462737,Right,55.729497523020655,63.73227148824117,64.19360018842235,64.81542674574348,-83.28658097460993,70.01832949189338,63.040880363502765,62.976281907149314
2025-12-12 18:00:04.466699,Right,5.91961672218531,0.6744598443692666,-0.33442279654082085,4.453258985567572,33.1785885269569,8.608613915321257,5.5527434765190264,4.57653230602773
2025-12-12 18:00:04.472775,Right,-56.20341997124706,-62.236144798133864,-61.72340620638715,-58.90467138251461,90.16216030744363,-54.841123627574234,-54.97789597118117,-55.293837118762895
2025-12-12 18:00:04.475783,Right,-3.8778576755976246,2.145530635291834,5.4613609923180775,2.7348288740911357,-17.901755193673353,6.39988796306352,5.762694670082055,5.749273528017511
2025-12-12 18:00:04.479791,Right,76.17182359861476,83.84583323313473,87.08036846392315,84.92862816051388,-85.14750206739564,85.93236869440352,85.29065550760879,84.45713202933348
2025-12-12 18:00:04.483826,Right,39.02767243279243,34.73930680655758,36.05096753804537,39.48349938752506,18.445606268245,37.76360831366128,39.40432557944132,39.15051895341185
2025-12-12 18:00:04.486818,Right,-50.788664130346376,-57.93227901170667,-56.031134851060415,-51.9267875706545,101.2712774998223,-53.274695481747585,-51.17829637520754,-48.2529360432618
2025-12-12 18:00:04.490827,Right,-37.950689955990725,-32.98048596888384,-28.317760271598672,-28.902978490500118,7.303566409598432,-28.28809249605365,-29.480093269927693,-23.79274097355028
2025-12-12 18:00:04.494842,Right,39.18890425227869,48.959869842502485,54.175118439516154,53.17938133316875,-91.13741733234224,53.7534126238661,50.25081038285407,55.57026871252674
2025-12-12 18:00:04.499837,Right,26.60757200654325,24.913038557747313,28.08911990780871,32.50360343566058,-13.422017076511224,31.731164496872225,30.034237963788655,33.427738586094165
2025-12-12 18:00:04.503859,Right,-54.0522760478907,-62.33541868684188,-59.61292646580387,-53.52054219229558,93.91724102143417,-53.41408885195415,-53.50802541920302,-51.245737492449734
2025-12-12 18:00:04.507867,Right,-46.86763616317512,-44.980763136719816,-40.206603108151285,-39.0340167833333,32.51824816363114,-36.245751487824236,-38.93390079184519,-37.960944043589734
2025-12-12 18:00:04.511874,Right,43.16718135561905,52.576867499972195,57.9860894479757,56.65561485239414,-77.29928754969433,60.03569948866607,54.06675517331587,52.082070342491534
2025-12-12 18:00:04.514891,Right,55.77175197917313,55.72365175692994,59.054918692906085,61.47343262282038,-23.350540103791445,63.10171694894052,57.39151034569295,52.44461565716847
2025-12-12 18:00:04.518834,Right,-26.674526090021573,-35.797690675824015,-33.53319446929663,-29.59020946333112,99.81434855489715,-28.194045221884153,-33.07234007248104,-38.759664141278336
2025-12-12 18:00:04.522911,Right,-45.4862946520102,-47.10198917172215,-43.24045088460389,-44.59726307807159,67.09649903715717,-41.15677689790027,-48.92473190465185,-54.200460071027464
2025-12-12 18:00:04.526926,Right,39.240658939263085,46.199633914892274,50.853923389174156,45.53439101550612,-56.07975701034229,49.572960103398145,38.094702036743,32.308615976992314
2025-12-12 18:00:04.531985,Right,74.81670843450956,73.41515221949885,76.24424905841306,74.02054850416062,-36.29983996586998,76.21237078864215,65.28252263060767,59.11069652521951
2025-12-12 18:00:04.535959,Right,1.0746301751723877,-11.793696701220313,-9.934625705720464,-9.37246049172336,90.93548996977734,-7.589900705292166,-15.714860102930515,-19.931395254205086
2025-12-12 18:00:04.539993,Right,-38.52274887694148,-45.42721428340991,-41.55673028433853,-45.07392769560829,87.69474089591404,-40.62594147952586,-48.94405223576541,-50.14094820660466
2025-12-12 18:00:04.542910,Right,32.80718916364913,38.563117096256406,43.80368816480291,36.00805172372475,-40.86629283340062,42.51997649068653,32.226198714161455,31.82421076182834
2025-12-12 18:00:04.547002,Right,80.08671516182676,83.19363167921222,86.33696843382222,81.53127929723905,-55.68173368802036,87.1498921190032,78.31026661988062,76.68248152607248
2025-12-12 18:00:04.550995,Right,9.592422073720627,2.1237698684863062,3.272305833872906,2.7389929154796846,69.45569238764347,7.4078916263679275,2.715869520839533,1.212562197603802
2025-12-12 18:00:04.554998,Right,-53.36318313823995,-57.065387285790166,-53.79115844458374,-57.55818552773417,99.31347105495661,-51.41593879246648,-54.922208675744514,-54.118897303420454
2025-12-12 18:00:04.560005,Right,3.747248360578851,13.03597138387022,20.11686810438505,10.09045473165861,-22.57275184556056,17.864379376085708,11.983894689431509,14.590735053820026
2025-12-12 18:00:04.564019,Right,72.2846342403509,80.58965770769555,88.7166721081594,78.90713104233873,-68.31572012460401,86.181724597227,79.46941809659165,82.18262620402493
2025-12-12 18:00:04.567031,Right,27.280636296591183,22.87226184552719,30.285299911943184,24.479777806818674,48.20042756937073,31.087930878689804,26.460939639125172,29.482940481520927
2025-12-12 18:00:04.571051,Right,-39.25431913106331,-44.364910836602576,-35.82772078659946,-43.08497606632409,110.44180521320231,-35.418285028485116,-39.27627910999581,-34.98733456149239
2025-12-12 18:00:04.575061,Right,6.99819202893741,14.116478149003342,24.672609238722544,12.258315475537529,4.215137579959446,19.942586426142952,14.546881596751518,19.03644357109306
2025-12-12 18:00:04.579063,Right,88.5317593111231,97.15248168475364,107.22818470952097,95.17134806364993,-69.06961467192559,98.95158513420029,94.36514158849513,97.30533045966922
2025-12-12 18:00:04.583020,Right,58.05995243747202,53.60322193284537,61.891305715013914,54.625774029784225,29.999954419085043,53.759448497490666,53.42342833260773,55.602579300959405
2025-12-12 18:00:04.587077,Right,-28.231197139049982,-36.72534737744081,-27.559163478586925,-35.24643938051486,116.91540637364142,-36.20733455455047,-34.72629834147574,-31.17255537919482
2025-12-12 18:00:04.592121,Right,-15.541252626180722,-11.598132071204418,0.3571121950653833,-12.90589584749614,27.748096193316087,-10.224459499535442,-12.363259764138093,-7.787274136560882
2025-12-12 18:00:04.595107,Right,62.3786982813599,72.70079905550301,85.03201122941664,71.19416907347113,-74.1116705701379,75.83509402206619,70.07147144838837,73.44244387193248
2025-12-12 18:00:04.599134,Right,49.27077120055583,49.153190852603075,59.55519237362569,51.67018146719238,-3.0281513389263637,55.062376218211284,50.28041833228144,52.4212542838286
2025-12-12 18:00:04.603121,Right,-38.600710435855945,-45.42523583988623,-34.72384766164578,-40.428154098943196,102.70051346881246,-38.24675610957274,-41.168665161185345,-38.08059870676152
2025-12-12 18:00:04.607140,Right,-40.90699961644714,-37.56877562531008,-23.5421842049127,-34.56431951820741,40.93582429080561,-32.582843240528746,-37.222455410229486,-32.87435045858274
2025-12-12 18:00:04.611153,Right,46.95638786759082,58.68400560001555,74.71796593406361,59.87984093241721,-75.37869791797766,60.20291978752357,53.227379952791125,56.65806989203611
2025-12-12 18:00:04.615161,Right,63.91037736841099,67.21200358579881,82.30042474994116,69.81951339133957,-29.787028604340776,67.60346481239685,61.67189669856543,63.283646330566626
2025-12-12 18:00:04.620184,Right,-17.37209300645918,-22.326781340707385,-7.499749031958345,-19.269145447229675,91.82557177681974,-20.571024259508704,-25.248538100621772,-24.019809746959254
2025-12-12 18:00:04.623214,Right,-42.44976586607845,-38.63146566672549,-21.754976589631042,-38.931980020357514,60.77314473433216,-35.258146038104314,-42.93970070485557,-41.62675740557006
2025-12-12 18:00:04.627211,Right,32.8967133211645,46.92132158504228,64.4793369899271,44.28581251349533,-67.5302238975728,52.15735780486648,40.29275201343444,39.98080352338002
2025-12-12 18:00:04.631172,Right,59.60524317831732,65.75791690489496,80.62942658405518,65.96019079202961,-57.40722999371974,74.65833514979386,63.03927037664653,60.43304080742746
2025-12-12 18:00:04.635270,Right,-23.961851031335755,-30.898376545720566,-18.190707669447875,-27.010876560341785,66.66600027380264,-17.793291815454722,-26.526857341985306,-29.3066554558427
2025-12-12 18:00:04.639269,Right,-72.8588115252951,-76.55336402655121,-62.41396276033811,-73.50682124601735,66.84102333464216,-61.8119859174476,-70.97204469576354,-72.11442821526543
2025-12-12 18:00:04.643304,Right,-0.8685583439109905,5.737616024699491,21.701228986801652,6.217278018839352,-61.57882426305969,19.835967238483136,7.161960372414796,6.57292437920205
2025-12-12 18:00:04.648287,Right,61.505020421860536,63.39222385197263,77.99813252330023,64.92393280760552,-80.10673328702251,78.285075635471,64.01087883592481,62.503035056932276
2025-12-12 18:00:04.651290,Right,9.540162898158087,-1.6156495797804382,10.921286106602565,2.760948851928333,46.918293454058585,16.955913542115013,2.921374322279007,1.4918830644064656
2025-12-12 18:00:04.654312,Right,-44.42737633235447,-54.060432442984165,-40.565657530014505,-49.97916604708371,84.8172653457641,-31.51895312815759,-48.08572106701649,-48.02484400042067
2025-12-12 18:00:04.659312,Right,12.617314996006826,14.979509128131212,30.583039289920634,17.298106393960552,-34.05510613481056,39.97062211763114,18.67840330517174,19.170573622280244
2025-12-12 18:00:04.663325,Right,78.40321726677757,79.32849884330881,94.47158325595046,83.60415064847257,-85.55636473028972,106.67567887102268,84.28767592916847,83.4068143297909
2025-12-12 18:00:04.667348,Right,26.806445260539476,13.512563061602123,27.115907218963912,22.102839186858546,26.20255372212887,43.84739623828864,24.668708274824894,22.78689948590636
2025-12-12 18:00:04.671354,Right,-52.33321952094593,-68.66608218602232,-54.13838068480436,-59.29723452939288,90.150448561345,-36.94255593166963,-54.66112338094172,-56.465866606239615
2025-12-12 18:00:04.675296,Right,-15.663271128292763,-20.952132286383858,-4.731649362238386,-14.099096453288439,-15.01582362300178,9.552194117200997,-10.774697306191229,-13.76316610959384
2025-12-12 18:00:04.679368,Right,69.31184199145719,66.28748625714252,80.81558320004842,73.2529783026057,-91.75622157652833,95.85270971209684,73.7356554572907,67.45999305963596
2025-12-12 18:00:04.682374,Right,49.87700160990789,34.85932675231379,45.60550677570427,45.333869953174144,7.720699009487362,65.96493397519589,45.548778244618006,36.79548023917687
2025-12-12 18:00:04.686402,Right,-29.749862969503738,-49.14686315899053,-39.50721596145377,-37.271180729983826,104.29328263600382,-16.35802264112135,-35.71774333155554,-44.21262211328303
2025-12-12 18:00:04.691398,Right,-15.627197353067459,-24.085383289004312,-13.189349132031566,-14.229177881559735,25.20150561768878,7.612331263262604,-13.898627888027477,-21.700142330041672
2025-12-12 18:00:04.695395,Right,64.92071023911558,61.559806093458064,71.28700203152948,71.16302645172982,-74.92164787889578,90.4483084661224,67.85838233488903,59.031336605557044
2025-12-12 18:00:04.699418,Right,55.56259906738342,41.36102948977714,47.00842411979829,54.16864498901123,-4.628347068492076,68.1120119806692,48.72622789498382,39.09626963377195
2025-12-12 18:00:04.703390,Right,-32.82198003359554,-53.2714739294297,-49.80327291262802,-38.966887565067736,106.45043360385444,-28.482966317238606,-44.52806438148764,-52.37381457791798
2025-12-12 18:00:04.706474,Right,-39.632643429229574,-48.51786012825687,-43.71170131145573,-36.845247642489994,51.31727841789325,-26.96227726152938,-43.701066015269134,-48.78267156957736
2025-12-12 18:00:04.710510,Right,45.64701798383612,47.25505405563945,52.85009672906199,57.01498832931247,-66.25373545951061,65.69119848834816,47.483610146569845,43.40374078378318
2025-12-12 18:00:04.714547,Right,63.2163496188241,58.02567753304629,61.77461762761686,69.60218681854712,-25.841250645406035,75.60489405161934,59.5915867614558,55.564290203245946
2025-12-12 18:00:04.718516,Right,-18.887838373615523,-32.20036930943752,-29.63029857656238,-19.587025665905458,96.86636553527478,-14.539767581125489,-27.26536204468357,-29.710911699137796
2025-12-12 18:00:04.723457,Right,-46.491204856434706,-51.65202547367517,-47.7250889081206,-42.3485510152841,71.33614282887447,-35.98990540507293,-48.7411571192024,-48.66907724866451
2025-12-12 18:00:04.727520,Right,31.26424609951937,36.67697890898762,41.12151340125547,42.43901827704576,-56.55856267841409,48.57551380768746,34.895564188076605,35.88864518237551
2025-12-12 18:00:04.731533,Right,67.80810141140319,67.18789735641985,69.15575048364917,73.33514484943771,-49.85380798661754,76.49667341155691,65.90438438508954,66.47343182821987
2025-12-12 18:00:04.734471,Right,-5.482013880084196,-16.860857326656514,-16.92490804074987,-9.86968604057256,76.79425065503256,-8.5912515691125,-13.986365530496187,-12.801337716066882
2025-12-12 18:00:04.738535,Right,-51.15018935146327,-57.13119848558745,-55.944644233857616,-53.16061486826038,84.5774239817265,-50.727110808749785,-54.3359590384498,-51.737180363898915
2025-12-12 18:00:04.742538,Right,15.918538080857616,22.346766945433956,25.03701742584326,22.751600355637493,-43.31366818733659,25.771278625432387,21.441616507288927,23.824160118895634
2025-12-12 18:00:04.747575,Right,66.80477815907034,70.41159553007219,71.55176931358255,71.67793952732609,-71.34036684962257,72.02945422024823,69.97393613479744,70.96834161269726
2025-12-12 18:00:04.751582,Right,-1.190412226553235,-9.485132428917495,-10.417312468184264,-5.751281130926145,47.2458756813553,-8.18621327708388,-5.364128257819175,-3.78058127660006
2025-12-12 18:00:04.755536,Right,-69.11896206452911,-75.30408307843027,-75.29520849856272,-73.17490561781415,84.26192438413409,-75.01950285753628,-70.70923284516266,-66.46696793058072
2025-12-12 18:00:04.758599,Right,-15.10257288035973,-8.349077322803168,-6.704491565596072,-10.098024168793927,-34.47551563570096,-9.998033143476277,-8.492845604094327,-3.219550978542429
2025-12-12 18:00:04.762615,Right,58.923505242473766,65.72367944624148,65.5805205382344,63.747357892611944,-89.43988055070622,63.59441471674836,63.691486503089436,66.84137653058224
2025-12-12 18:00:04.766625,Right,17.208918440754132,11.004812393120119,7.382276662005097,11.832834863251264,21.555045819055067,10.25254217147085,12.409521842590038,13.022784696171584
2025-12-12 18:00:04.770637,Right,-58.93608113855953,-67.65499283252211,-71.75719216280959,-66.53643329947408,91.06879171402079,-67.93928468021113,-64.73047865825447,-65.08989463163562
2025-12-12 18:00:04.774636,Right,-26.53504678718855,-23.853078731112873,-25.896668028379054,-25.026206112479485,-11.018914358438906,-25.962993467806882,-24.39765077069933,-25.64582151506056
2025-12-12 18:00:04.779646,Right,52.30989111535837,57.97882056945764,56.32113091185147,57.01544108817143,-94.17819494558694,53.99292927056922,55.819344034127425,52.80539418859553
2025-12-12 18:00:04.783679,Right,30.07063721679242,24.846015099024953,21.760065213482903,26.633136657454997,-2.8966425608020927,20.80306322235083,26.541586466605622,22.891756414778683
2025-12-12 18:00:04.786683,Right,-48.635624980535795,-56.8109619371653,-59.57859396456229,-55.411956726580684,92.72909427158868,-60.73828498450894,-52.763110366488036,-54.86792950679046
2025-12-12 18:00:04.790676,Right,-32.11201492748933,-27.6804306243057,-28.410733373501103,-30.701182837869965,14.73067292027406,-33.265206391968604,-27.748750615233803,-28.69802258132313
