timestamp,label,FC3,C3,CP3,Cz,FCz,FC4,C4,CP4
2025-12-12 18:06:41.657894,Right,767.1817491449187,1731.952736978741,1778.4482654395265,1404.5572544729002,1927.9907556405253,1312.3276577028762,1362.0513244282542,1897.8668185103577
2025-12-12 18:06:41.674959,Right,4133.137281523257,9322.284282359411,9573.62286952859,7561.5748150788895,10450.016179396933,7065.087827427356,7331.741313534511,10216.41120226439
2025-12-12 18:06:41.677998,Right,9473.392203244153,21343.487705554624,21922.54370003548,17316.591300477143,24216.64549142769,16179.557170070786,16787.448150057986,23394.591002668978
2025-12-12 18:06:41.681979,Right,11848.7679866781,26665.85182575716,27395.790165533614,21640.569887578593,30935.76564988822,20219.16048198875,20976.427179737188,29236.99412497634
2025-12-12 18:06:41.684989,Right,8025.711613773281,18058.023351438336,18558.988432332117,14658.062899390949,22023.396433232687,13694.164777472528,14211.328695434902,19811.97401236189
2025-12-12 18:06:41.688985,Right,925.4071877779716,2112.461856690832,2176.7962507159536,1715.8554859680735,4129.121429345454,1601.2935253323376,1678.142729927844,2336.2740368712693
2025-12-12 18:06:41.693993,Right,-4401.3958526455535,-9881.26733076328,-10147.729011110816,-8013.532287377486,-9943.888682754623,-7488.350820470689,-7746.04642060207,-10814.711122343084
2025-12-12 18:06:41.698004,Right,-5724.245442088664,-12933.709485093364,-13280.439258462167,-10479.069350845733,-13718.15304090199,-9790.564153882355,-10145.28509050468,-14164.622106926225
2025-12-12 18:06:41.701954,Right,-4084.8246216223633,-9284.731552977988,-9528.092962764378,-7515.369791151141,-9461.740308528242,-7020.825833968644,-7284.624261253659,-10167.832139470614
2025-12-12 18:06:41.704989,Right,-1766.2804558762,-4006.75490616716,-4111.25015919056,-3245.0088745002868,-3491.139865290257,-3030.924300053157,-3143.5842543805484,-4387.768517383491
2025-12-12 18:06:41.709055,Right,-505.4705549199716,-1106.6264830243308,-1140.338817366981,-900.584874256805,-551.8965335923713,-840.5352479618741,-863.3369882975821,-1213.3976724700187
2025-12-12 18:06:41.712993,Right,-762.9555870733457,-1714.694127613504,-1764.4830002884846,-1386.7269206104102,-1379.8000552138546,-1295.317411145079,-1337.143242562248,-1877.9465097027132
2025-12-12 18:06:41.717066,Right,-1818.675885634293,-4138.970459225238,-4248.95689066709,-3345.550968737807,-3871.051469824277,-3126.9453779685427,-3243.7604681826197,-4529.865555708529
2025-12-12 18:06:41.721068,Right,-2507.5466512719286,-5661.274714552565,-5813.921856287867,-4585.944434369099,-5548.5448211883195,-4286.893457021972,-4443.7475922687445,-6197.821225035703
2025-12-12 18:06:41.726114,Right,-2238.195423344616,-5007.788930633687,-5149.25329842302,-4062.5992982676835,-5238.39345130173,-3797.110993478098,-3927.998405815335,-5485.040561451227
2025-12-12 18:06:41.729094,Right,-1460.5973538844846,-3285.2008845478995,-3379.462965179351,-2659.559786567115,-3570.8944485867396,-2484.5326704463223,-2569.525232027867,-3597.014895244851
2025-12-12 18:06:41.733101,Right,-1057.4493566822493,-2424.686751023517,-2488.699736168259,-1955.0211313114269,-2339.975463314913,-1825.873536741885,-1895.4320093339193,-2650.177133237594
2025-12-12 18:06:41.737058,Right,-1315.3054882688448,-2967.4043210755335,-3045.4967694110237,-2403.043083101278,-2742.1660833274946,-2245.50043577631,-2329.1841175497975,-3245.226748097688
2025-12-12 18:06:41.741147,Right,-1691.174071046873,-3740.498392927344,-3846.349739698926,-3040.8693526389543,-3955.6280324783875,-2841.7707941285335,-2938.76857210265,-4097.836475094315
2025-12-12 18:06:41.745142,Right,-1602.9613902772544,-3554.6736027995357,-3656.9608388710767,-2885.1882180958055,-4126.741940481006,-2694.99183111242,-2788.987542270217,-3896.5427881070646
2025-12-12 18:06:41.749146,Right,-1166.0915913859499,-2642.04201853415,-2712.7854442301905,-2132.3132580701495,-2923.1070104996907,-1990.2962548496434,-2071.582915034727,-2892.564785519382
2025-12-12 18:06:41.753162,Right,-943.2752556949854,-2142.268331669504,-2196.9105578417657,-1727.1540387695422,-2044.9889473954681,-1612.1643798277946,-1683.627052533091,-2341.850951885106
2025-12-12 18:06:41.757179,Right,-1140.050383238995,-2522.63133072271,-2594.088526697713,-2044.9788304745452,-2682.8145509940805,-1910.4598809459712,-1983.385502389865,-2760.842419511988
2025-12-12 18:06:41.760187,Right,-1366.5494382316247,-3029.4898829692975,-3118.353215524694,-2454.7330549517646,-3687.3596406123834,-2293.97518487263,-2376.7005559998797,-3318.3007318096934
2025-12-12 18:06:41.765194,Right,-1223.5374713193742,-2775.6719466636423,-2851.942268538405,-2238.8191442091484,-3358.475556378369,-2091.9119377039606,-2176.354172338615,-3038.162989386823
2025-12-12 18:06:41.769142,Right,-846.2499787788256,-1942.6494501029374,-1992.2491656601196,-1565.0715328289662,-2083.3874914597254,-1461.279873048421,-1529.1881656765472,-2124.729356086813
2025-12-12 18:06:41.773226,Right,-682.2007206348353,-1508.678023116081,-1552.288503115764,-1227.5711780088022,-1672.3251266155858,-1143.4907411057502,-1194.3107752269134,-1654.2304226877168
2025-12-12 18:06:41.777222,Right,-869.6265937480493,-1903.829127163277,-1964.01697154867,-1553.398906322429,-2534.3277762033977,-1444.3026584308827,-1502.697493477608,-2092.03773194924
2025-12-12 18:06:41.781238,Right,-1074.5785372592509,-2423.077911428176,-2493.3519369405694,-1965.3249277992873,-3180.354577592807,-1826.5630295966985,-1907.2299305603374,-2659.3098688797327
2025-12-12 18:06:41.785230,Right,-960.9285636503482,-2200.067605091026,-2258.2069331507664,-1780.1806632467778,-2617.2882330329157,-1653.8180058003636,-1734.1041360287927,-2411.089722213568
2025-12-12 18:06:41.788280,Right,-630.4291035775095,-1403.5479288860224,-1442.6636094182031,-1142.8189938504947,-1701.5575296827592,-1060.326828867197,-1110.7349256329471,-1539.646118555218
2025-12-12 18:06:41.792279,Right,-465.08617841720115,-992.4451642638305,-1025.9388023870997,-813.9167797791306,-1600.6005597356707,-754.6429318675073,-784.7988089937717,-1093.5952349654399
2025-12-12 18:06:41.797223,Right,-613.8578642939101,-1372.5613348260522,-1414.2176953111775,-1113.7035645344295,-2130.3913790357765,-1035.9125448029954,-1080.8273801339092,-1510.9645677765366
2025-12-12 18:06:41.801294,Right,-808.3727568362956,-1850.3692337839166,-1899.687338551972,-1495.880062913755,-2362.8110565447714,-1394.907357365999,-1460.3388874772936,-2033.0025446196087
2025-12-12 18:06:41.805311,Right,-733.4353963697795,-1636.2957517675823,-1681.9213885276113,-1330.625489189988,-2032.6562672224827,-1242.8328323874157,-1297.178819240944,-1800.225099672447
2025-12-12 18:06:41.809339,Right,-445.885231574066,-938.6860245801508,-971.0265893012984,-771.8256914587691,-1585.2093796969857,-722.1420674645924,-747.0146974530653,-1039.4938754549948
2025-12-12 18:06:41.812275,Right,-284.68921999138547,-612.1367203495465,-633.6084996546851,-500.31117495626677,-1378.2756278691813,-469.07067876373185,-486.02936169930035,-681.5424724558834
2025-12-12 18:06:41.816348,Right,-404.70146461599506,-938.8948419623775,-962.4493435280165,-758.740015436546,-1455.4698772953125,-711.4677636780543,-745.403871104063,-1037.5242595570162
2025-12-12 18:06:41.821353,Right,-574.1727232078556,-1299.1215377269546,-1332.7968185931677,-1058.2043498455314,-1705.1187360154,-992.327043642581,-1035.2682404851075,-1434.9329757922096
2025-12-12 18:06:41.825373,Right,-507.13837080882513,-1101.0120625932468,-1135.3743136984995,-906.1916765460046,-1805.465378031833,-850.4142086929642,-880.6415322004468,-1223.5495512261987
2025-12-12 18:06:41.829309,Right,-257.9305240828253,-565.553550097975,-584.8422574205324,-466.2204839125043,-1439.708747991128,-438.9732316202135,-455.836088729382,-637.0166564605897
2025-12-12 18:06:41.833384,Right,-128.56949918481405,-327.5593360775383,-333.19960993307177,-263.8483450621716,-891.4846164382761,-250.37831752863713,-268.7234889091924,-370.56779699295294
2025-12-12 18:06:41.837407,Right,-238.8372168164642,-552.4355968098971,-563.1582635343657,-450.5381341521861,-869.9671480887337,-425.89154544996563,-449.34149393759435,-614.3612650311552
2025-12-12 18:06:41.840414,Right,-375.7569976501982,-798.8709545059828,-823.3998533378472,-659.8833056561998,-1399.4818684684578,-621.9632798397797,-642.4324541367241,-887.9474158667726
2025-12-12 18:06:41.844411,Right,-311.86968344039633,-670.9357815833646,-694.5041460391949,-552.3076320021646,-1585.8221486777766,-521.2775794853223,-536.7011477342458,-750.4208276114659
2025-12-12 18:06:41.848436,Right,-113.30548741153325,-295.63612216425827,-302.9785293075838,-237.1520919786999,-981.4704386477824,-226.62268594716443,-240.92259804328205,-337.0640262590605
2025-12-12 18:06:41.853381,Right,-16.7146477822389,-81.67787933745421,-80.67208856495563,-65.71525483648293,-405.08491993742064,-66.00019479589537,-77.44941273715813,-101.1716595577891
2025-12-12 18:06:41.857446,Right,-93.45022838315344,-189.99797571857926,-198.45517820090754,-165.05434881168185,-673.5463976897299,-157.7042812356085,-163.44136542323395,-222.43771930446383
2025-12-12 18:06:41.861467,Right,-182.05365773987432,-380.47479687747546,-398.47704206441995,-319.77897056605434,-1247.8657604757464,-301.4345974915195,-307.6565359169326,-432.4075332171633
2025-12-12 18:06:41.865489,Right,-136.35807463111996,-342.3174949931563,-354.33790821261937,-277.9373114082264,-1110.424131070613,-263.32237645762507,-275.3853399717773,-387.1904765680665
2025-12-12 18:06:41.868548,Right,-6.831386718826252,-70.14241139046499,-70.44367749633966,-55.41145170148229,-433.5083640505327,-57.87947134018759,-66.77611859224271,-86.72445782984141
2025-12-12 18:06:41.872497,Right,63.95883228833554,148.79251145623857,149.86943830375094,112.20410407206509,-230.0955118809361,97.06973758645472,101.59353885258315,149.93246602933505
2025-12-12 18:06:41.876517,Right,33.759669237799244,105.67975973230205,100.90342638775473,74.9713920262584,-650.211809000466,62.7397733964026,72.1437918220181,100.00543823171756
2025-12-12 18:06:41.881509,Right,-15.444257953131455,-62.991401534876786,-68.01797135174274,-51.742185368639184,-842.6801762918476,-54.343691595306154,-55.34781688793737,-80.92341736308299
2025-12-12 18:06:41.885461,Right,-1.2440238216440775,-64.44823521206854,-64.09998977568466,-49.37220627182978,-470.46912101702765,-51.42128258869343,-58.11577861898695,-76.923119990126
2025-12-12 18:06:41.889523,Right,70.12678531403071,149.7772236711753,152.28369124911842,114.45431927437312,-170.28002038784325,102.34112264345458,108.0241087058821,158.18205301136186
2025-12-12 18:06:41.893547,Right,130.77036222139577,329.01389908757847,330.67073899582465,254.55947065147484,-318.27003255905584,234.77470058565086,253.47253825141524,353.16353592417727
2025-12-12 18:06:41.896574,Right,133.24826689451402,291.6399884546736,295.93790866182826,233.0101467204695,-442.43200900405645,216.0356546100047,229.85460323612278,315.9546890019192
2025-12-12 18:06:41.900575,Right,98.55917243546037,171.34135694477436,179.80710836515436,141.37926221652378,-215.50550733378623,130.58867122879474,133.93145862082565,190.24045373648653
2025-12-12 18:06:41.904575,Right,88.47832863493022,190.86373450701285,198.43925097976535,148.7445157608381,-41.72445141541539,137.16702880233788,145.0455230530606,212.44477320245278
2025-12-12 18:06:41.908610,Right,131.74591181729556,338.53437664805097,343.22931939912087,260.9226941047091,-194.2887443357613,242.21970380461426,262.2710662573736,371.0178182665986
2025-12-12 18:06:41.913601,Right,188.87744322577782,433.1532929125533,440.9533664635819,344.4536262129841,-255.4827579430421,320.4946325780038,339.5594074163746,474.7837248206488
2025-12-12 18:06:41.917662,Right,204.65834942719084,416.6415189724212,430.69754549179925,338.72062705733697,47.87566296040313,314.8575232752628,322.8834167511377,460.00700427799893
2025-12-12 18:06:41.922661,Right,181.20881883653055,395.099349554308,409.07967470854055,314.597826450743,255.24230430880561,292.8196873768902,299.2002269850782,436.3912730849406
2025-12-12 18:06:41.926667,Right,169.60530804470181,428.83029777009506,437.91956412539,332.42317973295576,20.108942055812804,311.8782249880169,325.8378378091147,469.9811152719194
2025-12-12 18:06:41.929666,Right,196.27479684568243,466.51211750728544,476.33329000801314,366.93365120489034,-188.81943416810827,346.934386520501,360.62860878009815,510.9155018244055
2025-12-12 18:06:41.932651,Right,235.05552791248192,488.5173786851519,505.0011094818765,392.75814953263034,89.81450675148517,371.8211834556714,377.5103405349946,537.5407369757013
2025-12-12 18:06:41.936655,Right,255.07601093313133,542.8033753119817,560.9824416703486,431.47812027158216,447.6905672584544,406.76304549205815,413.7417597800377,594.9889350323938
2025-12-12 18:06:41.941693,Right,257.49644296546467,611.1623655340518,623.2926838270505,476.18955286432174,322.66224451805465,447.5780232537945,465.1742609220091,662.4699739463395
2025-12-12 18:06:41.945626,Right,254.5605184889573,603.3261285823537,611.7167167026782,472.73910375195555,5.545817167891073,444.6286948627385,463.3326780422358,649.8022197568789
2025-12-12 18:06:41.948641,Right,249.7576796131907,532.4209355149651,544.3548943317146,426.80464778724127,102.5565897451379,401.9827578739787,410.15328404694446,575.5743091027834
2025-12-12 18:06:41.952696,Right,253.53389382862952,538.0126355962129,553.1381668229005,431.75518205569824,455.7317074866405,406.0264341890579,412.577226610214,586.1367577082128
2025-12-12 18:06:41.956719,Right,281.16192289604805,661.3811248825514,674.4970874330029,522.8687482997193,482.57413542583527,490.41001806844724,510.44202043133555,721.4822888788185
2025-12-12 18:06:41.960738,Right,315.5781429852068,747.9240150426631,760.1971589192981,594.1127416889649,245.54009523511922,556.4826665039291,584.3528671762906,816.3345718570054
2025-12-12 18:06:41.964746,Right,313.2227206317766,678.9263538907398,695.3579931302811,549.4078883087495,269.3788655334647,513.7699618590414,532.3980121089262,744.1964989576372
2025-12-12 18:06:41.968760,Right,274.1125901208143,570.1406228605192,588.7826379034086,463.03047774429433,527.3940132969001,431.70030931802467,441.8950110624428,626.8731317081256
2025-12-12 18:06:41.973781,Right,261.3441087685642,601.2839337952901,616.3565229607048,477.9155875511351,538.0432804958255,445.2848869669833,462.96357661433285,657.200778138882
2025-12-12 18:06:41.976731,Right,310.25651205473696,742.148064325389,755.904252385546,588.9074387610308,335.3098190826131,550.1478699509171,577.7702812225325,807.8381172193913
2025-12-12 18:06:41.980784,Right,360.9013176437875,805.4473045183113,825.0443303483189,649.6159390586545,403.6239570530306,607.8061529403785,631.6173971992102,879.7126052994281
2025-12-12 18:06:41.984798,Right,339.3868395582249,725.8955830727937,749.4423209425295,588.64967956685,693.5914974010084,550.4373912658775,566.1879823718336,796.8779352399288
2025-12-12 18:06:41.988808,Right,276.21458105169586,634.265179650858,652.7006984959589,504.53749027173035,660.4555595407728,471.51850979804294,490.3782760374015,695.5440466632135
2025-12-12 18:06:41.992834,Right,269.2324671287497,654.6225666690152,668.1431648758007,515.8424560839194,330.9144469872699,483.4991839683498,509.22773399495054,714.3271633005934
2025-12-12 18:06:41.996845,Right,336.62211434164783,752.9509735913016,772.1419756920077,605.0436256821849,346.88001314591384,569.2049713151064,590.9545914059854,822.7421039380133
2025-12-12 18:06:42.001897,Right,386.8994331762078,813.0507122726412,840.7039095209911,661.0199065087945,780.1441285337787,622.8807643189793,636.2075184392743,891.5727374585113
2025-12-12 18:06:42.004872,Right,354.19130601442885,777.8154546645237,803.119652692927,624.7187184465583,909.4426903320127,589.1778400393669,604.084778513643,851.6717729094671
2025-12-12 18:06:42.008898,Right,291.5542306010029,691.4089543357259,707.8004904297413,546.8410641337978,492.5074193091714,516.4364508616272,537.5502501346054,753.1203070450574
2025-12-12 18:06:42.012848,Right,287.84453752386617,651.7896693373332,667.8248131936416,521.5461454408942,258.9382234864752,492.48551504313946,510.4141649812227,710.3927440535044
2025-12-12 18:06:42.016908,Right,343.31572085554944,717.4904391230084,741.8364145128289,583.7790881640394,651.997258124291,549.292135264317,560.2320982063538,786.7742369687185
2025-12-12 18:06:42.020925,Right,381.4218779625953,821.8884740074864,848.6604571703356,663.6473855805816,1031.481825604802,622.1412985573406,637.3013059685472,901.7028794307262
2025-12-12 18:06:42.024985,Right,358.6726172193303,822.2271477989852,841.4782306674169,655.9190526393941,785.6515757300658,613.9651573018054,638.6278160726652,898.3381831947481
2025-12-12 18:06:42.028951,Right,312.0720418978599,693.3893315414898,707.3385459587444,557.1821931748418,386.85314334742725,521.5407207441167,542.9964207537705,756.5547710157698
2025-12-12 18:06:42.032947,Right,300.33350014552707,602.9410141631961,620.415133392089,494.6143703010166,534.6368401856162,462.44413529825397,472.26745176815894,661.3550260746852
2025-12-12 18:06:42.035981,Right,333.19731072243303,689.3047889756272,710.5036231053527,562.0456538378494,950.5089376610704,523.9369628377026,534.9859726370778,757.2590268972563
2025-12-12 18:06:42.040967,Right,367.06109711457975,834.8214790599886,853.2258214113535,670.2292008970398,935.8939853011398,623.5709216133691,648.6586473006755,913.1434191594599
2025-12-12 18:06:42.044932,Right,356.5920040382189,816.4350929068169,831.5880468076793,657.6069971972611,598.2746576586505,610.6637201844715,640.1975740194321,891.6599379933905
2025-12-12 18:06:42.049007,Right,307.4366381923319,647.4065377202351,664.6809321070323,531.5053713344969,562.1007087083999,491.1364970848663,510.8159879423911,710.7767920595361
2025-12-12 18:06:42.053002,Right,275.53908161685104,572.2567905461183,592.5028379812138,470.5319532218855,826.0461766700028,432.29745655716397,449.09934594866354,632.0499268181156
2025-12-12 18:06:42.057022,Right,301.1108558237902,695.3109040908748,714.9385568951257,560.0146492818603,871.1603688271716,516.0198463631095,545.046316572465,765.2162955784006
2025-12-12 18:06:42.061036,Right,349.10835554875666,820.4157069481444,839.8589244490722,660.5277033675229,676.9378765238216,612.2195677979616,648.4077753388556,900.3476524807047
2025-12-12 18:06:42.064044,Right,347.6380907500861,756.1195471420651,778.2255316684023,618.678258260712,687.4991035034182,574.7659045363544,600.9596262468258,832.1011488195509
2025-12-12 18:06:42.068145,Right,290.205072327517,601.0725072342902,622.6061134129995,495.26952978933696,890.8154172060313,458.7179374132538,475.4733682507649,663.7351675275713
2025-12-12 18:06:42.073079,Right,253.2792745878687,573.2569262753241,588.4222354541998,462.9502339371247,851.5335407292005,426.9561825246783,450.72172414138913,629.3484783963067
2025-12-12 18:06:42.077105,Right,286.43142493779305,680.4533219927689,691.9459188111359,546.6032241586363,616.1283154117409,504.60622362117283,538.6255231476389,742.5044068946736
2025-12-12 18:06:42.081102,Right,334.0975691078929,741.633414461161,757.2512788167223,605.5089026093483,672.5656525326194,559.6639342799317,589.9160644669319,810.9518463222776
2025-12-12 18:06:42.085100,Right,317.02653022127924,674.6957656471059,693.1434818414273,555.0714173587039,980.3247334082844,512.0039117943961,533.181746702292,740.6494817778002
2025-12-12 18:06:42.089082,Right,253.92669578455389,585.3240024111001,597.2918698134599,472.9580841328716,965.7285539275035,434.9003157278057,457.87586453033146,640.3953464637743
2025-12-12 18:06:42.092126,Right,232.46605400496628,576.9928796524182,581.7248670158442,460.6482659437461,598.1036102988292,424.25357498938683,453.5303435079986,626.4795026005013
2025-12-12 18:06:42.096141,Right,274.8607314740657,622.2307927249931,630.3857265696861,506.34959628165234,524.4647102718009,468.498949973844,493.72738737566397,676.6579412022838
2025-12-12 18:06:42.101140,Right,308.64520851301495,645.3835897755343,661.8211514238501,532.0850760114845,905.9789168869611,493.989145828411,510.59749598777853,707.099004231859
2025-12-12 18:06:42.105151,Right,280.5985557550448,621.2357397304149,637.4523839085596,504.1055190693587,1077.2461123288376,469.94968772749417,488.12440845847595,682.7347386741312
2025-12-12 18:06:42.109189,Right,230.06693353469018,566.2450470456388,575.6413692889037,450.44215310399886,725.8421191342641,423.0030831602635,447.7939813337289,621.0040305188159
2025-12-12 18:06:42.113204,Right,218.9827323614154,514.2383148247609,523.0063170462381,414.2626867297804,471.72173583565746,391.4152498188196,412.86076183477417,564.8216084756423
2025-12-12 18:06:42.116187,Right,243.73473048739834,511.33506974496413,526.2284844462993,421.1705178958364,760.7301392083755,397.10759494791273,409.9256185957929,564.6232788291527
2025-12-12 18:06:42.120181,Right,258.0014983715955,562.898858579807,578.653817051556,458.82754427252803,1062.4364908783464,430.1468822764,445.075521183433,620.121979110525
2025-12-12 18:06:42.124219,Right,245.0839024775778,591.5146970282076,600.1731600577477,473.98483860935085,829.4276799375657,443.9342423422495,467.71683144930284,646.9397132124286
2025-12-12 18:06:42.129211,Right,224.51553777203662,529.0166318496922,533.3480641305214,428.5266144669149,473.3186284453841,403.09206679894123,424.247619095142,578.2699666384142
2025-12-12 18:06:42.133222,Right,211.24767552455887,436.7712904049549,443.88378469401505,364.0974315699423,599.8599627212388,344.1506052071927,352.8186484375037,482.72449516365305
2025-12-12 18:06:42.137265,Right,205.70506710076006,431.8522548349574,440.1791260477621,357.0212342761224,928.3191537988605,337.3344607667532,343.72734707186464,480.3407084746286
2025-12-12 18:06:42.141280,Right,207.56681335618487,500.2419991319766,503.9588619702263,401.6292395587079,850.8687112332555,378.5290449960157,394.96433500933927,551.9486807703506
2025-12-12 18:06:42.144262,Right,210.64515375357587,509.70310491812415,510.9438941680128,410.45221597724594,546.9030432882719,386.7479195302585,405.123140406562,559.1618664083071
2025-12-12 18:06:42.148268,Right,200.04469874175265,423.8938142963452,429.23136502027046,351.7366442969069,599.5958779088687,331.49646421312355,337.936601664871,466.880653580185
2025-12-12 18:06:42.152269,Right,176.73559674754506,361.92195859120693,370.3513241556939,302.78608579630964,888.740265298984,284.69559722871054,285.174448970356,401.36162043444347
2025-12-12 18:06:42.156251,Right,166.0015053206589,398.13037173170596,403.7915779419709,323.78293528629,842.4953018215019,303.7232799276244,313.6626752517186,440.6179385255091
2025-12-12 18:06:42.161298,Right,179.29912093962776,443.99120963923633,448.275456325151,361.659335299395,535.8393773281714,339.5071426682407,356.2474971234333,491.8736620352138
2025-12-12 18:06:42.165307,Right,188.81313931150362,406.57794133317657,416.0393060754286,342.6836581211537,545.9981789870653,321.8984960987582,330.0350753677776,455.9748410981847
2025-12-12 18:06:42.169331,Right,167.45998562668683,338.5403372021392,351.98219792498276,290.1826718203956,847.3810514337383,271.70151104655815,270.7102617294877,384.4224744833773
2025-12-12 18:06:42.172337,Right,133.9803243248025,329.5234062568052,338.93359211308416,272.5060653644032,846.7808254682459,253.49473912722897,257.27001837961143,370.33064219739754
2025-12-12 18:06:42.176349,Right,123.8320219462039,351.67698598245624,356.3589784731157,286.4344020411372,505.19962345424574,265.11851879919413,275.8774234604789,389.16244464193005
2025-12-12 18:06:42.180359,Right,132.2119442418334,329.7367112750653,337.75736921303906,278.4825428330223,430.8844708043616,256.3434121705941,261.6713676803629,366.4036450567655
2025-12-12 18:06:42.184315,Right,126.50234885734972,284.868800383294,298.7448128982214,247.75617593637435,747.7587811567355,226.39333437685855,223.5771531627979,322.18999894242734
2025-12-12 18:06:42.189396,Right,103.82574912675773,282.9071307727136,295.67224760924,237.7217472998309,853.0879322136752,217.26047926023602,218.20230873161927,320.96084755519405
2025-12-12 18:06:42.193412,Right,92.13582863644115,299.1098173916107,307.83958655653987,244.90639785927488,532.0044134195196,226.41408599121496,234.13048453326337,337.1195114539005
2025-12-12 18:06:42.196410,Right,98.41751531822956,265.5888789037708,277.0756196253933,226.32852864795132,356.4546976602869,211.96111745311646,214.06205275311368,302.9474841313204
2025-12-12 18:06:42.200423,Right,99.81369435117813,210.4467358890688,228.44819746201392,189.94079066754784,622.0928701729281,179.1420563060674,171.62513415515423,247.56039707316086
2025-12-12 18:06:42.204427,Right,88.46565665802336,214.51263266033493,232.42433737812098,187.27010729082394,802.7140727606602,176.3059125614236,172.79146307118936,252.37278271617834
2025-12-12 18:06:42.208457,Right,82.53196410014061,256.0049959298922,268.5615760983201,213.2869911842281,533.7171770735877,200.499329266313,208.22963951097336,294.4736208982067
2025-12-12 18:06:42.212453,Right,85.23372341835056,237.01614974951372,249.15459211461712,203.72832292167004,285.6590786217712,192.04557849571574,198.58750419446733,274.0319743149448
2025-12-12 18:06:42.216425,Right,75.65461593837244,157.74667950172443,174.4681559841265,147.85145352839027,479.91654731996823,139.83823722647503,135.68743268057005,191.2944618202746
2025-12-12 18:06:42.221488,Right,53.29068857760285,124.56384650600376,141.28758633689722,115.80632636020891,709.4260845138924,109.36730911734048,105.31752144312486,155.37660498626065
2025-12-12 18:06:42.224489,Right,48.50504836757318,169.11987957899692,180.69528826104943,142.92663024395006,513.9079698140267,134.83644266310148,142.27912504441338,200.14755669387523
2025-12-12 18:06:42.228500,Right,68.82476825997583,195.40855026629288,206.53096296987496,169.22446245525498,241.8718264971394,160.48777080804575,170.65763190784492,228.07173450599657
2025-12-12 18:06:42.232507,Right,77.18177851222572,144.3697001262335,161.33569230034482,139.17870585416676,382.5104417188559,133.58151015808107,133.05785921768984,176.4320395483519
2025-12-12 18:06:42.236505,Right,50.743821707117604,84.64270790078444,103.66104990965687,88.77689649729291,635.5028753137449,87.6312464401708,80.75365530146519,112.8570608717273
2025-12-12 18:06:42.240465,Right,21.923133911797777,83.98990167392185,98.36284444382181,77.43699653452495,480.0850416563917,78.83210540795699,76.60066661366727,108.33813459752128
2025-12-12 18:06:42.244543,Right,26.110217384295538,103.10869169095531,116.42151441151509,93.72039899090305,174.12797657062765,95.7775040466804,94.1411880616215,127.13528163736919
2025-12-12 18:06:42.249548,Right,42.7947754029592,84.75510474696057,105.23731694411254,90.17509455251275,284.0590169846546,92.15502806846052,81.02727165119722,111.36477061314508
2025-12-12 18:06:42.252570,Right,31.24836887040874,51.818107625702396,77.53781763266306,65.47749402641784,605.5144622119842,66.58755569515051,51.48654500179691,79.76833779079607
2025-12-12 18:06:42.255575,Right,-0.8049712662177626,43.83796301356051,65.8426210716716,50.043718886503484,513.7959531737724,49.94340187514899,44.00160889438121,69.46858382737264
2025-12-12 18:06:42.260650,Right,-12.04740640919772,39.134943159122486,57.097154144372325,45.01981405337574,127.07753128383774,45.060030938650016,45.434805469587445,61.0192900612019
2025-12-12 18:06:42.264645,Right,4.062791123869829,14.385352305951528,36.28730479080696,34.49286292254692,113.36482000886463,36.07732985782786,29.16583648615051,34.60593641048763
2025-12-12 18:06:42.268683,Right,13.755769449053332,4.53115118626738,31.12282138376031,28.004171273787506,466.9792814424727,30.51314656814793,16.798105307505466,25.052568246726878
2025-12-12 18:06:42.272654,Right,0.33919584767136257,27.305024971952662,49.92076226341305,34.912236122065224,512.2567392776255,37.68690757788136,29.764480744081084,46.8089715995593
2025-12-12 18:06:42.276646,Right,-16.615338710558717,26.02077867789194,41.51417985378066,28.37835599220125,140.21952271531336,33.27861016022507,30.868941442255164,41.78888039721642
2025-12-12 18:06:42.280647,Right,-20.729476189939305,-29.669190459128004,-14.374754470889457,-7.815228705090703,2.6070152481552213,0.9357764220912941,-9.578783304459648,-17.574831349076703
2025-12-12 18:06:42.283671,Right,-19.346227779140463,-65.82326394188567,-47.230247432831675,-31.41286751703592,312.7388025681721,-21.05169513146393,-40.997109432384605,-54.41422325366875
2025-12-12 18:06:42.287677,Right,-20.2559973559255,-23.668202239990933,-7.762704700930044,-5.7364520446863025,467.33806741808075,2.7429929715872277,-12.23342865507584,-11.605008005048148
2025-12-12 18:06:42.292685,Right,-20.900724722552695,20.55040203788667,30.309234108630335,22.95793445914751,166.3421578676207,30.597764217091026,24.51743812765926,30.250862672488438
2025-12-12 18:06:42.296692,Right,-25.129228891120874,-28.071220123179955,-18.527027149422793,-9.898025086091366,-53.51759569987189,1.1701244357682299,-9.756561502668774,-24.343241683673114
2025-12-12 18:06:42.300648,Right,-40.73911352196592,-113.727615453623,-100.07986839636578,-73.12757030469947,168.93427240801975,-58.32092492317315,-79.6202377032605,-114.60352035120013
2025-12-12 18:06:42.306722,Right,-57.02494071554975,-113.82904384186259,-101.09006123172003,-81.16357280572993,368.3241502222372,-67.43002526974306,-85.15256436308846,-113.57394076048513
2025-12-12 18:06:42.309730,Right,-55.38042551086983,-46.37511592177907,-38.90390610625036,-35.738777539954754,149.0540049194824,-25.677688171650516,-30.919802816730225,-41.45513535520877
2025-12-12 18:06:42.312728,Right,-45.793071445586975,-41.814214576006634,-34.90657363287755,-26.708201039829873,-81.34166363673285,-16.60822068116977,-21.011022560604033,-34.73733912414173
2025-12-12 18:06:42.315750,Right,-57.574294820515206,-123.34230475626828,-112.38039369671606,-83.65038962788822,96.77666823274922,-69.20029637866537,-83.3228866631689,-118.79333509321441
2025-12-12 18:06:42.320755,Right,-87.03256280024652,-172.50558158180502,-162.03772135272447,-128.07849375570368,318.1460962493438,-110.50326634000521,-125.05608344613574,-171.337118406198
2025-12-12 18:06:42.324772,Right,-95.25752379831829,-132.07103494474723,-127.1325114138308,-105.38216612490942,135.35307193314657,-88.73859443022229,-92.55132081492047,-131.1105185091874
2025-12-12 18:06:42.328771,Right,-71.820626660774,-91.75823643025069,-87.6567273800465,-69.84939922853664,-121.24909744260367,-55.26617649565742,-55.79920894748648,-89.03416487389768
2025-12-12 18:06:42.332737,Right,-57.19799900189537,-124.48152223865327,-114.91151039510441,-86.3674491636848,32.346056912094355,-72.58951419124787,-81.15998160192976,-122.42016661733214
2025-12-12 18:06:42.335748,Right,-77.75596812758158,-172.6243819982119,-161.49344854361698,-127.28432741741562,299.61835004750174,-114.88569064462354,-124.85428624181077,-175.10292275175743
2025-12-12 18:06:42.339807,Right,-100.59346914098933,-166.18762247380073,-160.646840244146,-132.65635995683988,143.08228756219614,-123.91257255270466,-122.56274625375227,-173.8118816316055
2025-12-12 18:06:42.343824,Right,-88.30605915806154,-140.1022314897382,-137.09372301083204,-111.90093497442649,-193.0538114127703,-107.06075130453974,-98.94324276315456,-150.09867048886372
2025-12-12 18:06:42.348836,Right,-61.6664917484959,-152.3492689869854,-143.8515726061596,-113.43850218599255,-112.82498367043445,-110.32076716984557,-108.73020998591528,-162.81511715931265
2025-12-12 18:06:42.352859,Right,-63.83321534020388,-179.6397349687427,-167.51441776565207,-137.6143898928969,220.05860880529508,-134.7026216934778,-137.63960626981589,-192.19994963545605
2025-12-12 18:06:42.356803,Right,-90.12346310152179,-180.3288989414359,-173.4057434893257,-151.02189519109015,168.9832937811152,-148.0185762946967,-143.85340322467437,-197.81097777375908
2025-12-12 18:06:42.360858,Right,-101.36682081127401,-179.8235166058039,-178.17983831391393,-153.71505730991703,-197.34813095466234,-149.53701623006418,-141.0653483612241,-202.21769404735096
2025-12-12 18:06:42.363821,Right,-89.8902428482379,-207.4334742363135,-202.4669906660347,-165.32275723698694,-223.66137542080833,-158.77005439204004,-159.255789940853,-231.53057037356484
2025-12-12 18:06:42.369888,Right,-83.87532031267983,-222.78847946864698,-212.8411420876073,-173.13226253036555,121.04340044903802,-165.2661259661254,-173.23646519956674,-245.97177981762798
2025-12-12 18:06:42.372898,Right,-93.48426032705902,-193.24421122382046,-186.18677199431113,-158.41238960153714,182.54548636911204,-151.24614840278082,-151.7866557575544,-216.3580618641281
2025-12-12 18:06:42.376952,Right,-99.07245598872032,-173.99694933305727,-172.50435755759827,-148.07853831704415,-171.66989484761143,-141.1714283615729,-132.38243088033778,-199.62158082549286
2025-12-12 18:06:42.380918,Right,-93.10011228750955,-216.40186835064378,-213.43351246093516,-174.40564931459085,-310.5458139292314,-165.84285307351092,-161.562500160333,-245.18216535859392
2025-12-12 18:06:42.384873,Right,-91.00820057760575,-262.7361876766081,-255.33823503296298,-207.0864441027661,-4.556985467032064,-197.49756935924233,-201.1775667098118,-292.68848045304185
2025-12-12 18:06:42.388949,Right,-96.08889893985179,-237.89647172772675,-233.47062405040197,-196.04675095304265,163.33698398026172,-187.9671852086467,-186.43805132278067,-267.2708609246765
2025-12-12 18:06:42.391961,Right,-92.81977228854521,-187.09194959068554,-190.59889909389312,-162.3322297907871,-113.89665546396282,-155.4361879104399,-143.98165442905156,-216.64324829293764
2025-12-12 18:06:42.395965,Right,-81.66250808527548,-203.3496275062207,-209.12645485880785,-168.42655460210517,-314.25343812053325,-159.24727422157594,-150.85561928381503,-234.82745815138333
2025-12-12 18:06:42.399977,Right,-83.30538419448567,-264.00494908203837,-266.72278292285046,-210.09713075323089,-78.39241672700155,-197.20058881570003,-198.7725760842295,-297.20710853641503
2025-12-12 18:06:42.403984,Right,-99.31466301471664,-269.99774316491676,-273.7437756625877,-222.31252746234532,125.76176270257565,-208.20362054696307,-208.12397487819544,-302.9760060625267
2025-12-12 18:06:42.408955,Right,-105.01840878957591,-220.5663385592925,-229.43251875648275,-192.76590997443418,-103.35180672333809,-179.36673074474675,-169.41117939911783,-252.6479503978626
2025-12-12 18:06:42.413002,Right,-93.82652685632638,-211.09704176906962,-219.91672124134493,-182.0200887672254,-342.60301011404954,-167.54966592523851,-158.21561624668539,-244.02535328091471
2025-12-12 18:06:42.417026,Right,-91.34977475156484,-261.2291219618055,-264.56235168952844,-215.0506691095652,-144.29111872348585,-197.74342778482242,-198.3261144325952,-296.843103898922
2025-12-12 18:06:42.419974,Right,-108.54782908930792,-284.18925711500924,-286.6074675056734,-238.64911368937464,115.02914837785647,-220.70913711440517,-221.2158924465475,-322.1515815424791
2025-12-12 18:06:42.424056,Right,-118.75228109837917,-246.79656575527042,-254.53732814188697,-218.399547762383,-62.7017010160489,-202.92908201305545,-191.92760857468238,-285.3139636448177
2025-12-12 18:06:42.428071,Right,-103.92120665736729,-224.86481049121358,-234.01662758883322,-197.60474661152693,-358.8307857023319,-183.78741262861877,-169.40626206313027,-262.96500464557903
2025-12-12 18:06:42.432070,Right,-87.5370180382597,-259.0281180938182,-262.50573482978507,-214.95596667859354,-230.55526189590455,-199.80939647968626,-194.85193147335667,-297.3130889130407
2025-12-12 18:06:42.437072,Right,-93.45909587467031,-282.9178662580962,-283.67107521017897,-236.44559422921157,68.84691986659891,-219.46845249430044,-218.2041858151788,-322.41270782682113
2025-12-12 18:06:42.441090,Right,-104.8172116643982,-252.2940668790543,-258.2770943294745,-223.76043269361253,-42.753323585842736,-206.32292021031026,-195.9271715367795,-293.4135400415398
2025-12-12 18:06:42.444115,Right,-96.72842235828284,-227.73683772649383,-237.8314774199971,-205.94899621061631,-387.5983188477694,-187.87861664607772,-172.80471746256808,-270.2638176527107
2025-12-12 18:06:42.448050,Right,-81.90532764610543,-257.4856273737969,-264.3177665803232,-221.34834224460064,-354.7179112529193,-201.9272635030211,-195.70104360106052,-300.7978578333277
2025-12-12 18:06:42.452123,Right,-86.27003085214528,-285.2861752270255,-289.44509806035785,-243.59731939050835,-36.629999301549105,-224.62241481876117,-224.89060431995313,-328.7291076076217
2025-12-12 18:06:42.456152,Right,-100.95890156790847,-257.9525511917891,-267.1427743086824,-232.47205705495435,-53.840585775069485,-216.34263054461917,-210.11262949713273,-301.67702330328757
2025-12-12 18:06:42.460147,Right,-99.18129612399207,-228.55091568321222,-243.50288926338544,-212.19518935121596,-394.8288406641368,-197.71536375628784,-186.48911686398787,-273.73607315076515
2025-12-12 18:06:42.464185,Right,-85.18161806202261,-257.8724800485652,-271.3145837406628,-226.94195341819432,-438.10638199058775,-210.97226069952012,-207.9252680327627,-305.4213793161907
2025-12-12 18:06:42.469125,Right,-84.12818698008778,-297.2156607154757,-307.51064626540756,-255.31094142698566,-113.50751574473907,-238.05371866503265,-242.2841507960402,-346.34601194859715
2025-12-12 18:06:42.473180,Right,-93.75521127872344,-274.9246077957214,-288.6547800047556,-246.30719397449866,-32.347029720382125,-230.77765012797317,-227.4430658427009,-323.5148117657518
2025-12-12 18:06:42.476230,Right,-90.00916138140019,-229.38055484864162,-248.1940079611377,-213.60198999283602,-346.235279070017,-199.97058411195758,-187.15971425321186,-275.6978702500928
2025-12-12 18:06:42.480182,Right,-75.85158860466618,-241.21136232820572,-257.95602554647485,-213.31812211679062,-469.6521989918474,-198.14799635470263,-190.8939466344018,-285.1073937076144
2025-12-12 18:06:42.484221,Right,-78.84238088093116,-287.7153513544472,-299.46645330713363,-243.75727258587722,-181.14150931299082,-225.54297648376087,-229.0656953122816,-330.3098699916736
2025-12-12 18:06:42.488231,Right,-98.96056551649235,-286.4120823809644,-300.03422049753135,-249.85771256749285,-37.951856305400725,-231.22593101667007,-232.42685221956344,-328.96640680503333
2025-12-12 18:06:42.492241,Right,-104.63585017051082,-245.3925485870568,-264.9113230050425,-223.0906591292005,-326.991245110592,-206.2628890342894,-198.67810814641416,-288.48359025624814
2025-12-12 18:06:42.497260,Right,-87.61629214225104,-243.50733071553987,-262.6065071891644,-213.57101330289152,-519.5576618340856,-197.4742758651846,-193.06963274156442,-287.04209883644944
2025-12-12 18:06:42.500251,Right,-77.45661468655453,-282.47495181660634,-296.1081900608842,-236.07332479173783,-257.67687034781557,-219.5305131644709,-225.92722910555312,-326.23959176486824
2025-12-12 18:06:42.504258,Right,-89.16710489016259,-287.55816384247737,-301.0775154157309,-245.83497280586744,-28.657011050352594,-229.92093901784392,-236.12660480535123,-331.4064450953156
2025-12-12 18:06:42.508300,Right,-98.6719357293623,-249.93728281994117,-268.6955224374542,-224.65108756837435,-259.49919855824555,-209.76381234067958,-206.9848899403587,-293.353168203088
2025-12-12 18:06:42.512297,Right,-88.52314745780313,-240.56321743462468,-259.4577497492428,-212.74456312623806,-518.9322559010179,-196.44179128285032,-194.84200369741302,-282.4879681658349
2025-12-12 18:06:42.516307,Right,-78.87124883348588,-273.2051422398072,-286.0012017012341,-229.73059517913498,-321.1970564122021,-210.10363923403202,-220.05183209775714,-312.8630857243552
2025-12-12 18:06:42.520322,Right,-88.60847201995784,-279.172744938347,-290.45570729870815,-237.81744795123814,-34.867315484560095,-216.78905852796743,-229.48307573143393,-317.05226096336264
2025-12-12 18:06:42.525301,Right,-100.36473902358557,-240.94615100498777,-258.2093876013532,-216.25313572009327,-199.31163225340424,-196.8755031026667,-200.40264193655457,-278.3871259710868
2025-12-12 18:06:42.528355,Right,-93.28562144102762,-228.1572375067044,-248.36544024571776,-202.67489619529806,-520.2973639148113,-185.227565454843,-185.9348694437649,-265.7894364525564
2025-12-12 18:06:42.531375,Right,-80.86420519452076,-264.0534308310598,-279.388552830962,-220.27553791820537,-416.07217112605576,-203.7982352321269,-213.2099660898093,-301.081282149069
2025-12-12 18:06:42.536382,Right,-84.64806170985685,-276.67345555865904,-288.6961071136175,-230.41183513664873,-95.43575063048047,-215.87317292578518,-228.17248985153856,-312.0139704043977
2025-12-12 18:06:42.540405,Right,-95.48292036962812,-234.05417074018624,-250.35792276641587,-205.66255722538335,-160.4799239047279,-194.34449199214578,-196.90720347466413,-267.97770305664744
2025-12-12 18:06:42.544409,Right,-93.57390143044177,-210.2289733941434,-230.44622931850608,-186.24833119806135,-481.98038813311723,-176.65177042403957,-173.7736097846646,-244.28964906325564
2025-12-12 18:06:42.548431,Right,-86.04740056674927,-249.93452239735052,-267.1527197146788,-207.22982674755622,-446.8369067005988,-197.26412699895445,-202.11451427737484,-285.08941499120556
2025-12-12 18:06:42.553384,Right,-90.38820094292169,-279.87592776789097,-294.05403126432793,-228.57171352865407,-107.40361136992578,-220.05083490343532,-229.37832280993462,-315.3680241369875
2025-12-12 18:06:42.556388,Right,-97.81262429215712,-237.8769385656924,-255.60653154109605,-203.35879398568068,-83.01054369012127,-200.21036828134675,-199.4578539049835,-272.47851904592244
2025-12-12 18:06:42.559447,Right,-89.45180856264778,-188.26288534497144,-209.5602269237861,-164.70818880206207,-404.85041067155544,-166.62758027063683,-157.00466972129652,-221.99768505682005
2025-12-12 18:06:42.564460,Right,-75.68339846021263,-209.9190503533464,-227.49423500697594,-170.84730250836583,-465.5700448775897,-172.90369097114308,-170.53247539140284,-243.82991189078894
2025-12-12 18:06:42.568472,Right,-80.23660055713844,-256.59834050480276,-269.4928108493332,-203.18745072785532,-158.60492710763356,-202.10155136918183,-210.42336817638716,-291.0740251566167
2025-12-12 18:06:42.572497,Right,-94.28897522517946,-241.00110265787225,-256.9099897707929,-199.73249244084582,-70.0182547584991,-196.4831293777097,-202.0336582714226,-274.90383048914373
2025-12-12 18:06:42.576506,Right,-88.59146758864517,-188.93727870821021,-210.24863074184395,-163.76851814979455,-370.56699045427376,-159.8103690117714,-157.61563262128038,-220.56615317438263
2025-12-12 18:06:42.580524,Right,-66.56527156141237,-186.5490461747395,-205.82489535707282,-153.56450413243147,-493.0853772913106,-148.96236839331686,-149.6720012088772,-215.27479865285568
2025-12-12 18:06:42.584519,Right,-61.03199765563477,-224.14533248223597,-237.54869010380935,-176.60478846676415,-202.18341562792193,-172.68727737711743,-179.49179833760718,-250.64874152338598
2025-12-12 18:06:42.587545,Right,-77.43321916193236,-222.17591228475794,-236.07601242844248,-181.55046537995804,-44.38246883888496,-181.09177295630798,-181.60492659977172,-247.19853806926403
2025-12-12 18:06:42.591563,Right,-85.21077248716028,-181.38337223546114,-200.15097678918391,-155.72095541434828,-324.90553647995694,-158.89030862227082,-148.23094945243793,-204.98698244127445
2025-12-12 18:06:42.596542,Right,-72.9017683781276,-176.31133111560484,-194.24081801326247,-145.37902241374832,-527.0691677700379,-148.84436974627897,-140.35950796719408,-198.364640561922
2025-12-12 18:06:42.600597,Right,-67.25209627096774,-212.4202429088764,-224.86200769559946,-166.67740253632655,-272.2538786806981,-168.2841316643753,-170.69254529540194,-233.12508477194933
2025-12-12 18:06:42.604652,Right,-82.40989388729213,-217.85204531584168,-230.6523867198266,-176.63325671013445,-31.359909483930096,-177.96713850763626,-180.63338594406378,-237.64923204528168
2025-12-12 18:06:42.608586,Right,-92.60998686318635,-180.4779103429173,-199.76422562735388,-155.07652511051856,-250.9776615226874,-157.91087846900336,-151.28067933465354,-199.70550992403878
2025-12-12 18:06:42.611638,Right,-78.28745365486247,-168.5307133315946,-189.51871770527214,-140.6190008596168,-519.3006552633597,-144.0150111200055,-137.02958153164946,-187.17167311959201
2025-12-12 18:06:42.615650,Right,-61.088267623854335,-197.95169276028173,-213.50954616372474,-154.87133682653075,-331.9675122653134,-157.61178196774563,-160.1167948815273,-215.7440834455192
2025-12-12 18:06:42.619648,Right,-65.01240739430068,-201.57047889463138,-214.764205998159,-161.85990574891912,-33.1686696507968,-164.57389061385766,-168.5139811190311,-218.7020695207757
2025-12-12 18:06:42.624639,Right,-76.18095468345564,-160.28033059468726,-178.00983374012867,-139.96921157825273,-175.12385840393836,-142.64892120991135,-137.81009374023415,-177.8830077178427
2025-12-12 18:06:42.628665,Right,-72.14248601993313,-144.25010976271005,-164.32907450024504,-126.16926736506866,-488.8596180001623,-126.57328873279039,-121.22468941792613,-163.51598423928954
2025-12-12 18:06:42.632668,Right,-62.0976951107441,-179.958070322813,-195.70644274330698,-144.45957838388858,-385.48999416985316,-141.7525404674234,-148.5615392390755,-200.7703161315294
2025-12-12 18:06:42.636627,Right,-64.52261676904163,-193.83725377370138,-207.10154397325823,-154.97459591575898,-52.954282229417004,-152.4547151752049,-164.98162002081517,-215.08384693047265
2025-12-12 18:06:42.639692,Right,-69.77494133656728,-146.78975629794877,-164.65016980067594,-126.4882958572125,-104.39480404183269,-127.31420989206526,-131.0971924244077,-167.93575617397437
2025-12-12 18:06:42.643702,Right,-60.69688517428585,-112.18283528718166,-133.4572591787437,-99.65427814860595,-436.65963020618074,-101.82297606323846,-100.1751582477591,-133.45416022691643
2025-12-12 18:06:42.647647,Right,-49.49946274232934,-145.55761274823453,-162.55032043979736,-117.20343439781573,-426.80380613164743,-116.53433830413269,-123.35905774292769,-166.4684875163366
2025-12-12 18:06:42.651713,Right,-56.80391346325632,-181.7023978094221,-194.2030296092271,-144.72020474233432,-93.36516710283468,-141.09204544813838,-154.31730295158923,-200.68603725975845
2025-12-12 18:06:42.656722,Right,-70.69235012450372,-151.11149893020047,-166.62625321914675,-129.96727742638905,-53.717831650341395,-126.44607776973862,-131.8089934756863,-167.3453201102093
2025-12-12 18:06:42.660759,Right,-65.16895177718834,-104.30240255384706,-124.07747951924102,-95.5288221030496,-366.83021109184483,-92.53027218888747,-90.59738283004845,-119.0751588686253
2025-12-12 18:06:42.664768,Right,-47.0558854318806,-117.05211967619834,-133.89649499277584,-96.38765334861819,-429.90649231581483,-90.93993912643055,-97.02431008504936,-132.4368952921359
2025-12-12 18:06:42.667825,Right,-44.41146575455787,-152.8894753814675,-164.69686875713523,-120.76302397582913,-115.03649099986069,-111.40418506390415,-128.47049461951246,-169.42622288799612
2025-12-12 18:06:42.671804,Right,-55.98201060449355,-134.3890410757158,-147.9432756328024,-114.64631280390313,-10.76943679706892,-103.31899854849325,-117.50836017169058,-150.70340333943022
2025-12-12 18:06:42.675815,Right,-54.77402782495483,-87.64239743206417,-105.6181744717178,-82.28881893644575,-315.9575030874694,-70.65132495918078,-76.85020540247206,-102.09133424935862
2025-12-12 18:06:42.679811,Right,-39.694554549700115,-92.6926104761078,-108.30870546784718,-77.48830323322909,-461.0981276241946,-64.96528209315147,-74.69459737982834,-104.804123644426
2025-12-12 18:06:42.684798,Right,-38.79188764447463,-134.66286877827952,-144.03126965416595,-103.83159176172921,-171.09278600360267,-90.93998545387876,-108.48722162056947,-145.04304159799358
2025-12-12 18:06:42.688820,Right,-56.684013511112425,-132.2827448147582,-141.4515104839229,-108.9564403204713,18.689167261240073,-98.99831168894889,-111.30792778567411,-141.86864894698374
2025-12-12 18:06:42.691829,Right,-63.706381365220295,-88.10794464690844,-101.89572117634816,-81.38078289286932,-237.72921124857385,-76.41195486666402,-76.3967137686559,-97.8124096536776
2025-12-12 18:06:42.695839,Right,-48.31490631806082,-80.03222096117679,-93.62753265921492,-68.96702438866487,-449.69720315065933,-66.89476363745052,-66.85177736531477,-90.39585880626692
2025-12-12 18:06:42.699858,Right,-36.763410016312264,-113.00234705762705,-121.83743773726746,-86.85133834797307,-207.89660064369673,-84.93051019159611,-94.70943137485301,-123.65548826410668
2025-12-12 18:06:42.703866,Right,-44.26690522831632,-110.49034871876938,-119.55479144409765,-89.01040561948321,47.32880308467429,-87.5894917594851,-97.81329752321471,-120.35134023090359
2025-12-12 18:06:42.707868,Right,-48.62879312905716,-61.14489860966569,-75.91912206320558,-56.63828272599494,-154.5919504063786,-56.65160207595909,-58.00172792124795,-69.49325162835885
2025-12-12 18:06:42.711832,Right,-34.079882402933436,-43.65621207060758,-59.53745555598289,-36.35418896187912,-435.99322018935345,-35.82885477162199,-37.957912372017745,-50.63725014566444
2025-12-12 18:06:42.716905,Right,-21.826992979476927,-80.93162319116527,-91.28639360528905,-54.922809843032155,-274.39415948005626,-51.70488002075581,-65.84974521724507,-86.8226591545972
2025-12-12 18:06:42.719899,Right,-30.509183356160065,-96.49236468557501,-104.71694637730252,-69.65046940461616,25.79725867806701,-65.50771456051734,-82.97730757895624,-101.1385277522495
2025-12-12 18:06:42.723901,Right,-41.56054931858671,-56.24594346183585,-69.41271192661952,-47.8631520451745,-92.33417216414819,-46.150464171078056,-53.081237127422355,-59.6472879043431
2025-12-12 18:06:42.727918,Right,-33.8240201381268,-30.79878071771236,-46.57830225600628,-26.63632857534685,-394.5465741035878,-27.583448770921677,-29.144896312936908,-33.68810466316063
2025-12-12 18:06:42.731926,Right,-22.011221365944948,-61.702684715681244,-72.81058849114925,-41.20533657472697,-296.28881876863306,-42.9800541162258,-52.83192991546821,-64.94275155256037
2025-12-12 18:06:42.735955,Right,-27.67196108752978,-82.80419190437533,-90.61641947447788,-57.51993785717059,38.13880544708809,-60.27697258812259,-75.35885294622858,-86.40802515135147
2025-12-12 18:06:42.739966,Right,-37.58424132093205,-44.12741642806213,-56.027769622567575,-35.817389931180514,-2.62240006623324,-40.88592246087501,-47.84029058023589,-47.191467582131736
2025-12-12 18:06:42.744998,Right,-28.136127401841804,-6.488648465659935,-21.893545264785644,-6.134469784039538,-337.0311527418671,-12.37114835405373,-12.384177688945783,-7.817231799010187
2025-12-12 18:06:42.747970,Right,-11.095777570910286,-30.141675623570336,-41.30358757363865,-14.526599534554407,-343.3376659649075,-19.18134351403569,-24.661230892699677,-28.810320253658574
2025-12-12 18:06:42.751992,Right,-14.199703733436763,-64.15757550887065,-70.27984840743011,-38.985123692895286,-18.988494268327486,-41.25603031241917,-51.87306014116621,-60.021648938476574
2025-12-12 18:06:42.756010,Right,-30.837864194152644,-41.51308889759821,-49.88951863767579,-30.55765875513316,19.954393125895876,-31.033022831979906,-35.27472264357493,-35.55199513910338
2025-12-12 18:06:42.760003,Right,-32.294123162399046,-2.505356486828532,-14.657142148789717,-3.3900493571418338,-303.5029463079409,-1.1012876548338681,-0.25775633129524067,3.5824566290539224
2025-12-12 18:06:42.764014,Right,-19.811761443925207,-16.95676026158617,-25.773437666590326,-6.392494300758699,-380.1469918283401,-0.004978607321390882,-8.053792228194652,-12.065101323620183
2025-12-12 18:06:42.768039,Right,-19.9504046591901,-52.221368219470605,-55.40503568816348,-30.4227941800782,-55.83787982119247,-22.123119285533903,-39.84888573017088,-48.53331898039323
2025-12-12 18:06:42.773043,Right,-33.48270559217781,-35.16893980817986,-39.55778059302247,-25.595247055432992,74.64443429245148,-20.295410744583933,-31.51913155001239,-31.356462531955913
2025-12-12 18:06:42.776052,Right,-33.92527802476252,8.95480343469535,0.4435543289000634,4.202738876541844,-224.22853824566118,4.291984883398982,5.898951947427122,14.466503270261455
2025-12-12 18:06:42.779065,Right,-17.558759836945683,3.03746080052224,-2.828343198634684,7.974857876513852,-387.90285157668404,5.11086028983118,6.536229087447282,10.661277164821513
2025-12-12 18:06:42.784076,Right,-10.708568736794405,-36.550144681561505,-35.99284125256236,-16.759127748635365,-103.53478955727769,-20.092998402600642,-26.961950315453578,-28.016942229034612
2025-12-12 18:06:42.788103,Right,-21.168252709016087,-29.74092657060828,-29.48964612436248,-19.574904797424097,109.8202767278417,-23.358381179801654,-28.852548431401374,-22.31538726290455
2025-12-12 18:06:42.792106,Right,-24.802237848416553,16.795998407818843,11.313163863844238,7.609084598952904,-125.74742595525458,3.5956298283999786,5.751297958107898,21.538931686023716
2025-12-12 18:06:42.796093,Right,-10.988721578207333,21.735119056887925,15.735674926254433,15.846984471281758,-342.58629003784154,13.638974004046759,12.355177598481532,23.606216389482142
2025-12-12 18:06:42.800066,Right,-1.2738877779920585,-17.475685717538,-18.298832348984433,-6.639747330889804,-107.15623772557592,-6.648229324579006,-19.51069816914969,-17.071178644313477
2025-12-12 18:06:42.804134,Right,-7.80148812608968,-18.122533554414986,-18.106260580039816,-9.824157101102173,165.06394540978363,-10.849630084150704,-24.120219354022993,-17.07817383130896
2025-12-12 18:06:42.807095,Right,-10.95027551498788,32.750309029448545,27.855130674754037,24.20191728892678,-15.636902006401215,19.780076107781497,17.48203516326612,35.78289660756127
2025-12-12 18:06:42.812149,Right,1.426751811784925,50.695074391231174,45.15629220640403,43.825090829093824,-298.41275858477456,38.14218033044017,38.85433255202952,55.95830212190049
2025-12-12 18:06:42.816168,Right,8.137733752286294,7.894835287152091,8.763804647955112,20.059922751010163,-147.1762528521358,15.960576328245224,8.533438043348724,15.604532386380015
2025-12-12 18:06:42.820183,Right,-6.493666029768065,-15.052004643337568,-10.406432587100426,-0.013026478656684048,159.98468090128154,-3.4095489764149534,-11.975515086494852,-4.144775249791564
2025-12-12 18:06:42.824194,Right,-20.737008074254845,24.241540188202634,25.813869884441374,22.12276790087344,54.285390238510445,17.727812548342627,19.674167721430422,38.639964664005674
2025-12-12 18:06:42.828155,Right,-12.461753530544229,55.24113827024121,55.62293135409709,48.35031465784414,-259.5738773792982,44.934479880845174,50.783548653445905,72.10930283996277
2025-12-12 18:06:42.832208,Right,1.292614207311999,27.114938267623074,33.02976261897129,35.85871536764898,-189.36205210036132,36.526396292087156,32.40413029647607,44.895528736087726
2025-12-12 18:06:42.835210,Right,-4.181501067127101,0.8371437635069015,10.502469238039339,14.792493337241467,133.7406438876642,18.499777815581183,8.217072298954008,18.599332374098594
2025-12-12 18:06:42.840225,Right,-16.04532092914451,32.28245516597235,37.85465052942163,29.661921409147908,101.28394970370573,32.59190383870737,30.241050378303044,49.66669788265426
2025-12-12 18:06:42.844248,Right,-8.39824506813602,67.72275092678319,69.32175477893907,56.29684903092857,-229.75173073945916,57.4860011703131,61.45326970334281,84.26255322304496
2025-12-12 18:06:42.848251,Right,8.994243897497654,46.22528486191004,51.552909573423676,48.69539665656339,-240.80409288514056,50.258626875816844,46.9200739942753,61.35316938642063
2025-12-12 18:06:42.852214,Right,7.6281268180318875,13.855333135245019,24.0953994798474,25.152393032913096,88.82238044540281,27.558743522997247,17.361085871918476,27.620535313995788
2025-12-12 18:06:42.856271,Right,-8.738704653296736,34.93313102146203,43.09791616667644,31.761121641437057,140.1486762909044,33.42258735488576,30.245699184728437,48.388563713262556
2025-12-12 18:06:42.860275,Right,-12.423295721629984,69.60551599119208,74.19261032402574,54.455267790777725,-186.08852282736916,56.05822049758717,61.04045365474303,84.32975710980827
2025-12-12 18:06:42.864302,Right,-2.528832070311182,49.38558898161864,57.48119441267045,46.33254156890325,-277.9848201335408,50.76580035928782,49.924478919871035,66.68136156543915
2025-12-12 18:06:42.868363,Right,-3.9213364890165394,8.295284090359928,22.002507663244614,18.123107462793996,47.68413090554532,25.36322747307713,15.81880521903804,28.476772496578633
2025-12-12 18:06:42.871347,Right,-18.133856291809934,21.973349179534125,33.568730576807866,20.544139820987766,201.0450030862412,27.019319045284647,22.838142030166637,43.83268013349152
2025-12-12 18:06:42.875328,Right,-19.376073671955965,67.11373659259698,72.33811292026076,50.27849576115841,-85.15292204954312,54.31474240152602,60.66622073556209,88.40770766006608
2025-12-12 18:06:42.879341,Right,-3.203319525469851,64.35042094322853,69.45249053400767,55.691980672047066,-262.8511211362784,59.63283479397069,62.950875736125454,83.76965717786516
2025-12-12 18:06:42.884296,Right,3.769639092250145,25.58144931305287,35.388145075921784,32.56143593935849,4.434693163726479,38.1415391086266,30.547888192726532,44.246856901736464
2025-12-12 18:06:42.888357,Right,-8.109497508405184,30.64439389186009,40.02901606168598,31.0269952422168,215.3968554381281,36.288745926383854,29.287235565541778,50.890198549444904
2025-12-12 18:06:42.892372,Right,-14.504526428143436,77.09892259591288,81.3571328258331,60.86759840751256,-27.51407469093101,63.598737216765585,66.40691123530269,99.83558742295281
2025-12-12 18:06:42.896397,Right,-2.350993489853863,84.14405627759697,88.38001666069613,72.32454180497734,-272.2838142628607,73.25133114905475,76.69723071259068,108.13412843964034
2025-12-12 18:06:42.899411,Right,7.048255667315971,43.837642162267,53.58570830127428,48.92080460205034,-60.864266981952824,49.00132889157612,44.480759251124255,67.4360938095706
2025-12-12 18:06:42.903418,Right,-0.11743846094759647,37.16215126694442,47.746497925058065,39.29654422255771,216.2023106306733,37.02416326222192,33.774460147738864,59.77027002361865
2025-12-12 18:06:42.907443,Right,-3.115827424226154,83.20454212870027,87.8900404261367,67.07100964677011,51.032827743154485,61.50952576312011,68.92572423866659,104.67839101094069
2025-12-12 18:06:42.911442,Right,14.06082228442392,102.5768626963436,104.61792244922617,86.27082550605337,-233.03888405158068,79.79670676324804,88.11964132136927,122.1694572009801
2025-12-12 18:06:42.916442,Right,31.605062371658278,65.43906018744019,71.78050902978794,67.16490299037196,-89.76526726252632,61.966144759514464,58.69140848729512,82.27136039963261
2025-12-12 18:06:42.920449,Right,29.76680668845802,48.28070529151228,56.751151328116975,52.731323369187976,224.10857956120162,47.17362725837302,39.63669989639675,62.55322921970037
2025-12-12 18:06:42.924475,Right,24.02719424742827,91.54059179184696,95.36922327669708,78.74073143538749,127.45427914863103,70.3935292029546,72.53097987866477,104.46769666123441
2025-12-12 18:06:42.927451,Right,33.80320231926453,122.81265014587461,123.79425876379901,105.71039135514457,-196.1982616316527,95.814585020913,103.15423324027233,135.50202360212597
2025-12-12 18:06:42.931472,Right,44.21125626794674,89.63803043654161,95.11497680111097,90.26549064067513,-138.50033196178265,81.87266853606889,80.57076706880889,102.6572569220516
2025-12-12 18:06:42.937484,Right,33.791439254186116,55.61389413189045,64.86570924525552,64.22547829622818,198.09244858569582,57.46935876120551,50.08393959571504,69.24462500418849
2025-12-12 18:06:42.940505,Right,17.358037961752416,82.58565180170899,88.23683021295346,75.86727524352318,191.30387322699244,68.52561003058145,68.7404005465969,96.69958751144077
2025-12-12 18:06:42.944502,Right,22.568423517383053,118.64065014277003,120.67013984428377,102.77793627870778,-140.33517989623942,94.51441668308689,101.32938895315601,132.62816226244104
2025-12-12 18:06:42.948482,Right,40.68862757860916,97.4712529851513,103.61997559831798,95.83462597478137,-174.6697123486956,88.35312400310067,87.99573252953451,110.93236026631348
2025-12-12 18:06:42.952562,Right,41.749554543566774,61.02525455252908,72.56705142764622,70.00587260303291,151.94163841064437,63.630149243013875,54.991150918964195,74.30130580357581
2025-12-12 18:06:42.955549,Right,27.14477391816763,77.86703991700779,87.02346470247358,73.50718970298476,231.14877491892548,67.18674777420892,62.99885295525746,91.48481725571764
2025-12-12 18:06:42.959510,Right,24.532471207763592,113.77983121167927,117.4631717039374,96.3910987054951,-73.72894606315094,90.67902607643919,92.89693669609915,127.5987809620201
2025-12-12 18:06:42.963630,Right,36.54887540068921,98.17872115259888,102.55795513569683,91.31101074396429,-171.05146729449916,87.69707538223156,83.97271179092422,111.61446757367958
2025-12-12 18:06:42.967649,Right,38.06636256557613,59.37804430838878,67.30629236673849,65.39625882753171,147.19370656466344,62.82962850591866,50.838561392629344,72.62852949541411
2025-12-12 18:06:42.971597,Right,24.758468680400256,72.73800293971726,78.16402011064201,68.50050648098113,307.5557142791149,64.20418334507849,57.627717352363106,87.24948887551727
2025-12-12 18:06:42.976639,Right,20.620979455170527,117.90340364876465,117.8138358201104,98.59076292320242,20.2778100861251,92.72114136556047,96.60868497152842,135.0634441317452
2025-12-12 18:06:42.981643,Right,30.666733315157217,113.06957649094693,114.19145308475709,101.68170051522611,-179.91077597825642,97.85072183853481,98.76503144301387,132.72472875120002
2025-12-12 18:06:42.985631,Right,30.077407494922227,65.3531656610503,72.53511766707379,69.60444843847654,72.42196582617908,69.78302200176404,59.62612236996938,86.15016164199915
2025-12-12 18:06:42.988651,Right,12.405486167852814,58.49081304910942,66.09503713568847,55.74677108360629,299.32902936203027,57.70658372896287,47.82523549814505,79.39885623945156
2025-12-12 18:06:42.991674,Right,5.648810658941329,99.92343244527001,102.17099921281624,78.90686337229272,79.06416569128305,80.25555482057825,80.13443615305005,120.86554072395666
2025-12-12 18:06:42.995666,Right,23.070306477889517,110.35618629921373,111.43378230632516,92.21998815851111,-167.09687482443405,93.87636264433968,94.21047642836493,131.67688893676677
2025-12-12 18:06:42.999681,Right,38.29047667335294,72.69282439265953,78.09394225110009,72.18276028226683,30.263273820018185,75.65932476897433,66.86371487762517,94.65038423211081
2025-12-12 18:06:43.003719,Right,31.30234499011931,61.48652035986743,67.11351914794068,60.406622832626454,305.5209077448103,64.62745184111554,55.35908300347364,83.99797673859575
2025-12-12 18:06:43.008688,Right,21.85254782996526,100.18445582049026,99.68880226938927,82.12672705197474,142.51640476655666,85.70670369952131,86.4223709189464,122.37903550101328
2025-12-12 18:06:43.011648,Right,30.669157177403576,115.98930336316698,112.5686010200443,96.91286981403391,-155.24817768253342,100.99343323486391,103.62496060227568,136.17560346490063
2025-12-12 18:06:43.015710,Right,41.660216046370806,77.14008983421081,77.85086546401726,74.7470094293094,-28.129400492893183,80.29595693579176,72.6923629644225,94.08310410277045
2025-12-12 18:06:43.019692,Right,34.09275892928963,54.33435668160382,57.81463932404586,54.099409531540005,293.06669576887725,58.47958480282978,47.15724095518817,68.76306999284134
2025-12-12 18:06:43.023750,Right,22.724721283588224,89.91993187300977,90.4653828675946,71.74028958960844,215.19584922858485,71.787248693945,70.31624008444487,104.04047971368709
2025-12-12 18:06:43.027788,Right,29.903942518807526,118.30496714558103,118.26300571746833,93.94380667513178,-111.34286068584333,91.11336354294326,95.0796345337003,133.61731449099898
2025-12-12 18:06:43.031777,Right,42.72597533080079,87.19686361041386,93.79845407226821,78.20097777493356,-74.15893601720018,76.7297107578197,71.7022495111305,103.4724629392731
2025-12-12 18:06:43.036736,Right,36.92214115733623,54.45719122518494,66.35637761534599,51.604391469445545,258.227025299675,52.58243172647781,40.433008099818835,70.74312587271561
2025-12-12 18:06:43.039773,Right,22.792136770782236,79.10182683635503,87.7730456411955,59.383049125710386,268.61345800259005,60.615243551685126,55.309926262212684,94.58078880269022
2025-12-12 18:06:43.043794,Right,27.239097856108856,111.10798583093856,115.14453963426058,80.85005172308593,-50.80565573969943,81.54203531150415,82.69062177462911,124.94440047806711
2025-12-12 18:06:43.047801,Right,45.4765457066278,87.56411654714611,93.91118272182939,71.27336876801564,-84.90800584489625,72.57907640845224,66.27819108541007,99.25039036212547
2025-12-12 18:06:43.051833,Right,50.63789018194802,53.10199223822565,63.38021957057936,48.936957488185726,247.53616280603455,50.42820424225647,35.17135782787227,63.31864270076039
2025-12-12 18:06:43.055833,Right,41.89764277730865,76.63707198627526,84.12898145506915,61.51867584744468,335.17615687602665,61.255125153271365,50.06171249039471,86.74930666023283
2025-12-12 18:06:43.059840,Right,42.461883133517404,120.18991745761014,122.71426494511252,94.4930937802419,14.239682747414918,92.78634170693113,87.89843808686419,130.63442545910948
2025-12-12 18:06:43.063791,Right,53.1850355177412,106.32100762378832,110.46004277832981,94.13128320853866,-123.20531343732728,93.60784300627711,81.56228905192984,116.36805163790996
2025-12-12 18:06:43.066847,Right,50.58735987160617,60.48758725229709,69.12359355074295,64.69994684113772,169.84633953678713,65.8596023182763,42.63682211689593,69.75656227755826
2025-12-12 18:06:43.070874,Right,33.82875747431899,64.26224745040236,70.96041312158923,60.620377829429344,340.18866549212544,60.763783734000754,40.18450429436052,73.56481554749189
2025-12-12 18:06:43.075906,Right,30.267802615759138,105.61680904800596,106.73619289371709,87.34280470667,72.12094782352506,85.2732789383881,74.46358138989308,116.09130990739504
2025-12-12 18:06:43.079930,Right,45.941372595258144,103.63381039828528,105.67775332492602,93.64812297170283,-124.00927534008224,92.13583438913338,79.26377350870462,116.01290699194942
2025-12-12 18:06:43.083907,Right,52.96370785036197,60.39702876347292,68.56866872067621,68.4197119827877,128.67341567974654,70.15646354315686,47.05143913695065,75.31054506120563
2025-12-12 18:06:43.087876,Right,38.77613504062538,55.92550018214388,64.83964509733778,60.592745031783124,364.7515537489089,64.6657405267324,42.09560569137102,73.6989894505823
2025-12-12 18:06:43.092949,Right,27.39182942338448,96.76449356030207,100.4993331564765,85.98871532737394,147.30351519228134,90.36594175219943,77.78872663299262,116.46919331753452
2025-12-12 18:06:43.095889,Right,34.81244568116381,103.28773872101738,106.09763684324571,97.14823372571846,-111.72590464701352,102.05155314061267,89.80713282310171,122.87389237883326
2025-12-12 18:06:43.098952,Right,41.498215787541994,59.62944703626272,67.59243976023572,72.85145736996492,80.01783775769582,79.38612460979493,56.13653039649944,77.34562951691623
2025-12-12 18:06:43.104972,Right,30.85708072592388,44.40248042458552,53.92045839726052,58.45740153863153,373.5373911038332,65.93063192869886,38.582909076911164,59.745085996197304
2025-12-12 18:06:43.107976,Right,20.060045310630812,83.92401641774632,88.63602538460691,80.67994304017338,228.9698540324316,87.82372498985205,67.55521821833099,97.44270053146465
2025-12-12 18:06:43.111999,Right,26.113105320786417,102.55157329940994,105.61039822938619,96.49234591031563,-76.25583120170631,103.7162226686487,85.44187593522656,115.33106873951328
2025-12-12 18:06:43.115949,Right,32.365697274515696,63.16904365677328,71.72321386558178,72.34631847724086,34.29799976781942,80.00731667026412,53.95890511534526,76.41550111865217
2025-12-12 18:06:43.118960,Right,19.83552451327705,36.101671081079985,48.073744782217545,46.84350405575242,360.26296571511193,52.85075117336237,25.552907864257577,50.61331687583879
2025-12-12 18:06:43.123013,Right,5.1552555140369805,68.70454730984056,76.56515073418268,60.66296992856951,299.97715965050156,63.03920395136811,46.81964889726078,84.4435161217989
2025-12-12 18:06:43.127026,Right,12.315777903102571,98.65856739273295,103.30113526222704,83.37974090706848,-26.69611831055954,84.01937682932476,73.73277637327556,114.94630387962388
2025-12-12 18:06:43.132032,Right,28.930118819582276,71.60214505420299,80.45095418077835,71.87949034273333,-6.559128242981387,74.30553245976625,55.47715471232368,87.78372294307337
2025-12-12 18:06:43.136037,Right,27.998458477843087,42.139113993544015,54.984114438688266,50.096060229756404,317.0326368853566,54.24687427499157,29.054136443548487,57.89285498444224
2025-12-12 18:06:43.140003,Right,15.125712167580787,69.15475219530344,78.13598346785875,61.25088489279733,325.6109325447469,63.965850374719594,47.492663828103105,84.10578494610672
2025-12-12 18:06:43.144063,Right,15.177785493004194,103.07587718688592,106.8490937621682,84.17463568494713,-13.914964953903109,84.2627210560895,77.78167692574789,116.50334136449965
2025-12-12 18:06:43.147086,Right,25.205434790230356,77.973429607664,83.78203208596096,72.34749756904785,-83.12341559072956,71.47033276458387,61.73524349137733,89.40347602358088
2025-12-12 18:06:43.151093,Right,21.187113225510984,35.88369851431344,46.01132903850521,42.11348092390108,234.21817696088692,40.97885573927488,25.908995641962974,45.90975794689439
2025-12-12 18:06:43.155101,Right,4.49690094813559,49.37448214839969,57.406315527667175,43.346184372887365,336.48927475808887,41.01677041930088,33.41801331106399,59.33155356267525
2025-12-12 18:06:43.159114,Right,0.12439093812281499,86.43735017767176,89.98985303142399,66.51699192701199,29.20331922263722,63.68335619996651,66.55145993198676,97.07149085128913
2025-12-12 18:06:43.164130,Right,9.642870911171485,70.46442626007774,76.1279273381806,60.155249731906224,-113.57089064561296,59.17376767442329,59.50744417012902,81.33581056988623
2025-12-12 18:06:43.168078,Right,7.791571799760277,23.779834464818123,34.87615175024257,27.005032024360844,174.65217070374638,27.854977404072997,20.769416097478825,34.014218494907254
2025-12-12 18:06:43.172146,Right,-9.765016824792838,26.67413551871141,36.921946231945185,19.649919264629716,353.6199331493699,19.445193589199334,17.077313854941167,35.615044480000506
2025-12-12 18:06:43.175188,Right,-16.704478668383672,68.26843430678127,73.4422420810588,43.50641051384446,87.79305496974848,41.3549524343689,49.359263329432,75.2820393324364
2025-12-12 18:06:43.179167,Right,-3.508522481060936,67.37170277922996,73.19690204615472,47.800160986051196,-124.86238295395742,46.69370830495609,52.40763146520476,71.95397385513934
2025-12-12 18:06:43.183187,Right,5.214832021847542,23.78600648495194,35.193193601153325,20.643654102634173,116.02056573826121,22.694250078187906,17.947826907824492,26.276347353690653
2025-12-12 18:06:43.187210,Right,-4.203065489549772,18.117247967762523,29.82166965880606,11.037647539371392,363.4799506002455,14.175203537437483,10.690198592623346,19.535478805410094
2025-12-12 18:06:43.192150,Right,-10.227668860585254,61.27782498206943,67.3264145457797,37.37586225049745,157.2145116184547,39.087068223176175,47.29926740258816,62.03552078384382
2025-12-12 18:06:43.196228,Right,2.423447300112457,73.89137874316657,78.50532387684507,52.51477594352036,-116.9077987872297,53.791162699621054,63.64076831500279,73.27483583228604
2025-12-12 18:06:43.200237,Right,13.647668861449347,33.742454885083134,43.28780917158292,30.519547854011762,51.74782095759292,33.1515324657812,32.15766159273335,30.914537272488815
2025-12-12 18:06:43.203265,Right,5.896549752011197,16.266470587608637,27.322802784809028,13.771881371707423,344.602513510501,16.184865942501347,11.498772428574739,10.966211794118863
2025-12-12 18:06:43.208255,Right,-2.765613625299011,52.647273845024756,58.34136673178,32.65947029629024,211.7471901086974,32.06250859335705,36.14949081881787,44.43519094371004
2025-12-12 18:06:43.212274,Right,7.640115169160708,72.21476649069518,74.80739808626822,49.17623105512757,-96.96649010232068,46.16205115785124,53.447853967911215,59.94348139547219
2025-12-12 18:06:43.215281,Right,22.2584197284159,37.21630202990491,43.44459021859802,30.32584794581635,0.8658326622098684,27.352125589721254,25.619134088075953,20.233743785473052
2025-12-12 18:06:43.219337,Right,19.71882219658437,15.44805544646806,23.580402465886436,11.859081742048147,327.29129812365863,8.532977290800773,3.333955472044181,-5.055804635048844
2025-12-12 18:06:43.224338,Right,11.728456107492093,52.93566749423917,55.907272173280944,31.246510296259657,271.9109431654506,25.37895757005026,31.205164963626885,31.346588572618202
2025-12-12 18:06:43.228356,Right,19.808418633132533,85.06106033350807,83.8026152352686,55.40210273890989,-69.30155250278767,47.58284724946134,62.032286693603965,64.41712674315204
2025-12-12 18:06:43.231310,Right,32.92771226893092,53.693202955590095,55.57409846918017,39.422945695056114,-71.52905825723428,32.25266079789435,41.31102808624564,35.01601412748278
2025-12-12 18:06:43.235334,Right,26.3556044773577,13.521440855212859,18.650919552295818,8.358896948295296,256.9952673499938,1.9765842331617023,6.244181528149056,-2.7733413465466583
2025-12-12 18:06:43.239342,Right,8.289156398241175,30.887430241782567,31.96384269394912,11.083644502796233,297.08750661148224,3.679957897460554,16.55837676145893,16.88099149997288
2025-12-12 18:06:43.243356,Right,7.067522344790632,63.3857162885688,59.711428876631544,32.03444943459181,-21.944630942074582,24.41742001415696,46.04020121236681,50.97787844346021
2025-12-12 18:06:43.247380,Right,20.812307484142366,42.45007292137598,42.116455314375344,23.484946726239286,-94.80297427330515,18.816603912608116,34.823113821053994,30.999919079622487
2025-12-12 18:06:43.252365,Right,22.246773027291056,2.9425872609572252,8.898976601369213,-3.467474901699461,220.036042328662,-4.869805465066747,2.8293302450329065,-7.3395214036427205
2025-12-12 18:06:43.256400,Right,9.286711930551974,17.201475180700072,22.744673769324436,0.02648039305495331,329.8998513701372,-1.6346639490511734,11.623020688522956,8.72977478854591
2025-12-12 18:06:43.259393,Right,7.086306960423826,57.55518924271746,59.202478838618845,26.939367820799816,16.51150390377734,22.709764647879638,46.48414703151502,50.65812278749945
2025-12-12 18:06:43.263406,Right,19.4302052744315,46.156294357730076,49.73481311026262,24.86407676726958,-150.32753568244516,19.745168003624713,41.42938201641664,39.39756079163635
2025-12-12 18:06:43.267421,Right,21.978361744535505,0.3313894080056343,9.177401194669073,-7.1260443620121805,128.08307391984272,-10.835401560638275,2.341136481743888,-7.791418653388973
2025-12-12 18:06:43.271406,Right,9.675952897654497,1.6817203354439698,9.423495525479666,-15.585257419203117,323.7291469996853,-18.208851974668505,-2.147230060523725,-8.496579332771944
2025-12-12 18:06:43.275404,Right,8.058353990796604,45.64201766450424,47.364597449006396,10.212543981208,66.916302510479,7.4252885243840865,33.59610189156956,33.14192926287069
2025-12-12 18:06:43.280448,Right,25.81845995096228,51.15860398160294,52.153854934716946,20.77978035709384,-168.05406984567526,17.877391229529167,43.10307608352741,36.14067800203338
2025-12-12 18:06:43.284486,Right,37.2097572604107,11.574897568003507,17.153889579116367,-0.5533751077164197,45.54198448883835,-3.731048832065426,11.419671765426756,-5.451872665536939
2025-12-12 18:06:43.287483,Right,27.991008316101215,4.827327273058472,10.026510975483689,-8.61157389201253,288.49577901966404,-13.565708256704966,0.6626795315678464,-12.908853588582133
2025-12-12 18:06:43.291494,Right,19.888135188775777,44.94978748584981,43.40253410002333,15.407069452492578,83.94459143621498,8.512079832915333,31.122758163357503,27.203366735193413
2025-12-12 18:06:43.295504,Right,29.113960490532918,54.60816242759756,50.18565086668241,26.087209457087738,-204.7802407182753,19.93875897736143,42.27766782555409,36.23434848274337
2025-12-12 18:06:43.299528,Right,36.97275199736032,10.698734911886277,10.233218065070105,-1.3932957567812991,-49.36090315187175,-4.798733581599663,6.956137442131876,-9.07497620866343
2025-12-12 18:06:43.303471,Right,26.762217027637234,-10.37538139692333,-9.769243084432674,-22.89411508914054,256.8748334328993,-25.464738982416748,-15.989273027262243,-31.584486334279063
2025-12-12 18:06:43.307525,Right,17.136699051770847,26.610704380407697,21.080001175956568,-4.876196524979605,146.42942188421148,-9.79794317780761,10.200911341235042,3.9159127118473407
2025-12-12 18:06:43.311609,Right,28.464657747535966,51.32977252837736,41.30357888486469,15.427745846413018,-163.948159006919,7.817452228526236,32.73420591148897,26.408857452428492
2025-12-12 18:06:43.314613,Right,44.26609543678205,19.678498049805057,12.16743978188606,0.6916436200262979,-82.75940763368271,-8.142303485336015,8.399817879806506,-7.867365546742803
2025-12-12 18:06:43.318613,Right,39.95915724532097,-5.208089378967998,-10.856628336041467,-17.649053517227003,246.00204662694887,-27.8324318542509,-16.28636762934184,-34.0254863144437
2025-12-12 18:06:43.323603,Right,26.218175158443046,26.026868393164477,16.14215702858928,-0.8493711167247966,210.39899725912255,-13.094422989990562,6.194977634528186,-1.365700157963147
2025-12-12 18:06:43.327554,Right,27.549476099040476,53.99019938209676,41.565506576240296,21.987817564171564,-124.39018726364884,9.770615386256395,34.024189839401515,30.464357398428547
2025-12-12 18:06:43.331612,Right,37.06566694236972,20.781785561528523,14.221896444025333,7.159605480796017,-136.59419364112546,-1.2917758340845467,13.99642786604818,2.629078526639205
2025-12-12 18:06:43.335615,Right,31.480674282298423,-20.33206650565262,-20.07273024141614,-21.16698320928117,190.46177976155013,-25.16840292548659,-18.226710058203025,-32.461762883060146
2025-12-12 18:06:43.339619,Right,16.92044912896381,-1.730828474770533,-2.329545186876203,-14.167210619729303,238.03633307716518,-16.891244237958745,-3.8023011018085526,-8.55740939185489
2025-12-12 18:06:43.342650,Right,18.611121623427607,34.52205324832903,30.717782959836768,12.016650387835398,-89.85231012816075,7.747981034899567,29.41826113066054,30.400565119583916
2025-12-12 18:06:43.347662,Right,33.1693522538917,15.854984101672017,14.972750167158665,6.4562966027988296,-185.71129764427315,0.5709996758087073,17.822471504339774,11.124841627679416
2025-12-12 18:06:43.351668,Right,33.14216029139061,-26.54186662302527,-23.045626442530192,-22.93910174708435,126.63728589212405,-29.776189324675215,-20.511864453925227,-33.5845791550455
2025-12-12 18:06:43.355660,Right,16.670163939161284,-17.746412374246574,-17.403875711628643,-25.586833324239706,263.5688334857841,-33.02082042171969,-19.68899705711374,-26.369694802015147
2025-12-12 18:06:43.359637,Right,10.45832978447288,20.568462361195998,14.239554448380659,-2.2858094289877045,-27.646734954061685,-8.319371578210848,12.734290641026746,11.844430293989717
2025-12-12 18:06:43.363709,Right,20.246626682237547,11.826138005773828,5.536989119864302,-1.8087776623106038,-199.28964651064598,-3.3933566051018715,12.15784820819681,3.297241012995073
2025-12-12 18:06:43.367709,Right,21.03314863031119,-30.721636541631597,-32.30294309916644,-27.946184192485816,68.52294494355738,-25.407458804909766,-21.37551120074204,-39.95415368873364
2025-12-12 18:06:43.370705,Right,5.182169111270923,-27.944560753872793,-30.35457237537048,-32.02142697439194,267.11305962558254,-29.944089063385036,-24.050771884358255,-38.83645915496891
2025-12-12 18:06:43.374723,Right,-2.2678905380307697,16.380350723702577,8.218131303547125,-5.424855446020956,11.03235665052489,-7.120563274493179,10.452852503585746,3.4164355101893307
2025-12-12 18:06:43.379736,Right,9.778070888278307,20.698975922634418,11.87231865569629,1.8958285706939932,-238.07196826065774,-1.7444210450794344,17.387449883644877,5.771117744494404
2025-12-12 18:06:43.383759,Right,17.250781369642937,-23.370489127526525,-27.292091815332242,-26.608143420784472,-30.798016911328887,-28.89665745606726,-18.56437981408817,-39.64538272641221
2025-12-12 18:06:43.387710,Right,5.083277468867891,-35.71115335504874,-39.17402001186565,-42.728514597634785,232.75996360632416,-43.686938846574776,-34.20732353693165,-52.34268839355718
2025-12-12 18:06:43.391785,Right,-5.349013686929538,3.2798751615555375,-5.9545690139057115,-21.79007146120057,52.24207402553293,-23.210508294526335,-4.992527343092661,-12.955006706062704
2025-12-12 18:06:43.394795,Right,3.557048753653362,17.15905300364102,5.635444102299516,-6.944124260762692,-238.42050543500955,-8.582883726934597,10.104229848911928,1.3318543849927664
2025-12-12 18:06:43.398794,Right,12.95882528337097,-23.074381169069966,-30.52223977336689,-27.856377827654796,-97.69101274589048,-28.320264059036163,-20.48551349014815,-38.78982693141006
2025-12-12 18:06:43.402873,Right,3.217686455427611,-44.92323088462581,-51.29807341049309,-45.86877762999575,209.05731842988462,-45.50733667117311,-41.5450883878766,-60.16917003924755
2025-12-12 18:06:43.406829,Right,-9.40233118996548,-10.594336842033954,-22.604416523128748,-27.61321465506626,105.72819079933106,-27.417744441472223,-14.50182211829815,-24.112840016816335
2025-12-12 18:06:43.411894,Right,-3.6786199105190462,11.880796041150461,-2.8682679192716023,-8.40634617096839,-215.58091903606692,-7.43408351639664,9.700163221616094,1.3650336871396576
2025-12-12 18:06:43.415863,Right,6.695656145122484,-23.62214719579788,-32.766515948373126,-25.93187260211016,-152.38576853970153,-23.13434019229203,-14.80314619757337,-30.95758516722708
2025-12-12 18:06:43.419867,Right,-0.6575596893817419,-53.755719750701246,-58.016514476061275,-48.55235728876687,181.3801428189472,-45.99170713150335,-43.140999959749024,-59.13793805462046
2025-12-12 18:06:43.422884,Right,-13.964491095364792,-22.948422515251877,-30.453147581276426,-33.42978995087469,166.49983569114556,-34.04968286458893,-23.132794113127602,-28.42265978553405
2025-12-12 18:06:43.426849,Right,-8.64552174131677,12.952891489811009,1.2662620018381858,-6.580587905087668,-167.13613469557458,-9.559474130409399,7.811157516396634,5.56371151060921
2025-12-12 18:06:43.430886,Right,6.602091345681401,-10.112119643206825,-19.024603020312497,-15.490299455465902,-199.61946939258996,-17.204448771060015,-7.362322477547423,-20.04940189042827
2025-12-12 18:06:43.434917,Right,5.094543777755462,-47.10803147357365,-52.29773217378897,-42.541656443300326,120.58039834532246,-41.36237563085251,-39.89155595059128,-58.96035419101827
2025-12-12 18:06:43.439897,Right,-9.082989818278293,-30.08436275495842,-38.87705897817068,-39.545666502591985,185.76085360115394,-36.590868738994686,-30.505487287180586,-42.89149827330766
2025-12-12 18:06:43.446890,Right,-9.162066496908665,4.948931589318818,-9.482233263577655,-17.26660317389053,-128.3582647296098,-13.294613722289796,-0.5273702089471044,-8.249861960577618
2025-12-12 18:06:43.449964,Right,4.590134629783279,-12.69266617759422,-25.618546480600344,-22.95864739739801,-227.75231260769215,-17.844332435816796,-10.697051349099638,-25.94355114944028
2025-12-12 18:06:43.452970,Right,6.159017128215055,-53.78384351202476,-62.04425006055317,-49.38728831456865,85.96416405045966,-44.54621699621748,-45.4546880139751,-66.75730959914836
2025-12-12 18:06:43.455961,Right,-6.737804520133068,-42.146952053277346,-52.104070684752514,-46.74524327880363,237.89410052215862,-44.66584551239612,-40.24324629957482,-54.841332331997364
2025-12-12 18:06:43.458972,Right,-8.176820489934471,2.8377714795024076,-12.243771222478244,-16.275102685987804,-50.86560247427224,-16.646597868821118,-2.1722682142499252,-10.157844734419996
2025-12-12 18:06:43.462976,Right,6.69399957798305,0.6825259281122271,-13.016150045146787,-10.411493643083304,-243.32518943573632,-9.646380705942647,1.2830838356148888,-13.32067300957442
2025-12-12 18:06:43.467016,Right,11.461242908677377,-41.73770123027862,-49.28435698581234,-37.202981370079215,11.710634839401791,-33.22244130204308,-33.95166294842238,-56.68906043730408
2025-12-12 18:06:43.472002,Right,-2.6461880137067055,-43.98306645723642,-50.93528225336922,-46.012503868402746,227.0420371334526,-40.81189466616888,-41.92283163720276,-58.81507880526647
2025-12-12 18:06:43.476213,Right,-10.181152767152525,-2.3278375450954627,-14.10705747818065,-21.496160335231252,-8.834974433889442,-17.409051981872835,-9.453284506946147,-15.893235428873295
2025-12-12 18:06:43.479116,Right,1.640435516143043,4.112970854239393,-7.921936457811171,-11.010674894858312,-261.5954693173021,-7.331861799571925,0.4722582537215203,-7.984540034579936
2025-12-12 18:06:43.483089,Right,10.361306263956067,-37.38824585371003,-44.336186490707405,-34.687504117425306,-64.38640681109064,-30.213918870875204,-32.04854461713148,-48.66321716704692
2025-12-12 18:06:43.487064,Right,1.1759764505113708,-48.837980018353846,-55.51173727361129,-47.33861899054318,208.54194924686817,-43.54201727502914,-45.97288284003298,-59.96314947176052
2025-12-12 18:06:43.491096,Right,-5.929060463800852,-8.23087783255869,-21.48814136001056,-23.8712665995954,43.21840989090197,-22.596632342900193,-14.104823241379563,-19.438336442063246
2025-12-12 18:06:43.495046,Right,5.5483497415989405,8.65380523557451,-7.768656918820852,-6.941708063761325,-251.21094087149504,-7.107297363798352,5.673545354732596,-2.365415068862603
2025-12-12 18:06:43.500164,Right,17.45800189856527,-29.797258494808375,-41.93254367081863,-26.969617022563398,-121.278839817478,-26.737173348112265,-21.000335335031195,-39.81794682530199
2025-12-12 18:06:43.504111,Right,10.942876214248827,-51.76228864607583,-61.25496130648753,-44.99587111120127,194.07684057125516,-45.27483900520019,-40.95498746742942,-59.85376804134921
2025-12-12 18:06:43.507147,Right,2.145210954869981,-16.15812238509716,-29.60548742071842,-25.400250140699427,109.39732808076951,-27.837948840464378,-13.808271274835533,-22.396274565276144
2025-12-12 18:06:43.511176,Right,12.229535117345222,10.490094644538345,-5.259355926259559,-2.6876738640403346,-212.55116564320633,-5.903573577394127,11.274734828435612,4.47530152125637
2025-12-12 18:06:43.515160,Right,26.725807690250804,-22.127191599850903,-32.91136481508147,-17.757962578807565,-164.42298890320308,-19.11957550040097,-13.74963450128189,-29.846547147546516
2025-12-12 18:06:43.519172,Right,21.2024156033076,-53.97223272137671,-60.36147693437215,-41.70649917907576,170.48782696117632,-41.762022809336486,-45.64781724297245,-63.729088172634874
2025-12-12 18:06:43.523209,Right,6.649167928517272,-25.776946288433464,-35.017094602147154,-28.927049456693567,173.12981930142996,-30.696624589119892,-28.469900434597093,-36.18323909967694
2025-12-12 18:06:43.527184,Right,9.721296478623117,11.340741435016753,-0.877836129096977,-1.0920671068906813,-155.87682997743832,-5.465251688732678,4.412686975575525,1.7039813504743506
2025-12-12 18:06:43.532155,Right,23.921705497192306,-8.479204546423716,-16.13885322364149,-6.376328818436377,-200.00356884707435,-11.358337567748094,-6.384817017350542,-16.956884534016353
2025-12-12 18:06:43.535160,Right,21.828078838625515,-44.49047274378154,-46.38868875948219,-30.999177462988882,119.32065146102832,-35.392364783241646,-37.096909654413935,-51.926623952291266
2025-12-12 18:06:43.539222,Right,5.476687182508613,-27.742286728205727,-31.593852757642708,-27.131974821344556,197.41974471887806,-31.653261279152503,-28.152997850181748,-34.155108805282
2025-12-12 18:06:43.543247,Right,1.6976064169684832,9.527538984382772,0.8076312132843668,-2.8910468867325108,-121.04278064040409,-7.007724624632829,3.3946229296460046,4.090006615679158
2025-12-12 18:06:43.547228,Right,11.672360117718199,-4.717700039152987,-11.755601888791716,-6.121858692404203,-251.58999193202908,-7.337206406413316,-3.235612938699205,-9.349788117458957
2025-12-12 18:06:43.551246,Right,9.38050513012422,-46.31237656077428,-48.34839810082963,-33.42090341556832,36.32825734114158,-31.41644083580104,-37.37589738542806,-50.106404792604735
2025-12-12 18:06:43.555285,Right,-8.389378939024027,-39.75589163845325,-42.720463560159004,-35.67983238279521,189.28553689962428,-33.966038816666696,-36.22706278109649,-42.3730073553761
2025-12-12 18:06:43.560264,Right,-15.102218422027363,-0.5332248104041355,-7.753335029516734,-10.588789811732568,-90.89520922448719,-12.044056339007511,-3.241456435843247,-1.6002918256872363
2025-12-12 18:06:43.563295,Right,-4.024519673588657,-7.501919919768625,-12.509564661127001,-8.306848881606129,-284.0002092588402,-11.884271044811612,-3.011884352813013,-6.655775403098232
2025-12-12 18:06:43.566307,Right,-0.6294643352557614,-54.70757001146194,-52.64219459525157,-37.67130395123422,-21.90590520344267,-41.25939020973601,-40.000077066933045,-51.57083923072605
2025-12-12 18:06:43.571302,Right,-13.952501949883299,-59.40708370414541,-56.04024153201544,-47.71232632772444,218.98178707696934,-51.33276058074989,-47.60888694455207,-54.093377615647114
2025-12-12 18:06:43.575366,Right,-18.820732859549025,-14.089681882087461,-15.543841131966929,-20.916227844596506,0.11133532099484,-25.021570725726633,-10.510964469043756,-7.5976174385777995
2025-12-12 18:06:43.579332,Right,-3.2722341756307287,-0.7655049048335059,-2.777060110911407,-5.59329872629678,-265.7079975025117,-8.933072508607438,6.482002498974907,5.753818310638962
2025-12-12 18:06:43.583346,Right,7.571955823448661,-40.54275986417633,-36.992228022856125,-26.869017360781072,-85.67080461290607,-28.620655525199254,-22.67735659380469,-34.17240056316041
2025-12-12 18:06:43.588353,Right,-3.3620155780372443,-57.471101447288675,-52.01131658851364,-41.71090468765942,198.9632985703356,-43.64649217556507,-39.19134868448327,-50.57631386273715
2025-12-12 18:06:43.591345,Right,-13.9222890485471,-21.363330548232625,-20.324127140373093,-20.306839048796974,59.16877962381113,-24.068047276567086,-10.124259281531522,-13.642656973610428
2025-12-12 18:06:43.594360,Right,-3.2801152935608116,-1.8511754597238905,-1.7499121592509255,-0.9720295042116049,-231.38510810767184,-4.771213184503722,11.567589256440442,6.063962533044105
2025-12-12 18:06:43.599378,Right,10.116350568056077,-35.26812488683572,-28.40578765328064,-17.414581976512636,-115.4102364052087,-18.419489938562037,-12.189292806255253,-28.021508286110475
2025-12-12 18:06:43.603385,Right,2.7397376331791747,-56.13189287820205,-44.10182624413392,-35.89564049884939,196.2454622030782,-34.57469204958397,-33.37477232378569,-49.89307325444679
2025-12-12 18:06:43.607417,Right,-11.510639512682246,-21.89145290939632,-12.166515233426253,-19.984512488097607,115.03779976420628,-18.944474767060456,-9.616473023432263,-16.577279603159695
2025-12-12 18:06:43.611443,Right,-8.673553342636296,4.3101026171279955,12.101174796561281,-0.3932635363271402,-219.26903563647647,-0.14926868023030693,14.173659802378097,8.916633614226157
2025-12-12 18:06:43.615372,Right,1.3739845269592479,-28.729271874311962,-16.203334485378946,-16.692612186630868,-189.54670536640333,-16.06306483834487,-10.004458665453967,-24.257089933988027
2025-12-12 18:06:43.618385,Right,-2.9193983895456768,-60.9048543637291,-44.25237677552741,-39.517917353936355,151.18413208200946,-39.37243742803912,-39.71795220899003,-55.726890020730934
2025-12-12 18:06:43.622445,Right,-11.019121729012113,-29.113809427486558,-15.924902368952644,-22.20207278327689,177.02681609727733,-25.089960920948215,-17.646574066346147,-23.062312430982274
2025-12-12 18:06:43.626462,Right,0.3291859863238642,15.713866208170657,24.766615400704723,12.001652971661315,-147.7762239004951,5.92855062433955,22.089080206242215,21.840846791052172
2025-12-12 18:06:43.631467,Right,21.05011947516323,1.6738658381036657,14.181578605220238,10.764511841975036,-210.32527801400283,4.122940932047641,15.963442454891265,7.310289584511338
2025-12-12 18:06:43.635425,Right,22.413990783767076,-34.19344808988899,-16.407680421431905,-13.713560329044412,100.62767104686645,-19.523291798632272,-14.038864373755132,-28.51610780601186
2025-12-12 18:06:43.639498,Right,6.919981321389059,-19.843480524799816,-4.039372303136588,-11.328764619554931,190.9295862965373,-17.329692773033457,-5.791290475592177,-13.291054972538404
2025-12-12 18:06:43.642518,Right,2.752753556085736,16.36264968674368,27.420494722819967,12.137471542249841,-118.8185469556629,5.711511329693167,25.861323256365722,23.895998239426262
2025-12-12 18:06:43.646457,Right,13.294697719235046,2.2846598393989552,15.4070357396904,9.269528149416146,-252.22019964150968,3.966368548968603,19.600021393416682,10.436923213059345
2025-12-12 18:06:43.650540,Right,13.859300398753476,-38.90054204043554,-20.247831611020956,-16.695290422358084,44.393360376299825,-20.906199722543533,-14.413297195256746,-30.211739014455816
2025-12-12 18:06:43.655596,Right,0.23936813256113965,-29.54142555249564,-11.999580563893687,-16.074860173186607,222.89137820029282,-21.927461227842286,-11.586838862633158,-20.291669398535305
2025-12-12 18:06:43.659610,Right,-2.5543028348311054,17.280264470500697,29.07763567440179,13.921715737060367,-47.745077966101235,4.954714144034369,26.246638743496078,26.68805324778441
2025-12-12 18:06:43.663601,Right,11.99356617261401,19.657611915023153,31.623719622747558,21.52236758757863,-266.70153035529074,11.620114369590738,32.06717577912241,28.759303330723924
2025-12-12 18:06:43.667605,Right,18.04919566377066,-23.078661281870154,-5.2735931167517265,-5.30660486286979,-37.994547766502365,-13.811862176156865,-3.546103023698379,-14.148083915439202
2025-12-12 18:06:43.670554,Right,4.32749600752868,-30.815808334915346,-11.683417649745934,-17.251125202592448,192.87324874282058,-25.291161782133713,-15.951918797481994,-21.600885683514207
2025-12-12 18:06:43.674597,Right,-5.989378701173337,7.154796773691487,22.076587396230934,4.415184264520576,-21.859319103881717,-5.063380859126482,12.617926099768738,16.643039647584374
2025-12-12 18:06:43.678619,Right,1.0504378120622277,12.944826805083721,27.738020021988632,13.684232977731881,-289.2269973699731,3.126211113696627,20.501337425681413,22.147928761638468
2025-12-12 18:06:43.682641,Right,5.3725022331582295,-32.34579103047872,-11.923464993225934,-12.75897048265324,-108.34686926206632,-23.54910842436584,-16.560458779442342,-23.780502226050885
2025-12-12 18:06:43.687615,Right,-7.310437196461862,-51.280457473985734,-29.209688493516296,-30.53253444822076,190.7623765983153,-42.84158840214877,-38.22229635489566,-43.127930793394626
2025-12-12 18:06:43.691582,Right,-16.600386284742854,-13.260736734384409,3.620249603061893,-9.329613197442086,60.24928457851638,-24.158986739319516,-10.644724326872165,-5.498657129035564
2025-12-12 18:06:43.695653,Right,-4.1925994141884075,9.602165509779297,24.170009124229182,11.451832986860609,-245.11930652086448,-3.523489297811466,11.758659698482006,16.20175438165461
2025-12-12 18:06:43.698599,Right,11.856867257037266,-21.946979283082328,-2.3589057725785096,-3.1205492586850596,-148.04062306601554,-15.267138722228992,-11.009397710111443,-17.15058899889118
2025-12-12 18:06:43.702661,Right,9.45837293553177,-41.4152262111711,-18.470261056061645,-18.747057848660916,168.5283441824722,-28.8370560807125,-30.09623152324093,-37.831812743293995
2025-12-12 18:06:43.706679,Right,1.2547878379400572,-3.420769556189043,15.4652540627103,1.7467376445747504,102.27398701771745,-9.020116120582315,-1.451614548381258,0.3002429478656268
2025-12-12 18:06:43.710694,Right,7.956656143111104,27.57078160983292,43.00360745580474,25.72579362943179,-239.4442024671007,14.315490924089318,28.331798606554003,32.4030269388968
2025-12-12 18:06:43.714715,Right,17.55071123093876,-4.889120319621725,14.436525387325673,9.91520440745444,-234.72399389799102,0.015163088570261607,6.764017747980688,1.6333621401136043
2025-12-12 18:06:43.719660,Right,7.952173734020562,-43.462896800017916,-20.010534886496316,-18.03230202990926,95.42231860596803,-26.44410196575336,-26.33952480058906,-34.51429066662604
2025-12-12 18:06:43.723731,Right,-9.36234114367926,-21.654028672939603,-1.5888690653882804,-8.981869603730956,129.77944534196286,-17.868861905981248,-11.487621554921134,-10.016801271351142
2025-12-12 18:06:43.726740,Right,-7.593486109323749,15.293312535082805,30.400377806545293,18.259702676341476,-190.99321397132007,9.102274573408067,21.52545598393408,28.38167655385405
2025-12-12 18:06:43.730754,Right,7.830886510530036,-2.40870129283212,14.519760396231504,13.600584496312877,-256.4828069546493,6.564832905160074,11.056442301225616,10.187406852546701
2025-12-12 18:06:43.734769,Right,9.76113742493851,-38.57384074412039,-17.934412168371637,-11.162005948754086,67.54109664907446,-15.68618773803064,-21.086263679590047,-27.25573296969378
2025-12-12 18:06:43.738766,Right,-1.9202346278100038,-20.97810288641267,-3.4136413440028264,-6.238889724336332,185.55577295573312,-10.238598436599204,-11.832556262548678,-10.261677209553454
2025-12-12 18:06:43.742815,Right,-2.5696273777569445,21.45720268525838,33.46904416198049,21.875370251435015,-114.83081415257766,18.305632185261857,24.153222301451024,32.40234437768777
2025-12-12 18:06:43.747795,Right,9.524457288876874,11.717506605476956,25.336370682514826,22.192689663865167,-266.2650749281456,21.563272174324084,21.419361628893967,23.22519592059507
2025-12-12 18:06:43.751812,Right,9.453931758698673,-31.497558123057388,-12.144150226189595,-5.607269041081963,16.75295182011905,-2.714966082625324,-14.194464683014303,-18.96826066956237
2025-12-12 18:06:43.754829,Right,-6.759568208839937,-28.0432336317499,-9.163788009029304,-10.300804201773644,203.08845946143265,-6.773999096152693,-16.205942733107804,-13.845291292886031
2025-12-12 18:06:43.758824,Right,-12.848558286431398,14.552421270444029,27.966637714682292,15.457735796591805,-62.808202558226185,17.659964509994097,18.59878683476927,30.222196031731073
2025-12-12 18:06:43.762847,Right,0.13619614725757856,15.279024714738625,28.303290514400942,21.55113240277751,-296.3089346914785,23.865802418076782,24.12165965537497,31.19525314004386
2025-12-12 18:06:43.766873,Right,7.612358937581121,-29.007286070340342,-11.349390334309646,-5.6116040873839665,-77.28148342270288,-2.061287697901207,-11.771930264803814,-13.778448962366383
2025-12-12 18:06:43.770872,Right,-3.2233384313885836,-37.61849070799144,-20.209495921404596,-17.254480041432544,168.30894317221828,-14.49807842215887,-24.733624892905937,-22.89562387557453
2025-12-12 18:06:43.775871,Right,-10.840767153194975,3.6296618513842986,14.915912233058407,7.0695248820793495,-30.29532808632939,7.092011737535358,6.212586215231568,18.212414357270973
2025-12-12 18:06:43.779894,Right,-0.9807685462237714,16.383443566843198,25.587003900142008,21.404804106377924,-305.09485255691106,20.155024250079805,20.156472737846343,30.28014892252577
2025-12-12 18:06:43.782845,Right,6.236201828025514,-23.535907277480874,-10.061432479094947,-0.8625929107911361,-136.53274363224045,-1.185907851844604,-11.201748667292122,-11.214868990007744
2025-12-12 18:06:43.786909,Right,-5.131023567872944,-40.48588061506598,-25.989183576426512,-17.073886815545848,172.8030594024458,-17.199783777542507,-29.897465375666798,-29.772135916995467
2025-12-12 18:06:43.790927,Right,-15.329768558240175,0.039719320400763536,8.804080731380964,5.274158616026398,58.57249730094918,3.760280049051289,0.38089690938795684,9.78087012247488
2025-12-12 18:06:43.794936,Right,-4.763310451764482,26.653001485326968,32.2715161521719,27.482170017668977,-256.8738434512052,25.786187415839777,26.03821883947603,35.81359477801925
2025-12-12 18:06:43.798952,Right,8.786972519761548,-5.881454334688897,4.201209869115701,10.766112630311909,-185.2034900817962,11.063452002365011,2.455409839967615,3.0118308742330555
2025-12-12 18:06:43.802956,Right,1.3995266590263782,-34.46265459159622,-20.84824894430494,-13.173564392756816,128.18346993252635,-11.532635989632581,-24.669504337896797,-25.09074286892792
2025-12-12 18:06:43.807991,Right,-14.260020689760495,-7.6027705079177395,2.302811969380855,-2.8616287319600815,82.91899543671752,-2.0034420969204803,-6.461801289577124,2.8298974236840877
2025-12-12 18:06:43.811001,Right,-13.113644195886081,18.349455016621505,24.63481997101917,15.82862850179481,-243.69572935366887,16.08120170471284,17.722651687108737,29.477662054414395
2025-12-12 18:06:43.814993,Right,-3.1650974198291806,-13.145653830939409,-3.6162767323803564,0.3768936417072837,-234.30431598745054,1.6299393320687159,-4.407066846917587,-2.222943172839223
2025-12-12 18:06:43.819028,Right,-8.11605696616789,-49.666448346666584,-36.87076075932055,-25.839193313617216,113.32212756815716,-24.20265367443608,-37.68513819382133,-39.53956989159451
2025-12-12 18:06:43.823009,Right,-21.178207575283523,-25.377412688583718,-16.902226261667238,-15.348466401352198,174.3019453320594,-15.446124510032405,-23.136829697938083,-16.20120822881836
2025-12-12 18:06:43.826963,Right,-17.48858738250601,15.705134173284023,18.731055234042287,14.152958800968918,-144.417793603061,12.72611684281992,12.072392423648125,24.182857026598867
2025-12-12 18:06:43.831042,Right,-1.3964591483909317,0.048070120963529916,5.633325254650117,10.812984281200443,-236.6130596899893,10.742513379737375,4.287336778928875,8.810388960135242
2025-12-12 18:06:43.836123,Right,0.7631983133778704,-39.982427335668035,-28.79697758543989,-16.510633128270456,67.78179868488223,-14.669751336147328,-29.251673025326454,-29.521190580384427
2025-12-12 18:06:43.839048,Right,-10.960569889706676,-28.249478384881513,-18.32244951126995,-16.2725828950488,188.06300615234068,-14.693946549738484,-24.42901815915684,-15.516754839685746
2025-12-12 18:06:43.842121,Right,-11.047602030463167,12.21995600750597,17.364777216320363,9.005311214370522,-114.67130026765517,9.60522281436647,8.570811670084368,26.14482052647145
2025-12-12 18:06:43.847079,Right,3.4927837601098872,3.3212995448884612,10.208661547079828,8.544958019338992,-285.85811356295017,10.04262771209551,4.686565476218675,16.608469706847245
2025-12-12 18:06:43.851088,Right,7.791951111066737,-40.55887082399204,-27.409230885186844,-20.121472521714168,-13.543250083050225,-17.01209678356929,-32.58142878130457,-28.7983759561248
2025-12-12 18:06:43.855037,Right,-4.021244955216389,-38.80054018912051,-25.03293911356377,-25.617038399325793,187.8633093755634,-22.700710512556213,-36.08293926770057,-28.12714237410728
2025-12-12 18:06:43.859125,Right,-7.368661216478358,4.938307089098089,14.208218304542243,1.630034755554334,-60.447937357093906,3.718263479339896,0.29219879945594585,15.074193038723024
2025-12-12 18:06:43.863140,Right,7.051063143477222,9.824672723945696,19.22048636233012,11.616242180623885,-293.32927193376236,15.31892123986097,10.146505614146008,19.192490493476726
2025-12-12 18:06:43.866143,Right,15.32279085641494,-31.158986525846558,-16.78212134768546,-12.083855158829465,-72.0856123851554,-4.809611605207465,-22.232368446100736,-22.907948956637483
2025-12-12 18:06:43.871157,Right,4.145609217292076,-38.734309653063974,-24.446863827557536,-22.19916761031618,193.55771069202456,-12.607911136866733,-33.68899149826393,-31.139122540935205
2025-12-12 18:06:43.875156,Right,-4.904147339468182,3.5772705725903506,11.38972648204799,3.2321670646551866,9.410473449941492,13.39748398384404,-1.001924325049913,11.421546676370781
2025-12-12 18:06:43.879129,Right,4.35769504127893,18.299719591374014,23.48380236300727,19.691798837033275,-281.21796213116613,30.683154879198355,16.085520253112918,26.9584039183992
2025-12-12 18:06:43.883223,Right,13.098670449126075,-20.818625784220785,-11.37386921842699,-0.17321292769884167,-140.81429870185093,11.266265222724087,-12.529976504709339,-10.853570440709518
2025-12-12 18:06:43.887216,Right,3.0557495927860145,-39.52467249649635,-28.603897552802664,-15.337008785980288,158.32302741636522,-6.553763648825225,-31.018718203416938,-27.494875452710403
2025-12-12 18:06:43.890156,Right,-9.572492011910072,-2.00110355981451,3.367859972117003,6.494271249293888,46.457114757358795,10.594587594965105,-2.862685597847303,12.265354465262135
2025-12-12 18:06:43.894204,Right,-5.0533655364924925,21.673934426431515,23.688641618555266,27.733321618831724,-275.03475025566877,30.179296888388308,19.8394890324671,37.16206966514437
2025-12-12 18:06:43.898218,Right,2.4979620330850594,-14.14900764734557,-7.680286773262196,10.299866241584823,-208.2709741354338,16.01358421310033,-6.734620697920036,1.455092593721929
2025-12-12 18:06:43.903182,Right,-8.149811905692331,-45.30897723756789,-34.942213835453,-13.301209739411206,123.02500146403327,-3.594425337279972,-35.50312041338475,-29.581722976872697
2025-12-12 18:06:43.907249,Right,-24.597297879179678,-16.97715860457174,-9.989715419844288,-0.041886750603225664,103.11952781968284,10.586035499240097,-15.124859383362491,-0.5069502406768152
2025-12-12 18:06:43.911239,Right,-23.112694234983792,14.569751011247718,18.15803369067362,23.844856091328438,-225.93365688386257,34.192321320158044,14.711664446633222,31.857825833138122
2025-12-12 18:06:43.915286,Right,-12.743511161330389,-12.50188216018796,-5.063802591601416,12.152828116771161,-243.5042730057903,24.155388849114388,-2.9450402157453937,5.122543604456951
2025-12-12 18:06:43.918283,Right,-18.525851456401142,-49.96052643497751,-38.1085780345129,-14.977650950677344,89.40619755911757,-0.37946537416792125,-36.630486085359735,-32.16050271258973
2025-12-12 18:06:43.922295,Right,-34.84107250751913,-29.849622850859305,-21.33505133807921,-8.850081110235806,158.19119413706358,7.0548295893459,-25.629078722955455,-11.532008526799473
2025-12-12 18:06:43.926308,Right,-35.84814663236466,8.682943701947806,11.68637212885369,17.124231048195725,-156.20856509543955,33.91457997553698,7.020884397268674,27.431701664985667
2025-12-12 18:06:43.930306,Right,-23.544736976480635,-6.786889779577905,-2.384042692658113,13.299346567187058,-257.34822938535945,31.904881069998737,-1.4710547679424053,11.357298546050515
2025-12-12 18:06:43.935328,Right,-24.05576023694084,-46.48740562145758,-38.051479742232914,-13.190264498192846,48.4619048833265,6.184823226905792,-36.21375891460775,-30.034873556145612
2025-12-12 18:06:43.939347,Right,-38.83980153925586,-34.4770507100402,-28.901960206861986,-12.109311477266601,189.86645410768688,4.803525010186604,-33.23376624397497,-19.95471911788991
2025-12-12 18:06:43.943303,Right,-41.66272118480265,9.345490524236084,8.261502520617796,15.813254251816034,-99.00299331895076,29.63875368989102,0.7065864152973518,22.107129036397964
2025-12-12 18:06:43.946377,Right,-27.64841822506787,6.379904386765702,4.9166385504140635,20.15252575202112,-279.18866819751565,34.66242849818718,1.2675803427191568,17.318176363169187
2025-12-12 18:06:43.950362,Right,-22.913345733555616,-33.87036067844019,-30.961122371340025,-4.859593889362259,-13.812237642647233,13.381453910448727,-32.272230397538806,-24.679665513753207
2025-12-12 18:06:43.954398,Right,-36.41158378970431,-31.682338931808772,-29.791859838966047,-9.306437895592353,201.50283668059274,11.16078566395663,-34.95209648315358,-23.56883428013498
2025-12-12 18:06:43.958414,Right,-44.272513076775795,13.035854001002008,8.586517459156312,18.429612906409602,-34.80525659682462,38.34456128792226,1.820930152804067,20.93370198089906
2025-12-12 18:06:43.963347,Right,-35.39980222365193,19.43352135297755,13.093556499406986,28.42235343905577,-278.3124084887386,47.54288509195976,12.48703966951507,27.497494294922944
2025-12-12 18:06:43.967423,Right,-31.5165063283348,-23.26306853296046,-26.291424582756008,1.7155394654946576,-68.78104535471357,20.508464296328384,-21.310130602880236,-15.29992233435587
2025-12-12 18:06:43.971428,Right,-44.285128803836415,-34.77097801842683,-39.05727349927838,-13.756050599030004,208.76385566510726,3.151220109222777,-36.36048793959344,-27.508155562682077
2025-12-12 18:06:43.974378,Right,-51.61980289301573,6.982396171701112,-4.610032571647025,8.386672151492803,42.52616726123961,21.865866358650237,-5.2934268399149005,13.055169883285998
2025-12-12 18:06:43.978446,Right,-38.66166836010234,25.045727727305348,10.560932439424505,24.854653800122378,-250.71829271271417,36.30185655584319,13.169763948226318,29.882119999030692
2025-12-12 18:06:43.982451,Right,-26.840454659810348,-12.894131962410029,-22.41579688413549,4.055094461214139,-118.78691736186738,15.907442350167912,-15.549340741785272,-8.825398334323836
2025-12-12 18:06:43.986466,Right,-36.33362075770856,-35.305567197219716,-42.0506507148275,-15.767345543162264,194.75771686153894,-3.4821057406716136,-37.8406768388777,-31.255153472870006
2025-12-12 18:06:43.990517,Right,-50.772314523630484,-1.8871962505709234,-13.417347010392405,0.5103122992422868,109.73165850740043,11.908450727904892,-13.177626250417234,2.724538978542114
2025-12-12 18:06:43.995435,Right,-48.28510683744389,21.04742785747294,5.736038361861574,18.85318970224398,-202.66523020490422,29.980793852326315,10.0858880692831,26.246781846704835
2025-12-12 18:06:43.999507,Right,-40.30845925366884,-13.985138010661103,-25.90954321439858,0.8878572472763153,-140.63667640893254,13.593559458890923,-13.476450398142333,-8.636312143547912
2025-12-12 18:06:44.002561,Right,-46.698578359169915,-44.64132418348163,-53.59656744399399,-22.542967543989562,198.3501541045407,-8.459107280165881,-39.5518976605199,-39.7720988233832
2025-12-12 18:06:44.006529,Right,-55.34356953546376,-13.19827095169967,-26.489341814227373,-7.735735010066946,193.71220023209753,5.945783285837024,-15.850084417055768,-9.75231105515195
2025-12-12 18:06:44.010613,Right,-43.56064739331123,26.373781181540835,8.246500604320318,20.10108163867835,-142.74015096385847,33.30264046526918,19.43528175184838,27.057833598442812
2025-12-12 18:06:44.014595,Right,-22.46186591530568,7.742845704691717,-7.937987890010845,12.002426934877349,-190.25906475940428,25.891645095981403,6.281894919749902,4.597492030245121
2025-12-12 18:06:44.018542,Right,-20.526710113641457,-27.35073391654987,-38.99485367392481,-16.203167879976263,123.79198278742842,-2.6786381786050697,-28.348733050101146,-34.18374911193496
2025-12-12 18:06:44.023589,Right,-34.45124843322992,-10.408003367037963,-24.715147448801872,-15.349856059297508,195.7705103563203,-4.812823603484503,-22.52075910709027,-19.616811915017024
2025-12-12 18:06:44.027599,Right,-37.05616144580563,24.76357579921205,5.764754296931642,5.603723189845368,-117.53206204414892,13.385008887106778,6.126084762943719,14.510391564681413
2025-12-12 18:06:44.030586,Right,-26.708704349319305,7.394987159797893,-9.811225373436173,-0.8511472898740067,-227.06251755659468,7.489943688632593,-3.0496734111566184,-3.3416377189387276
2025-12-12 18:06:44.034600,Right,-26.610582865036122,-33.54033360151698,-46.64062690105857,-27.841903550961433,84.8187596245989,-17.206704197718864,-35.99623250690274,-44.63767603972519
2025-12-12 18:06:44.038604,Right,-37.98442644313036,-20.27518822858474,-36.315206349583605,-24.4076414864021,251.38634535073652,-12.79806964182626,-28.27805471825195,-31.673813811239597
2025-12-12 18:06:44.042629,Right,-36.83758693067284,28.196163251391226,5.3678056644967,8.615758870346326,-23.78928127749532,20.389508305051095,12.728809344911497,16.222311807732694
2025-12-12 18:06:44.046592,Right,-20.132740747212665,29.30317190720234,6.197206457913126,17.664747875485318,-215.16393860965036,30.64352443991902,18.393264618965986,16.22049393348425
2025-12-12 18:06:44.051654,Right,-13.705955620334862,-11.378499960273075,-29.540890104701248,-6.133957831150383,41.09878634836059,7.601863479212625,-15.236670276435689,-25.533321281523968
2025-12-12 18:06:44.055667,Right,-25.590904150663846,-12.287931053308057,-30.608553215228312,-12.350557720312281,266.86524812006974,-0.9899510784771337,-20.75243260782736,-26.66517692641719
2025-12-12 18:06:44.058673,Right,-31.076316221035086,31.418833470429945,7.586671289423975,13.800197283803755,36.11482325443649,21.142943020150597,15.371455449298082,17.633101301025818
2025-12-12 18:06:44.062681,Right,-18.216093755036127,38.929439372118395,14.256939106147911,23.658128720659988,-227.91553973974078,29.442393848684333,27.972584128443486,25.935858622071464
2025-12-12 18:06:44.066708,Right,-9.6944854642461,-5.702178356026252,-25.01584301103503,-4.423764067720413,-40.520500612750766,2.7340765369708606,-6.068892430674168,-17.979397819100996
2025-12-12 18:06:44.070700,Right,-19.645059923903318,-23.497300662777434,-40.911228085085895,-24.25691771218112,243.56564780588087,-15.999201730213827,-25.356787132237514,-35.12320938725679
2025-12-12 18:06:44.076763,Right,-25.999711791464506,13.906119648601589,-7.7542202522963635,-6.006966571575731,95.90677541701007,1.9243919647624352,2.5803672509391617,2.5713289387240366
2025-12-12 18:06:44.079766,Right,-10.903022851543938,34.21481109958745,11.281308376350353,10.993643313286611,-200.64339286142786,19.096224137961144,23.30106572999466,22.38612264208041
2025-12-12 18:06:44.082754,Right,5.943253822122642,1.9106532592650467,-15.919211728800292,-5.857521811909464,-88.21321562048979,2.991962830086777,-0.244603717004793,-11.013559134421484
2025-12-12 18:06:44.085753,Right,3.012450423579139,-15.68371889898583,-31.22079916756047,-21.266623270567152,216.319707645569,-14.023011718891212,-18.289205582059367,-29.664756941103406
2025-12-12 18:06:44.090761,Right,-4.987989153505623,22.440894805449034,1.5626423788417014,-0.5657574708318407,127.18698688867153,2.0438162838868266,9.7458473723309,7.554580133658419
2025-12-12 18:06:44.094769,Right,3.493268590311345,50.821147490335306,25.709147755078448,22.338383962560783,-207.3023446228326,21.09341565853947,35.96885006251978,34.76476362779795
2025-12-12 18:06:44.098728,Right,16.038500254391693,18.689346514766385,-3.194623528084776,6.971645763734614,-173.5805199680617,5.445603667996693,12.211265914335854,1.305678546431409
2025-12-12 18:06:44.102802,Right,9.827880565942905,-14.427272180630098,-33.225187826992624,-17.868116353054802,163.99465593521018,-18.34282227502763,-19.435188449538146,-32.58413827970344
2025-12-12 18:06:44.106826,Right,-4.911745549346961,11.547889808179661,-11.585193615239405,-6.967776634241773,182.68036637063778,-8.07422622131844,-3.809762848520222,-6.703717005095314
2025-12-12 18:06:44.109846,Right,-2.766926774294916,46.599396379131576,18.25108384847408,18.102948341350498,-138.80611177341052,15.346431016265115,25.873472263007898,27.982845447316322
2025-12-12 18:06:44.113838,Right,10.587055825713833,25.02204238023478,-1.4069351633952465,9.998080412578247,-186.25540464686492,6.043201619944739,10.828131869629942,4.769357208076144
2025-12-12 18:06:44.117835,Right,9.831345183167286,-11.594805799707501,-34.36106656767879,-15.799804993846806,137.6763546515067,-21.777110146506857,-23.401337773503656,-34.653532132749206
2025-12-12 18:06:44.122858,Right,-2.4569229625849403,7.644355688446922,-17.947610155246366,-9.722690979407844,230.1068264108835,-19.563915100034706,-14.483386426149991,-18.0918547628371
2025-12-12 18:06:44.126874,Right,-1.784877305284681,49.12496270038537,19.203187222097768,18.84339688345665,-83.83152926372713,6.135329071296724,20.195067684616333,22.478966915557976
2025-12-12 18:06:44.130870,Right,10.306299905681954,35.50495625556778,9.008733084618143,17.809464645639594,-221.0736373156251,6.352757630614121,15.606427362203249,10.575335977684517
2025-12-12 18:06:44.134899,Right,7.9522334794128255,-10.764914158175088,-30.030656390033982,-11.225521471062905,72.31441613343486,-19.198427786999133,-19.459183440015295,-31.830558307068713
2025-12-12 18:06:44.138901,Right,-9.88081262421656,-8.814516609247221,-27.431784429838444,-15.960226802540205,247.89768097804335,-22.576260462965934,-18.688942357655378,-25.289462572584853
2025-12-12 18:06:44.141926,Right,-15.583625036573721,31.03515391219935,8.350222877706983,9.471217069569946,-20.281254637928214,1.7966029250746942,17.67409420518561,18.537915734517355
2025-12-12 18:06:44.145931,Right,-2.7439751487454487,28.339126475428202,7.015529414566117,14.47437136735698,-228.95932011645345,6.626099479076515,23.19360268479113,18.951542213413177
2025-12-12 18:06:44.149950,Right,2.731818516727799,-16.06190990478899,-31.28638560536274,-12.668351726131831,10.322392497510009,-18.98570847904898,-10.781500256392974,-22.456014749732276
2025-12-12 18:06:44.154942,Right,-9.479220657045516,-22.091143829335124,-36.737454578393226,-23.03908503934244,244.93664519682352,-28.365508556275245,-19.81557983151606,-25.302572161957414
2025-12-12 18:06:44.158958,Right,-16.105857784821637,18.836686590404497,-1.4356555096710508,0.8281357732868884,31.45745205530693,-4.454006124355828,12.313429202868065,17.793480346044362
2025-12-12 18:06:44.162973,Right,-4.336269712579451,27.94673159179547,6.0633638626877655,12.536067468416661,-231.14908263323014,8.082559697810666,23.720129692990668,26.456346880855108
2025-12-12 18:06:44.165982,Right,4.72226680710537,-12.376341073202639,-29.479623066834392,-10.242126915658503,-47.10082035132655,-13.53132292264877,-8.34457695028459,-16.79131745123277
2025-12-12 18:06:44.169987,Right,-3.941378309448737,-24.750018065649783,-39.96116587339566,-23.05776072671307,246.38838728304108,-27.069549685972333,-23.49648663681046,-32.557825555762065
2025-12-12 18:06:44.173936,Right,-11.282685177246094,18.202601745717402,-1.1049037053380744,2.0957202512132085,106.28396300329769,-3.779053836674848,9.301722040315553,8.273965167680444
2025-12-12 18:06:44.178016,Right,-0.592881159800072,41.151986322973244,20.612223456457286,23.262306937033372,-202.8024392217485,17.571447357770467,32.80389128357774,30.465527289879446
2025-12-12 18:06:44.183014,Right,10.377948232604012,5.483947149667074,-9.716834671837205,5.698052757328014,-103.59456276345009,2.0331387585242737,7.154041423263891,-5.404647804625711
2025-12-12 18:06:44.187025,Right,2.248885531185806,-18.88994336002179,-31.201678353772877,-13.943222022331724,215.2197231287937,-17.895548706951104,-16.55570118048047,-30.095229544040194
2025-12-12 18:06:44.190985,Right,-9.736019178475317,15.688970494002206,-1.3120924000177183,3.0836019243406554,153.65548592458435,-4.902795346981293,7.24452296812035,3.564343914243352
2025-12-12 18:06:44.194003,Right,-4.158215880857313,45.14704585965774,24.440782097004558,24.241175078026345,-174.82323759116844,12.494860738598618,32.32563973972401,31.322426319255868
2025-12-12 18:06:44.198059,Right,7.223376396316496,13.538251382004091,-3.302351372238263,6.6399293476442836,-153.26806095909342,-5.412505158562908,7.134226089717458,-2.0413328555248995
2025-12-12 18:06:44.202036,Right,3.086737687810455,-21.360441485212505,-34.272617753718805,-20.949213624662434,184.83380652235428,-32.17139990215264,-26.83589869011712,-37.49695829887821
2025-12-12 18:06:44.206115,Right,-6.283889732800617,5.055692973346595,-11.389276342719313,-9.536890888201015,215.4902612495789,-21.624612587921092,-9.798868438882437,-9.951794510634386
2025-12-12 18:06:44.211091,Right,1.7157437134837892,43.83015833591344,23.035485734317263,19.769343246088283,-112.80616457829092,6.976072584337089,26.497725354000977,31.061855259593358
2025-12-12 18:06:44.215087,Right,18.18277962813545,22.980436169424138,5.7373420022231585,14.33846869335116,-185.75083938822354,3.62844115830012,17.773362245336102,12.875283979481765
2025-12-12 18:06:44.219125,Right,17.0127662839368,-19.900437622494792,-30.87114558668145,-14.263318055440322,128.73156901808397,-21.740460924396302,-15.308543783745336,-27.26787532178946
2025-12-12 18:06:44.223138,Right,2.630013104911086,-8.613250855414663,-19.990203376394675,-13.745138455809865,238.0009809893745,-19.633143381401624,-8.339383955953508,-13.708172683727298
2025-12-12 18:06:44.226192,Right,2.982728256301016,31.20905942633908,16.237067633142942,12.18424479912619,-62.46140943898354,6.976051870507945,26.33633957066104,27.1919661050556
2025-12-12 18:06:44.230152,Right,19.471374813289003,23.385885163668718,10.735484535383875,13.766268098741193,-205.56057745875296,10.001958959434887,24.75245037926743,19.206789757484785
2025-12-12 18:06:44.234214,Right,25.258900031796657,-14.623737021922352,-21.915214051287876,-9.625138574491984,83.95203348673022,-12.816461421833992,-7.262267611456991,-19.30714732538263
2025-12-12 18:06:44.238205,Right,14.298290908239323,-5.960058866965483,-14.32599743515948,-9.19918760380142,270.65481333100433,-14.774243873505839,-5.490265325126529,-10.604741933514106
2025-12-12 18:06:44.243142,Right,10.429014635763451,37.988385930697405,24.353390356580803,18.355055548375276,7.991023723234321,9.797879907721835,29.749312795678634,33.81411849670303
2025-12-12 18:06:44.247203,Right,21.29393395448642,35.2906812237743,22.74175103418156,20.82113642309423,-211.75696049073485,12.827437990297767,31.19928898311082,31.25063335286859
2025-12-12 18:06:44.250225,Right,24.376477996034737,-14.024223975757195,-19.500639827986106,-12.873859124537375,25.458698734224527,-17.2796531465965,-9.996401397186673,-18.442669008243683
2025-12-12 18:06:44.254227,Right,11.093979942705118,-25.2722033607115,-28.30759362359686,-29.098482206534754,282.8827873359114,-31.383858966125445,-24.834077735567007,-29.949727918895405
2025-12-12 18:06:44.258262,Right,5.074816053940594,16.822501039656345,10.185855053182877,-4.945679303953057,88.00056275251336,-8.241358224905525,9.054944878803326,12.446831355784525
2025-12-12 18:06:44.262251,Right,18.702792057454644,32.34734816561286,25.98825050787184,12.448760575138294,-187.98789906774255,7.6718041069134415,28.682727074216928,28.723414071517254
