timestamp,label,FC3,C3,CP3,Cz,FCz,FC4,C4,CP4
2025-12-12 18:03:16.474519,Right,2335.433474129908,2635.0793716846365,2646.3520721680447,2593.335565321213,1833.76026056826,2482.932242781619,2495.679499667165,2721.356626141443
2025-12-12 18:03:16.487556,Right,12581.849823525099,14197.845855888176,14259.589852073092,13972.377208456273,9865.837574664089,13377.855087202795,13446.67221530293,14662.425656217954
2025-12-12 18:03:16.492556,Right,28853.00593887989,32564.01577148973,32709.33295753269,32045.061531269464,22567.418448175715,30682.64007492225,30841.08165661797,33627.85783068883
2025-12-12 18:03:16.496579,Right,36150.36815398622,40808.54755459608,40998.87375325481,40155.06489474112,28146.824909328298,38449.15931728293,38649.91534366291,42136.85626733187
2025-12-12 18:03:16.500581,Right,24604.809198521973,27785.023775694834,27928.034007352588,27337.18835058839,19001.62808946373,26173.5701545891,26316.726458663165,28681.68962868568
2025-12-12 18:03:16.504597,Right,2966.9860678920522,3365.4041919583397,3405.0135663228575,3309.131382787862,2186.909787444776,3156.051743136224,3189.0455578640685,3465.4967164608533
2025-12-12 18:03:16.508600,Right,-13441.535649271682,-15148.713499232079,-15191.731165842211,-14907.50765325781,-10385.253651061357,-14298.365087181708,-14349.050244632468,-15644.38956115814
2025-12-12 18:03:16.513620,Right,-17627.3004333516,-19862.795880291436,-19928.007140315836,-19548.73336484324,-13573.69383556518,-18743.22598379443,-18818.0493788679,-20507.599882090988
2025-12-12 18:03:16.517576,Right,-12571.046724999382,-14156.064237543615,-14198.150784753496,-13935.987335235404,-9782.804978056054,-13359.900320262823,-13413.494764322997,-14620.02647553262
2025-12-12 18:03:16.521643,Right,-5355.8981756186695,-6027.042834619759,-6038.30420122284,-5934.471891183872,-4253.289763553126,-5693.0129465477075,-5711.059502722463,-6231.386601204751
2025-12-12 18:03:16.525664,Right,-1504.0729041114682,-1689.9398676744895,-1687.0184598520864,-1662.3119950107066,-1150.1250951509573,-1605.1185361475218,-1601.0908600621624,-1749.851315986598
2025-12-12 18:03:16.529682,Right,-2370.878633729415,-2663.5968715593917,-2665.468606897746,-2620.5386754840147,-1758.0621728178812,-2523.5961486407323,-2523.5295073810266,-2750.793772599194
2025-12-12 18:03:16.532685,Right,-5566.163107081782,-6265.538397095399,-6282.102748724166,-6167.6423523064,-4358.754203036893,-5914.605012668413,-5934.370242194505,-6472.723992669955
2025-12-12 18:03:16.536674,Right,-7576.091585963033,-8542.773584678187,-8572.13076721935,-8407.394449869636,-5999.924461470218,-8055.827119273483,-8088.507392236032,-8827.348590574693
2025-12-12 18:03:16.539706,Right,-6785.199277645792,-7659.162758906023,-7689.72585450788,-7534.157978064148,-5265.838640509988,-7222.328064911533,-7250.15389637847,-7909.739071240765
2025-12-12 18:03:16.543751,Right,-4524.606830130098,-5102.99133618793,-5123.800590900704,-5018.903654968366,-3407.322735928814,-4813.880733874743,-4830.151806970476,-5263.106390951434
2025-12-12 18:03:16.547712,Right,-3274.4102036606055,-3684.553267931915,-3697.6832908126526,-3626.41407620511,-2546.9667945889523,-3473.510539242532,-3486.9263944189297,-3800.240804115194
2025-12-12 18:03:16.552741,Right,-3926.6750063108047,-4425.946411454934,-4443.979404259822,-4355.476931833546,-3178.208307085675,-4167.7098179606255,-4187.0527552746935,-4571.826618282357
2025-12-12 18:03:16.556758,Right,-5057.962678032694,-5711.21921277279,-5739.850363606587,-5615.460176726687,-3961.96300100442,-5380.541736477404,-5403.450019432697,-5897.172738003777
2025-12-12 18:03:16.559752,Right,-4915.854090885026,-5546.539525503293,-5576.74486671458,-5451.562553016236,-3707.6486524608918,-5230.612721296726,-5249.639032504172,-5720.005483474582
2025-12-12 18:03:16.563790,Right,-3618.701060520252,-4074.122070517391,-4096.384894652991,-4005.544903599657,-2774.9637744204374,-3843.249210971757,-3856.6490542676765,-4199.428518950706
2025-12-12 18:03:16.567782,Right,-2820.409315057099,-3178.772772586206,-3197.5618839103263,-3125.343869326869,-2318.799677585135,-2994.3371328844223,-3006.662382856244,-3280.77448202041
2025-12-12 18:03:16.571785,Right,-3371.2333523902344,-3813.621055372758,-3839.59666666924,-3746.1958350019995,-2706.9370341211325,-3590.210810821969,-3605.5652590619866,-3935.849650149932
2025-12-12 18:03:16.575824,Right,-4179.479548866977,-4726.131385901244,-4759.343084937893,-4641.995889551239,-3171.117151183891,-4452.360300433589,-4470.758768015541,-4870.684142442653
2025-12-12 18:03:16.580793,Right,-3820.604427862563,-4310.779063709779,-4341.777498812415,-4236.354508035816,-2905.8080899318447,-4060.592817296274,-4079.2756555695087,-4439.928123371908
2025-12-12 18:03:16.584786,Right,-2577.1228936222615,-2906.729592982447,-2932.3073106650263,-2856.9518835367635,-2098.7310522240587,-2732.180237917928,-2748.3141937979963,-2996.1904701772146
2025-12-12 18:03:16.589846,Right,-1996.9486427034717,-2262.387240370037,-2289.8590683359653,-2219.824066038709,-1654.196917057503,-2121.7959135195706,-2135.4319977771956,-2332.72102809255
2025-12-12 18:03:16.593837,Right,-2655.9994450242957,-3008.8205749581102,-3043.570603617467,-2951.4530060549732,-2009.5049892636016,-2827.6350380498916,-2842.6481083401013,-3097.218162066769
2025-12-12 18:03:16.596862,Right,-3375.930644580978,-3812.7527482011355,-3850.54380287556,-3745.4280783708673,-2540.32706440927,-3587.2530045062304,-3606.7336705755442,-3925.0386888689827
2025-12-12 18:03:16.601866,Right,-2954.8174367210595,-3336.103926198324,-3370.8345439224504,-3280.8784536991734,-2362.6252319004852,-3135.7908758160193,-3156.6276225298643,-3440.8647605134174
2025-12-12 18:03:16.605859,Right,-1835.0123168770224,-2083.6982297506183,-2115.690663704416,-2048.5912861230318,-1542.134161492344,-1954.0791907515377,-1970.4482347563608,-2154.977496380452
2025-12-12 18:03:16.609826,Right,-1375.557058297447,-1571.2559071790893,-1604.073501937557,-1542.8345329372678,-1050.0153239141218,-1474.1978142494336,-1486.9455518843606,-1623.7765607931651
2025-12-12 18:03:16.613905,Right,-1932.875514020794,-2192.306289700442,-2226.6875530350953,-2156.240129499114,-1422.8122828006744,-2061.813094035373,-2078.5989571900573,-2261.7905353074893
2025-12-12 18:03:16.616923,Right,-2490.568702589604,-2815.8070809723577,-2850.3149228817783,-2773.20998227736,-1982.487512002117,-2646.5782163004624,-2670.375474593253,-2909.3990164087154
2025-12-12 18:03:16.620869,Right,-2156.126651784987,-2445.092237342382,-2478.701870334102,-2407.367873419309,-1793.5147518047597,-2293.9982391449157,-2317.622187984525,-2530.0880368200596
2025-12-12 18:03:16.623924,Right,-1297.769510129816,-1481.9358596636448,-1513.1683202958666,-1456.3918099948205,-1008.6289672376588,-1387.9400565967662,-1404.3877679463476,-1530.392929673777
2025-12-12 18:03:16.627942,Right,-901.8399617277319,-1028.3572419168195,-1055.620808712556,-1010.8571869746083,-623.1809727809159,-962.9043768970296,-975.6758436409291,-1055.5007789484225
2025-12-12 18:03:16.631922,Right,-1251.7640644115163,-1417.09874466341,-1442.1898287178483,-1396.5635811561951,-1013.6199148101732,-1326.7257426623255,-1343.8119598417543,-1458.7068552154815
2025-12-12 18:03:16.635965,Right,-1679.912397623295,-1907.006202088436,-1934.0846638078801,-1877.719944115961,-1442.594874012284,-1784.4903304140316,-1806.077821868239,-1968.9030815624865
2025-12-12 18:03:16.639974,Right,-1509.2666506571695,-1721.8306645442499,-1750.5696281476412,-1691.4687361175893,-1198.1986252283677,-1611.2911917802412,-1630.6134632901521,-1774.3712931515183
2025-12-12 18:03:16.643986,Right,-873.9678109069355,-998.6243209802778,-1023.2554713095305,-979.7263915168587,-587.4561257824535,-933.8549548566807,-948.3214398487471,-1021.4951800120762
2025-12-12 18:03:16.646992,Right,-476.45982659293804,-540.8703538893024,-558.9752522641793,-533.3948698628228,-375.44172029790934,-502.3199018590385,-516.3798198301811,-550.8409717150498
2025-12-12 18:03:16.653024,Right,-682.4004478531424,-777.8163418581244,-794.5700249809306,-767.7619947028579,-669.7321257170406,-722.2252179291099,-739.0457243875135,-801.6836752528325
2025-12-12 18:03:16.656012,Right,-1073.8274501903215,-1229.769848336582,-1249.3385122778127,-1209.232886506361,-896.2364862415125,-1148.1671190428315,-1165.196782706189,-1266.7573697825428
2025-12-12 18:03:16.659993,Right,-1001.4415932241827,-1146.2401763538364,-1164.5513906148262,-1125.8232514491538,-691.2658097690437,-1072.6736668472877,-1087.0336752224248,-1173.7581407300895
2025-12-12 18:03:16.664032,Right,-445.28249575407244,-509.7265302721644,-521.5250197558198,-502.56944438640494,-309.4584623738774,-473.08821395633277,-485.73205108742695,-517.7194354230305
2025-12-12 18:03:16.668045,Right,-45.83599042671267,-60.58702336845454,-68.91457969520707,-61.94958104961552,-146.47709601925453,-47.233477123081684,-59.56371151248459,-62.81998821627349
2025-12-12 18:03:16.673064,Right,-223.7538492314634,-270.18736971134786,-281.6649077492766,-265.10664969705977,-245.99588055972708,-245.70014036394423,-256.80600550200325,-282.33236131456215
2025-12-12 18:03:16.677070,Right,-595.371070612513,-687.4452751455829,-701.3494717042777,-674.12309778505,-373.24975652451394,-643.3625740399002,-652.9927959656925,-707.7803815515945
2025-12-12 18:03:16.680102,Right,-530.5818271354656,-602.7642921162769,-612.6842686616583,-594.2169181112549,-330.96838450594805,-563.9087242000969,-574.0631587954122,-618.4014936567401
2025-12-12 18:03:16.685093,Right,-52.951571905752644,-61.83170491846977,-66.55170970078325,-64.57256496301852,-115.26945691619767,-48.84069050650578,-60.117849781527184,-65.35539080010494
2025-12-12 18:03:16.689111,Right,234.640342966537,253.63794661447173,248.91915340756532,248.5789391475264,100.12071377207758,251.36880026187282,241.21617910964414,258.470421904698
2025-12-12 18:03:16.694075,Right,54.03104753405205,48.81265691650333,41.856394834350795,50.11622436577454,117.56904316612054,54.925050382036716,46.690407162474,53.375505022122525
2025-12-12 18:03:16.697161,Right,-188.64001717275823,-214.1800988871837,-219.8561726838816,-210.5668598713819,-38.70036300373613,-196.1481597436068,-204.92153470564517,-214.74851824814687
2025-12-12 18:03:16.700144,Right,-65.4894999115204,-71.65803628356662,-74.42402671530726,-73.2764309598424,-94.67614456897718,-60.29359638658934,-70.4135314511077,-74.25185881130164
2025-12-12 18:03:16.703142,Right,273.8591847218486,300.4958607298031,297.14307227297104,294.3112597774307,114.73499073067796,291.2240504555375,283.16756085000816,303.0471308461274
2025-12-12 18:03:16.708206,Right,425.22022141102934,464.2993194156152,458.3337389678927,457.843116360993,371.43943387369654,441.0839066946064,437.24761801386194,473.7033827492414
2025-12-12 18:03:16.712209,Right,338.2367690678584,373.311561622977,367.68652985263907,366.04428195173386,371.8163125267274,351.13940436211124,348.31688840760035,382.6010864687705
2025-12-12 18:03:16.716223,Right,273.9802495365243,307.005965001616,303.886968353939,297.02456618455244,192.06815876247856,290.58062952621776,285.4062096478251,310.4710766692465
2025-12-12 18:03:16.720212,Right,347.3091927851492,383.7165057963284,381.0439431696868,373.62052929768106,169.08344345525984,366.35363811199204,361.10086481134203,386.76732639197144
2025-12-12 18:03:16.723161,Right,445.35639431084564,489.4970705740416,486.38529020699207,481.49015848779527,370.45099994470365,464.4032012200769,463.14150978326506,502.1272349341307
2025-12-12 18:03:16.727233,Right,506.40289625960577,566.5023177821713,566.425102557143,556.5925084440241,517.6257645645965,533.0197781111056,534.9051251100173,588.7827169325901
2025-12-12 18:03:16.731234,Right,577.3323407726712,654.536084206833,659.2563845638069,638.8308302394289,461.52391656057443,615.842319899064,617.1504705650732,676.4947281811328
2025-12-12 18:03:16.735274,Right,632.9121362083824,711.0984998282802,716.5245085124043,693.5380972542334,391.04499211889924,670.6974122915417,671.2807630037714,727.027475352108
2025-12-12 18:03:16.740283,Right,602.1843828921265,667.6346894933959,670.1997990511009,654.0909777630877,466.0248082514445,627.4520833108982,629.8189993771084,682.2435144668561
2025-12-12 18:03:16.744331,Right,559.7704392362502,624.4540647029644,627.1098674928071,613.0380567262764,564.7835235795355,583.3562993859523,586.7020305245533,643.1274946767953
2025-12-12 18:03:16.748304,Right,649.7518859158736,735.0531658692635,741.9640896432102,720.1805682947161,559.4191034166724,689.8079488085932,690.5797976494068,756.2996033445233
2025-12-12 18:03:16.751315,Right,818.9891948339646,922.1019710406545,931.39030272112,904.8527846880024,554.2488768080948,871.7066584419808,869.8340374802938,942.9127022840548
2025-12-12 18:03:16.756339,Right,861.1211986442795,959.4039762594039,966.7665579048335,945.1579780029715,646.0076546393102,907.3000578351784,906.4428848027019,980.2898888043128
2025-12-12 18:03:16.761320,Right,749.3908135815291,834.9865512368851,841.3098028273089,822.9959963240544,702.3290896399994,784.8708612061455,786.110704166349,855.4665892365738
2025-12-12 18:03:16.765377,Right,694.2564319917001,782.1378031008644,791.5639761315542,766.4746179749491,616.8189799651154,732.3774334132322,733.1871655283612,798.6383168865577
2025-12-12 18:03:16.769343,Right,813.5468764461111,915.1310306908563,927.9609293579124,895.0084756202996,558.2734112520702,859.7970676195691,860.2198784255888,928.4358883871464
2025-12-12 18:03:16.773380,Right,961.6765315370285,1071.3980380146531,1085.06226010737,1051.8080408524256,692.9153225342743,1007.4542106634472,1011.3512022726936,1089.1630919211311
2025-12-12 18:03:16.777396,Right,974.1198931005783,1084.1334829316474,1099.521183064673,1066.482553471229,851.4045103680692,1016.0188455424504,1024.1945098442957,1110.0660561821423
2025-12-12 18:03:16.781392,Right,894.6898806302343,1003.8044468965381,1024.0619376074756,984.5026114182547,784.0877904610825,939.3218248815974,947.1464337150101,1030.8135752467206
2025-12-12 18:03:16.784391,Right,856.8960331851849,963.091644228436,986.8514119145693,941.8451900683576,601.8416117208544,904.7791003101738,909.310985110118,984.2460637756158
2025-12-12 18:03:16.787412,Right,893.0140339027857,995.8500589751638,1018.3047114292858,976.6887680934742,616.307530901453,937.9246395664522,942.0667516291142,1016.390330213937
2025-12-12 18:03:16.791416,Right,959.3833931899862,1070.7138304288965,1091.4192115516635,1053.4287745351903,822.900391266623,1006.038797850837,1012.4275323738111,1100.0746417985065
2025-12-12 18:03:16.796430,Right,1019.8443749684375,1151.1567702944158,1174.213089764933,1130.4259614737239,907.5159487491474,1080.7913105839398,1086.572470709565,1186.877055757097
2025-12-12 18:03:16.800441,Right,1024.7276221307693,1162.5770839307224,1188.6061581558315,1137.9075519932667,762.144090251415,1095.6725022719475,1097.3939286299283,1192.8609609626
2025-12-12 18:03:16.804440,Right,941.9165190703934,1060.916474450496,1085.5745680560358,1038.5194593255874,638.5436945847468,1003.1531117071863,1002.5749166434398,1082.2218924912158
2025-12-12 18:03:16.807477,Right,872.0196114045102,976.7044751021313,998.4906682990259,958.026129463804,721.6305860561552,921.4202182625886,921.8072558027925,998.0108536130283
2025-12-12 18:03:16.811470,Right,965.2225360841257,1089.663199218805,1112.4765748395585,1067.385599000263,866.4493145089364,1025.4847977341851,1025.489884895389,1117.726844359655
2025-12-12 18:03:16.815456,Right,1150.641961259651,1304.9602979418123,1330.5241149198264,1275.7468970512273,878.4129153025569,1232.1590332592605,1228.3525492234621,1335.3509179883404
2025-12-12 18:03:16.819489,Right,1160.0519729689695,1308.592026440776,1332.9134037306067,1280.7231310550123,794.3117532661417,1241.1612554104067,1234.114854682004,1335.0933456633938
2025-12-12 18:03:16.823505,Right,940.0834254920483,1053.9254153599031,1074.7348950157175,1034.892522427137,745.1039938281756,1001.7098206374794,994.5084169197362,1078.567934221588
2025-12-12 18:03:16.827515,Right,802.0626258896664,904.884048574022,926.4810049714288,889.4936864215415,748.6649222730193,859.7071798553225,852.3160130068427,933.7008030177094
2025-12-12 18:03:16.832539,Right,968.0723129926482,1099.3723213392077,1125.6039796598488,1079.2477977627423,772.2894227833021,1046.2060031624278,1036.390615498065,1133.9069591413718
2025-12-12 18:03:16.836542,Right,1195.6841306504793,1349.0855957473395,1376.6857847834472,1327.3570758221904,821.9320262271212,1287.6283392128535,1276.0045441930415,1386.3815825241618
2025-12-12 18:03:16.840556,Right,1131.9851793276612,1266.9374168035574,1290.921808159561,1252.8390994588844,855.4357169599971,1212.2287510290043,1201.278477099957,1303.7623585804831
2025-12-12 18:03:16.844576,Right,870.0016463127686,975.3004782600328,996.6791203243192,968.3801547960611,785.754082528525,935.7010370094795,924.9079135851935,1009.4167466158979
2025-12-12 18:03:16.849518,Right,806.206231436925,913.7606276371516,936.2865868748631,904.6810057888506,671.0474406415597,878.0760955073638,865.3409434478963,944.9236614278052
2025-12-12 18:03:16.853584,Right,1019.3642469808692,1152.8446179772727,1175.5882565621287,1138.190479809884,697.8476397087798,1105.1389728178037,1092.2554970316123,1184.521027804818
2025-12-12 18:03:16.857600,Right,1166.5950018324656,1310.137665945338,1329.492959705647,1295.787916926667,862.3671477077296,1250.7457535978174,1241.8090558854165,1345.9069774765521
2025-12-12 18:03:16.860607,Right,1033.7107091166545,1161.6956850881688,1178.356739745941,1151.475865774788,904.9559028684162,1105.336394020822,1099.7944136203732,1198.7073506501038
2025-12-12 18:03:16.863612,Right,837.1481607906753,948.9628572184592,966.5484584523365,939.7087988520507,719.7899416846922,904.4060637189541,897.468938035192,980.7984648316633
2025-12-12 18:03:16.867669,Right,848.498267689487,960.6311533984262,978.8732776939869,949.7405863758177,577.0289326701313,920.5899775812868,911.1271959296428,988.44272102369
2025-12-12 18:03:16.871639,Right,1004.0225544419372,1126.004938926082,1141.5527952185366,1115.1746813796926,708.9825520449085,1078.8852019538172,1071.0514932237566,1159.2384899049066
2025-12-12 18:03:16.875645,Right,1069.6154514175141,1199.377624773886,1212.5022069038823,1188.911949356785,910.8016466563568,1144.6996557270177,1140.3589136553928,1241.3976004894357
2025-12-12 18:03:16.879626,Right,991.6070313189412,1121.4716077737976,1135.7590670676436,1108.6908670014236,856.6419812301174,1069.0493904664181,1064.476153353462,1162.3724058209918
2025-12-12 18:03:16.884670,Right,895.43716611946,1015.4399829318281,1031.153529128991,1000.8775274131913,631.6226390269585,971.7674903699663,964.3284732308239,1045.9323736941442
2025-12-12 18:03:16.887650,Right,867.7124614230124,975.3400999940932,989.3896368255373,963.0670477550011,586.5732205015374,935.5767884778325,928.2988888176624,1001.121972736204
2025-12-12 18:03:16.890753,Right,899.3867985471152,1009.0197900999337,1021.7702178265899,998.6200108372141,762.8137458937708,963.6646160513628,959.8292011090089,1042.3084129844792
2025-12-12 18:03:16.894768,Right,951.1361294022063,1078.2189104014542,1093.7778404220007,1064.163145980332,850.3981093229959,1025.086062199669,1023.0030428310856,1119.4714909589384
2025-12-12 18:03:16.899771,Right,957.003067029058,1091.2361376851331,1109.85680044326,1072.920844199136,711.9960712826578,1037.717528390931,1034.866557806963,1129.8294711541384
2025-12-12 18:03:16.903748,Right,859.802989710588,974.984741094755,991.7957389282528,959.1970091701951,571.6431256090291,927.9896719874814,926.3672103027347,1006.5281888009049
2025-12-12 18:03:16.907719,Right,732.8310462611262,827.8665244649164,841.1514456518926,817.3932775550056,608.0934586981311,784.3435192806646,787.1372839380056,859.9502713007387
2025-12-12 18:03:16.911748,Right,739.2803703959798,843.9674996586982,858.1223535824101,832.1313197826967,695.4768003023928,794.8015636641067,800.6915953981224,883.0177605503704
2025-12-12 18:03:16.915769,Right,877.4130757293897,1006.3598138405941,1023.7680737138726,988.3978214159142,677.1437179424101,949.0805551139638,954.5781126094516,1048.559089268092
2025-12-12 18:03:16.920712,Right,926.4766827146523,1054.0792332091369,1070.5603927415796,1035.8577590531204,614.529867065954,996.7352238928434,1002.1391144804657,1093.2770049290266
2025-12-12 18:03:16.924777,Right,774.8778102811193,875.3534058204386,887.5980425879825,863.452694614185,608.1594774257392,825.3716052393429,833.5240266863257,911.9354965784587
2025-12-12 18:03:16.928802,Right,625.1952697306406,713.3743085148744,724.8940801040735,703.6866848135833,607.469801433268,667.1621255904902,677.6978429032024,750.3959331784863
2025-12-12 18:03:16.932809,Right,687.0125459368574,792.7891544653103,807.612247333629,777.7861379878595,559.9331244566711,741.2046761719976,751.249402621761,829.7060525047127
2025-12-12 18:03:16.936827,Right,831.8515498853521,952.0218926370144,967.6333018145524,933.661221282091,544.059483003919,893.5100814376492,903.3226779450197,987.1490359562449
2025-12-12 18:03:16.940795,Right,799.7278051313478,906.2853336746339,918.3587095402181,891.9377465029247,595.7549896663986,848.6302382224239,861.0467976969667,940.2959023066796
2025-12-12 18:03:16.943839,Right,625.1495385131566,711.4296290888451,721.3074030345306,700.9545477651991,595.2902826108038,660.5441381202545,674.9720597248524,744.1632782150991
2025-12-12 18:03:16.946850,Right,566.8750673204195,653.407029724447,664.8794169251341,640.5817709909752,488.34042414056603,606.2732630418614,618.909173911903,682.2466098556761
2025-12-12 18:03:16.950854,Right,672.3087550683413,769.4161084750667,781.4940717506688,754.0409473984037,426.6542976272758,720.4802265464095,730.9005781051237,794.8242148312274
2025-12-12 18:03:16.955855,Right,720.4572675641393,815.5470492360182,824.8373871857766,803.6378295095637,509.73940828919876,765.2318477312801,777.1469014525646,842.9327676249668
2025-12-12 18:03:16.959894,Right,610.9749904810451,696.135035874322,703.8497527393047,688.4206148174126,578.8191976530943,648.8928532152204,663.5319710099138,727.8769960408099
2025-12-12 18:03:16.963897,Right,510.61522314406466,595.1986883291975,605.1506400869694,585.5378514914773,478.4795863254694,552.0686338841915,566.3806907557882,626.0276658972725
2025-12-12 18:03:16.967861,Right,540.1835405620513,629.045675192494,640.36616543727,615.3447040673345,343.3989231555024,586.6715308884159,599.4937549955212,654.2589854460675
2025-12-12 18:03:16.970933,Right,587.6724084572634,671.3055719527183,679.8833946688101,658.489526380552,376.6579073993489,627.2133154778276,641.7613558964804,694.3986582758371
2025-12-12 18:03:16.974911,Right,545.222102370928,620.1764589521335,626.377532957471,610.3303312463686,494.30542913347017,575.1615400069859,593.0689475549152,646.3548112139106
2025-12-12 18:03:16.978903,Right,492.68572458741255,569.5823133948725,577.6849140217528,558.3817360715475,472.1498288176954,525.2049064555904,543.104855425423,596.4588923393749
2025-12-12 18:03:16.983941,Right,508.68772327236366,590.349703470245,600.4156248159707,576.2793032138143,335.9282154641114,547.2808178439736,562.4075361373834,612.2696394427912
2025-12-12 18:03:16.987939,Right,509.00061380665284,582.0281999679282,589.1979222393129,570.1527329892851,300.4467764394358,540.7062789140036,555.3099915741477,599.8142022583634
2025-12-12 18:03:16.991957,Right,426.4999232861446,485.80010677257087,488.4486031603301,478.30547354999,382.84544248413295,446.0397403964307,462.5396041331114,504.2050736473175
2025-12-12 18:03:16.995967,Right,366.4710972153116,427.3435033367714,429.3209732878022,418.8768208345864,392.3937418430578,387.64173233206384,403.71645984915085,445.64692935335916
2025-12-12 18:03:16.999987,Right,415.866972287884,488.11073365970515,491.43041599576827,475.46023016772233,292.1258270853432,447.69074947841,460.6207994710421,501.7995142105501
2025-12-12 18:03:17.004007,Right,462.43548560189083,532.1498020172585,533.9203225382371,520.5312228461262,254.79655718558934,493.17217599984724,505.33918031677604,542.4226092698518
2025-12-12 18:03:17.008003,Right,384.6291526838904,437.9571575988084,436.92316109559033,431.8225699288305,325.3534093762282,403.3242522557266,418.4912083548261,451.0013727574842
2025-12-12 18:03:17.013029,Right,277.86860981734935,324.7587498605717,324.6643165292917,319.57473548781127,335.75229017075617,293.9283121294575,311.0232996024424,341.6403401721036
2025-12-12 18:03:17.017041,Right,293.5295709455386,349.04801898100413,352.00592161144596,338.9581078524934,230.85761289461516,318.39624736632686,333.9543379341485,364.34764741698746
2025-12-12 18:03:17.021084,Right,371.4049852460157,429.11227421450894,431.1862559306901,416.61301559361164,182.32410429720767,396.76489104446955,410.99339438951574,440.5733962483937
2025-12-12 18:03:17.025078,Right,347.5087526382413,392.4665752751753,390.1288528640289,383.0493413626682,264.6218367012916,360.514044469106,375.76111529942136,404.1627266893629
2025-12-12 18:03:17.029089,Right,240.11838150408585,275.78008938976564,271.8793046165956,268.1332165518543,301.3188480200479,246.9193149053026,262.203858883935,289.6603677436942
2025-12-12 18:03:17.032121,Right,202.552971294499,242.42395268986002,240.95027193066198,232.09625965962186,185.60440523730358,216.55277762690093,229.15618410718162,254.63017424335703
2025-12-12 18:03:17.035096,Right,247.3217198291095,289.5707019683905,288.91979211953003,278.26268620905466,88.25465797015931,264.83898934931494,276.1677824575454,298.5907769598998
2025-12-12 18:03:17.039092,Right,247.41109572339337,280.82011858851183,277.6595506705344,273.2838303509634,156.75328080513282,256.10366380761843,270.3865337497555,291.5430955751799
2025-12-12 18:03:17.043061,Right,183.88327698456123,211.5664972641971,207.55208386457525,206.2254205805948,246.720848091878,186.8445787577657,204.13352605514228,226.37841742439196
2025-12-12 18:03:17.048112,Right,163.13605084340088,196.31051653251052,194.93032717471942,187.91736035456415,177.67931250610854,172.39038448152132,188.20795342721976,209.1802371403901
2025-12-12 18:03:17.051136,Right,194.0595644704299,227.66229232458863,227.34021292603575,217.1921036989661,51.879721781704575,206.03034811327234,218.6670753089711,232.9591089390451
2025-12-12 18:03:17.055132,Right,173.11997266754042,192.91036977944896,189.6256763767451,185.62348076095805,64.57363842026098,173.7813378549181,186.74305685271975,194.31074358767364
2025-12-12 18:03:17.059203,Right,102.97865666775033,113.96482112747617,108.63921954401303,108.80270458979066,159.32351225119783,94.27322247659322,110.11074136686511,118.25577863585204
2025-12-12 18:03:17.063199,Right,102.02139708446339,123.18428188585676,119.7664899219526,113.67509563383646,145.7846044318867,99.0401910651708,115.96423643024173,129.98818148532882
2025-12-12 18:03:17.067197,Right,165.04312584892614,195.24551176198293,192.76304896606598,181.2220019568922,42.05982022342505,167.06697988073574,183.72370434214827,199.8673129164381
2025-12-12 18:03:17.071217,Right,142.86433608387597,159.69741306710057,153.31343032594305,148.46533426921815,17.697469322069082,132.29114233417204,150.67887275893008,162.5116967675276
2025-12-12 18:03:17.076198,Right,18.838947631884366,16.44095196633134,6.13009577000048,10.534651340043638,74.44758888985962,-7.350959230971057,13.366499189694878,21.66603902715724
2025-12-12 18:03:17.080189,Right,-28.223755153012462,-28.057958187593613,-37.018463735701516,-34.70967672445113,66.14858392201131,-50.857327663106844,-31.586504541744944,-20.9213926960947
2025-12-12 18:03:17.084160,Right,67.0613171896548,82.56451479671523,76.74325815081829,72.08862234681146,-9.428026586014312,58.04507938429015,73.02671394869685,86.94429635611596
2025-12-12 18:03:17.088239,Right,118.83193106809631,132.4050337227527,125.69652031181613,124.08351896819659,-17.939492909004912,109.33872297476046,122.43939584348118,133.648518687638
2025-12-12 18:03:17.092241,Right,1.3438913772115484,-3.5592036400339566,-13.11251768481452,-4.999857680406421,33.51129318791209,-19.575603810721077,-5.390263685083482,-0.9320089410757646
2025-12-12 18:03:17.097258,Right,-123.95354469871381,-135.32945329707582,-144.20595120592043,-134.21127838490065,3.7728394321748056,-144.15890651586233,-130.54365104966564,-129.52705157542368
2025-12-12 18:03:17.101254,Right,-78.49384379346156,-78.17929771967465,-84.27757637179457,-79.46664360171417,-94.64428601213149,-85.05566697166068,-74.58149681531359,-71.53423042612849
2025-12-12 18:03:17.105218,Right,30.487266542040743,36.089807806303725,29.525346168258693,35.386998885311186,-96.15269900113344,28.388004572945647,37.541354318498634,43.13960995519301
2025-12-12 18:03:17.108288,Right,0.423425339453388,-6.03951790794963,-15.359205840562936,-1.7701685812789947,0.7576093664392829,-11.615906535589602,-0.7512130293180235,3.2062464561895467
2025-12-12 18:03:17.113250,Right,-126.20408267411403,-143.3561501565855,-152.37421412597178,-137.03062861209037,3.1479541111330036,-143.8675505356514,-132.65217023232253,-133.90285467047943
2025-12-12 18:03:17.116263,Right,-158.89645049883984,-173.10259640676668,-179.38714615511708,-169.65445909788832,-127.07370573093067,-170.5981588246941,-162.11510509834625,-168.10508420626866
2025-12-12 18:03:17.120307,Right,-91.56362232781248,-102.28415506801684,-109.11825783527456,-99.83988293664879,-183.55538173945388,-100.54495617721113,-93.58577046749997,-100.7038027329254
2025-12-12 18:03:17.123280,Right,-82.6004347683047,-99.0186653288547,-109.79128649047925,-93.22248222396593,-79.60389466799097,-98.06899606395746,-89.24504971853457,-94.3675286755024
2025-12-12 18:03:17.127338,Right,-159.8053397280164,-180.11421998305013,-192.24747145167203,-173.16982219112106,-14.60852966431412,-176.82522989241988,-167.13170877716038,-171.24865723744733
2025-12-12 18:03:17.132367,Right,-194.88969578387332,-210.70403033943148,-220.38312238355866,-207.73045767471194,-123.78406722626823,-203.4060048123938,-196.93607361934846,-204.7664104953874
2025-12-12 18:03:17.135353,Right,-154.76055922018713,-170.12238012178568,-178.9979742471769,-169.52707495805225,-233.27158713409153,-160.3358774004737,-157.07930544245755,-171.31443770200713
2025-12-12 18:03:17.138394,Right,-143.4464487950754,-167.94014236709336,-179.4533435436606,-164.12592831716756,-166.75877059005143,-158.38652751104382,-154.01831651935936,-170.82965458271792
2025-12-12 18:03:17.143355,Right,-186.48787519348843,-214.40080988443515,-226.9315706545458,-207.9386674524576,-56.04634212129167,-206.7068430573272,-199.79616124471067,-213.2590731898381
2025-12-12 18:03:17.147336,Right,-194.30964948877227,-212.88901670527412,-222.79437013808638,-208.99790114432108,-102.31138248207571,-206.39722148653527,-200.24500735639594,-210.76027576417255
2025-12-12 18:03:17.151425,Right,-161.094871014393,-175.77704254121636,-184.67025385273155,-173.99979388985957,-225.1778083777026,-167.96172346347885,-164.18505621653458,-178.03931509226095
2025-12-12 18:03:17.155428,Right,-185.2410987279436,-212.83091143386264,-225.16433658238384,-207.65727546286507,-222.1797067180887,-202.07254753891903,-197.88295697536523,-217.62890316585253
2025-12-12 18:03:17.159443,Right,-259.0436429049114,-297.3851066267234,-312.3720765066537,-288.92547816174556,-128.35371245435272,-285.6075764525631,-279.4642700453951,-299.8390299049279
2025-12-12 18:03:17.163458,Right,-254.77471180474913,-284.81887380872104,-297.6693146090419,-279.2150253584823,-128.91259974959394,-275.6126870596911,-270.27340493865086,-286.4470128659559
2025-12-12 18:03:17.168457,Right,-170.3536279769105,-190.16965604851794,-200.5514302491174,-188.274665358138,-216.79311850632075,-183.64745638516615,-180.82895725119852,-196.10463233531846
2025-12-12 18:03:17.172460,Right,-167.2442178827041,-196.942027501369,-209.08391852805653,-192.10072663481697,-230.12720814456407,-188.61002872545214,-185.5520836233045,-206.28176581440493
2025-12-12 18:03:17.176473,Right,-287.79260820180934,-334.1976695277626,-348.57971923398145,-323.83918104087206,-169.01667472159897,-320.54679234749347,-315.18671521520446,-341.15445023035136
2025-12-12 18:03:17.180494,Right,-357.8625750903593,-401.3223049241351,-413.509134537293,-391.66218445898267,-183.44785676522588,-384.3558542433457,-379.48728522783495,-404.91762911420665
2025-12-12 18:03:17.184500,Right,-280.49215753699536,-308.30520221836923,-317.0511726637924,-303.58512320305454,-272.1487094639306,-291.90341190564504,-290.50911592214834,-313.2347237299691
2025-12-12 18:03:17.189510,Right,-209.7127290320641,-237.3913233927451,-246.88589464394317,-233.17267797936802,-281.1556159435131,-221.42414788232418,-221.6846631813969,-245.55288241441303
2025-12-12 18:03:17.192521,Right,-283.3214794448286,-326.6786460108706,-338.814967683109,-319.1928180461109,-205.82806720781082,-308.47414193919394,-307.44354177371133,-335.4515185483033
2025-12-12 18:03:17.195533,Right,-383.6263185784628,-432.138514777238,-443.2128054808127,-426.0067781136604,-209.65123427650542,-412.2142266025767,-411.12798071760335,-441.3267640128033
2025-12-12 18:03:17.198488,Right,-352.14044833520893,-389.49598282633815,-397.3475408720551,-389.3358397676202,-311.0379801467643,-371.39754425242427,-372.78963332495186,-402.26605947318603
2025-12-12 18:03:17.203562,Right,-268.41611186091905,-300.746856105543,-308.94431991683086,-302.2860177519615,-335.0479927370325,-285.2635055089195,-287.6990474619961,-316.5832908904122
2025-12-12 18:03:17.207564,Right,-295.86426252123783,-337.8134793904901,-349.1484764213674,-334.8397858180397,-238.78798445744906,-321.4075339095143,-322.12570667715045,-351.95805468037724
2025-12-12 18:03:17.211569,Right,-387.03662900510244,-434.746492817736,-446.22281061136164,-428.8384161030408,-202.91778903073282,-414.6780366199964,-415.12607572218985,-446.331368026149
2025-12-12 18:03:17.215532,Right,-380.9728320085851,-421.873196833214,-430.45941631650203,-417.4688226997969,-301.9802054755273,-399.56298766625696,-402.85203713344526,-435.4927485198132
2025-12-12 18:03:17.218599,Right,-298.95616452535614,-336.9311249307939,-345.21155240089865,-332.0201107431203,-360.0506543353258,-315.01747286328464,-319.51525019831024,-353.9697760521085
2025-12-12 18:03:17.222606,Right,-296.5228268344654,-343.68996768130455,-354.8673437644029,-333.9724727833527,-270.69128820710466,-322.6777061399189,-323.8108981187688,-359.3329126727185
2025-12-12 18:03:17.226618,Right,-375.65320827503456,-427.4211893835454,-439.14637407660484,-415.72986795403995,-196.651309228444,-406.897122690978,-404.45161486329744,-439.50431932357606
2025-12-12 18:03:17.232637,Right,-392.0896000445937,-434.44209158991,-443.0845901344437,-426.89956998301204,-275.3714986279956,-415.1272485249792,-413.1322898710496,-448.1165470149135
2025-12-12 18:03:17.235668,Right,-329.0675903955125,-365.0507029973669,-372.387584746466,-360.4320360835409,-368.00227095821174,-347.4475453130435,-347.18247564311605,-384.1170930240187
2025-12-12 18:03:17.239603,Right,-319.1248047322151,-363.7362381568528,-373.4374038100359,-355.7692018970265,-313.40603747422574,-346.4658742110478,-345.3287597730523,-383.83714537665946
2025-12-12 18:03:17.243662,Right,-383.80378523952095,-435.85247077734675,-446.24061817658367,-424.38521591876633,-219.22770140995272,-417.39659969566856,-414.94971719005844,-451.58165198971983
2025-12-12 18:03:17.247672,Right,-393.5523568262579,-437.664798090409,-444.4368821950047,-428.2614253832144,-258.2637835855712,-418.1794505753205,-417.45856156141963,-450.63225809228607
2025-12-12 18:03:17.252689,Right,-324.3170274766744,-360.3890550865908,-364.53874059562804,-353.52090925502125,-353.50150972325355,-339.87236448196927,-341.5945333370473,-374.346623588528
2025-12-12 18:03:17.256708,Right,-315.5802315325709,-360.56398686557077,-366.8160209330963,-350.76204224681715,-331.1934365037596,-337.21460038784426,-338.1764238104224,-373.71162346360506
2025-12-12 18:03:17.260709,Right,-407.7443421134958,-465.19463073444786,-473.7014372398262,-451.7077066283091,-246.14723248773953,-438.0198048065067,-436.99948669067817,-474.1152269867016
2025-12-12 18:03:17.264718,Right,-453.0404494255199,-506.22687722177943,-512.7547013721196,-495.01302502071485,-271.73658727505244,-477.64828872692306,-477.72747528454056,-513.4344337207149
2025-12-12 18:03:17.268734,Right,-379.7890045023523,-421.3845201804652,-425.4076559189707,-414.4284688900807,-368.4680320601328,-394.9500147603103,-397.50634656328475,-431.7599753154791
2025-12-12 18:03:17.272754,Right,-325.0780543151777,-369.15383288805606,-374.7778351120651,-361.1389906532131,-356.8138885247754,-345.7825673579937,-347.2009137760615,-381.7933140785317
2025-12-12 18:03:17.275765,Right,-386.1425601228839,-441.16311903478345,-449.46136958821444,-429.9006390471477,-257.2617708175676,-419.34659517207183,-417.0843552284641,-451.90744207717944
2025-12-12 18:03:17.278753,Right,-446.544767092797,-499.9642442110344,-507.28745341079775,-490.96764270064887,-256.57136402267497,-478.32842756371247,-475.66741237742826,-509.76932473049965
2025-12-12 18:03:17.282775,Right,-395.0436542139505,-437.5530568541726,-442.93938297301065,-433.8972753324779,-358.94132053188514,-415.1021612419281,-415.8772138708737,-450.8440678101615
2025-12-12 18:03:17.286787,Right,-328.85678889707197,-372.13404377462575,-379.6584818001138,-368.2792041451903,-374.6205929396092,-347.0603138526785,-349.7091055282508,-388.0010249859188
2025-12-12 18:03:17.291743,Right,-368.51388784876326,-423.1244853582466,-434.40034192055464,-414.32025255437475,-271.9785780701786,-394.2841876203893,-395.49609824077925,-436.0127131830668
2025-12-12 18:03:17.295830,Right,-435.0185113704647,-490.2868525181548,-501.02412868337706,-480.5654268648359,-238.5733956694021,-459.89096382277785,-460.4889362276881,-499.62271322112065
2025-12-12 18:03:17.298842,Right,-403.2867037836113,-447.2790099660633,-454.5788807362551,-441.6961611172301,-335.4069969403208,-419.445358428231,-421.688843646436,-458.4942742048297
2025-12-12 18:03:17.302815,Right,-338.19288823980605,-380.2448488626396,-387.40989297581837,-376.02355177118443,-385.23954786459217,-356.49929406674346,-358.5645338175236,-395.1500683600316
2025-12-12 18:03:17.306832,Right,-368.17017581121763,-421.1803039117949,-431.3768237879267,-413.9116803618381,-300.5275972811505,-399.6742195125553,-398.33370486914646,-435.3262372717727
2025-12-12 18:03:17.310845,Right,-437.75682501663687,-493.25707959616557,-503.7930713718524,-485.7634324321989,-241.32471801468637,-472.2363407794619,-469.0125820201356,-504.8161041433923
2025-12-12 18:03:17.314860,Right,-409.9997632232262,-453.3371097338386,-460.8603110278491,-450.06554635055363,-314.1314619119512,-432.55905980139505,-431.5828390903771,-466.71600707189646
2025-12-12 18:03:17.318863,Right,-328.64346954086795,-366.63855460018385,-373.29574020195287,-364.20451878977474,-376.1244949901011,-345.3583154982189,-346.43298404838424,-384.1810382879339
2025-12-12 18:03:17.323829,Right,-342.2348048539716,-391.40191218000837,-400.4868766745785,-383.6639635547763,-305.8505218306673,-368.31650133931544,-367.7949852530146,-408.8019384229556
2025-12-12 18:03:17.327895,Right,-423.98990970436716,-480.20307503652293,-489.6811115248129,-469.1768501113402,-229.44371363183018,-456.3206179556437,-454.091981951613,-494.18401472002733
2025-12-12 18:03:17.330848,Right,-414.0893635909306,-459.7628248684341,-466.0859103281982,-452.1734889532672,-281.37400924996473,-438.20465963857714,-437.9878549395362,-473.7742342411075
2025-12-12 18:03:17.335922,Right,-316.18124072428327,-352.3450939307222,-357.4710805513896,-347.66911400144454,-353.12055622861953,-333.8734026537277,-336.5080930670956,-369.9379002051428
2025-12-12 18:03:17.339935,Right,-297.7184910548385,-342.19725444656797,-350.3998551032273,-333.81230386404786,-300.93981285893824,-323.6702304983046,-325.8575455615064,-360.5336340692593
2025-12-12 18:03:17.344946,Right,-384.3633587175282,-439.3601130960742,-449.43444313306827,-426.51766089419834,-218.04679213982308,-418.31815313664265,-418.9027785847429,-454.7082154088421
2025-12-12 18:03:17.348941,Right,-410.00298635696527,-458.49033112823963,-465.7880446204217,-447.2523364361841,-257.0659405470942,-436.59416779794265,-438.6379767386243,-473.14391879190225
2025-12-12 18:03:17.352979,Right,-319.3147641113028,-356.41332870698534,-361.0456236610189,-348.351287087542,-338.5546726027387,-335.89252678269986,-341.0695792513434,-373.9676302659791
2025-12-12 18:03:17.355976,Right,-268.3775741701247,-309.852110360167,-316.00859699968714,-299.68409139453433,-298.5312193418504,-289.1235750315245,-295.144568797783,-327.86144635721575
2025-12-12 18:03:17.360012,Right,-339.2760933384998,-392.27142359816935,-400.1894454952562,-378.51058434904553,-200.66875097510638,-368.3192096390994,-373.96786191442516,-406.47302156698424
2025-12-12 18:03:17.362999,Right,-393.79951924737543,-444.33130553609226,-449.91167881526053,-432.67256412061397,-222.29688929469557,-417.43474674550816,-425.4161835394334,-456.7108291883487
2025-12-12 18:03:17.367022,Right,-329.2730789068155,-368.5372826951789,-371.0212572044693,-361.52481213817373,-320.3455450324109,-341.3845131746493,-353.1876143463887,-383.8941184307914
2025-12-12 18:03:17.371012,Right,-261.30578070122283,-300.907775246189,-304.1466958654346,-293.3008317274507,-304.85697933944175,-274.50672877102625,-286.64795270049945,-318.154858279624
2025-12-12 18:03:17.374969,Right,-304.6708273655968,-353.41202095954213,-358.5417906889925,-342.0268916784553,-192.28953198564705,-327.1035786984721,-336.1450381921604,-368.0669233452063
2025-12-12 18:03:17.380048,Right,-366.8278227203991,-414.13400855031796,-417.47049323818646,-403.77179656433873,-181.11616204096936,-388.65463376173284,-396.2840416437248,-427.4295559185557
2025-12-12 18:03:17.383059,Right,-329.86924075102434,-366.8399241063744,-366.946797759505,-361.31155522109475,-287.3079457746935,-343.9934972153278,-353.2158976470819,-384.0379582878668
2025-12-12 18:03:17.386061,Right,-267.6822915492812,-304.68575314991176,-305.37264459510334,-299.98143301310483,-312.29946923605166,-284.24951471888926,-293.99237666314,-325.3075097904075
2025-12-12 18:03:17.391089,Right,-295.2511138743721,-342.0132028069347,-345.4690255797468,-334.42095606634393,-205.81149141461356,-321.8711828086525,-329.76684000575915,-360.15947080310434
2025-12-12 18:03:17.395083,Right,-346.5968008498894,-392.71260349685326,-395.4241820767056,-386.32286167982966,-155.8272587156971,-372.00720061711036,-379.5482268537162,-407.3016632734798
2025-12-12 18:03:17.399096,Right,-302.70368843362667,-336.58190754649695,-335.70543963916134,-335.7071465149056,-241.4852101135184,-316.1748077708762,-326.2111443999456,-353.06819656759035
2025-12-12 18:03:17.403048,Right,-223.26233407633845,-254.714323859429,-253.15639499167446,-255.24953137000557,-290.8909553762642,-234.61231606139336,-245.87771284452174,-275.2170774982078
2025-12-12 18:03:17.407119,Right,-239.00338152691256,-282.19318726006895,-283.0716498179827,-278.2918267135974,-202.09703934611753,-261.32075499161147,-270.46046099904925,-301.9093837700784
2025-12-12 18:03:17.413127,Right,-304.9853679180378,-352.27604956855066,-353.2559987674467,-346.2122318238253,-128.90423556230962,-330.9790274518309,-338.62097266782075,-368.4140930175781
2025-12-12 18:03:17.417198,Right,-284.2928898285609,-319.9283092446858,-317.9944358424982,-316.9494769576704,-192.26631435385207,-299.77695930411573,-309.4395760244224,-336.5474178114673
2025-12-12 18:03:17.420184,Right,-208.3909339386737,-237.3780479056295,-234.8886468479177,-235.3469804727938,-259.22552261222154,-218.10508609795943,-229.73577364103403,-257.4665483100107
2025-12-12 18:03:17.424176,Right,-220.16714133357164,-258.7070884980494,-259.16672155214474,-251.97894376551267,-195.7908811692614,-238.21361795219127,-248.23181648657192,-278.530338541721
2025-12-12 18:03:17.428190,Right,-300.86046362726483,-345.7180144218728,-347.04989143577404,-335.9557565712603,-114.93837155180518,-323.7326519220369,-331.5794476312585,-361.8289880177472
2025-12-12 18:03:17.433133,Right,-296.2319058190333,-329.9486578734359,-328.00164622534066,-323.5827930351952,-159.27707424393157,-308.916702273651,-317.9002304072492,-345.53961103840265
2025-12-12 18:03:17.437203,Right,-203.15231054910691,-225.9377919731196,-222.0401083684992,-222.8350151302293,-233.03112071956275,-207.16145870171022,-218.00142490887083,-244.75373285193928
2025-12-12 18:03:17.440207,Right,-182.7743030198617,-212.35503254411742,-210.93889676441904,-206.64402384625282,-186.63003805320477,-193.86140824609902,-203.10296265152283,-231.71488110418431
2025-12-12 18:03:17.443158,Right,-265.04852243192727,-304.61641214764677,-305.1678080765996,-296.0841106706066,-101.2268732113298,-284.63837052544113,-290.8845812367508,-320.4896125815576
2025-12-12 18:03:17.447216,Right,-288.15986990981037,-321.1776792356977,-319.27078053040896,-315.9892404881539,-133.76714179076953,-301.3828428821871,-307.5872454561759,-335.53396256186534
2025-12-12 18:03:17.454262,Right,-191.72217209002702,-212.6266031539999,-207.9124931243714,-211.96523832099047,-215.25165859720437,-195.39244402386248,-203.09631723118946,-229.16592955158558
2025-12-12 18:03:17.457245,Right,-128.1006396888406,-152.12865015526768,-148.4548432357842,-149.84388027968816,-176.11212819139473,-136.4384448606288,-143.09070392139256,-168.58130659535527
2025-12-12 18:03:17.460261,Right,-187.10720183089143,-221.85262358991895,-219.67807873617858,-215.5144760934636,-68.57447975105606,-204.90707237506285,-209.38931232318282,-233.7375030646799
2025-12-12 18:03:17.463278,Right,-239.3981847250834,-271.35906421160325,-266.9089652565308,-266.24128707440104,-77.44228690204909,-252.98819969699252,-258.6319289250532,-280.41088772693183
2025-12-12 18:03:17.466297,Right,-180.42485882440815,-200.81804887601174,-193.49743145727552,-199.51358565909322,-177.66500662837643,-182.9852679077885,-191.81820924056228,-212.00862445135135
2025-12-12 18:03:17.470306,Right,-118.35531449876726,-139.1019308163086,-133.1197912953794,-136.29131959553342,-177.27324477088405,-121.99405969720101,-130.6990031300229,-151.59280466404743
2025-12-12 18:03:17.474259,Right,-163.86359243938932,-194.10906915261876,-191.14963502250612,-186.34916713496204,-71.25511167035438,-176.18763608054724,-181.6604863833054,-203.25963180465624
2025-12-12 18:03:17.479321,Right,-222.1253480121959,-250.34759205649607,-246.91942101425957,-242.57347194862086,-50.202411569596734,-231.59922225476475,-236.32221361389384,-257.0890196559485
2025-12-12 18:03:17.483343,Right,-174.12435091397492,-189.92998416826595,-184.19591826258693,-186.5226974406396,-146.53230585186975,-171.66936869069468,-179.21603410795797,-199.50208296079654
2025-12-12 18:03:17.487298,Right,-101.99772342218785,-116.38034258747939,-111.43943143851357,-113.48658334166976,-175.2901099511073,-98.14272317267023,-107.01304104708834,-128.09010163578205
2025-12-12 18:03:17.491377,Right,-134.87080439476995,-160.34141579945572,-157.71036974556046,-153.61412847973406,-78.93058906780789,-140.1817746430752,-146.91564036923228,-167.2885785907274
2025-12-12 18:03:17.495388,Right,-206.73468378960388,-234.24303223128663,-230.02200791961513,-227.34303862962406,-34.1348325618892,-212.25080355914542,-217.7476531122229,-234.34234264073893
2025-12-12 18:03:17.500379,Right,-181.0765735185705,-196.96664309536573,-188.4790241040755,-194.90888618625468,-122.57794923114125,-175.50406392646255,-183.08501441468252,-196.08455093577504
2025-12-12 18:03:17.504382,Right,-105.943815197621,-117.28039787098533,-108.21846482419642,-117.07079829502618,-178.75230980775086,-97.29206135694403,-106.58268022397533,-119.45676901272964
2025-12-12 18:03:17.508408,Right,-119.65718253602972,-140.4532897361787,-134.77294906025054,-136.51188325911062,-96.57282529154327,-120.44889480288839,-128.63241091789678,-142.88195221748902
2025-12-12 18:03:17.512420,Right,-186.44190251734108,-210.55256864946568,-205.9092942883144,-204.80458778655156,-23.178051143942866,-189.8769102197839,-197.63186559209134,-211.03759614622686
2025-12-12 18:03:17.516436,Right,-161.41050840343814,-173.23176927038003,-165.65172523696674,-171.04629065730842,-81.80181001604069,-153.28935138037195,-163.72111452755053,-174.8692150071729
2025-12-12 18:03:17.521446,Right,-65.23321876378031,-68.84184974292293,-59.831423560041,-68.53588435781421,-143.58522797189653,-50.071367057040334,-62.360099965531845,-73.31315594149055
2025-12-12 18:03:17.524460,Right,-52.201203479024116,-64.54466286953539,-57.735430036031175,-60.25599999021506,-72.96987935865764,-45.18618688941933,-55.134715620893985,-67.72245473222574
2025-12-12 18:03:17.527479,Right,-125.93069230188848,-146.1414022523095,-140.17959523713216,-138.87171090510674,15.557339124148712,-125.59239589527715,-132.60790739842923,-145.2901469161734
2025-12-12 18:03:17.530477,Right,-131.44862129620742,-142.94109046150697,-134.0287793210009,-139.14253786444897,-28.843756826536264,-123.66130633238936,-131.55624338117195,-142.35877391061513
2025-12-12 18:03:17.534490,Right,-41.7235282077454,-43.019377013493795,-32.10975428292295,-43.10316005878849,-110.08877591066994,-26.988745778275188,-37.22837449639337,-46.97314270323841
2025-12-12 18:03:17.539441,Right,-7.808179091080092,-14.785302426316775,-5.752687217842322,-12.79507993470179,-64.42070315330056,-0.47168762143701315,-10.134898858552333,-20.07032632129267
2025-12-12 18:03:17.543532,Right,-79.79793010168942,-95.60244400345255,-87.8697764382232,-90.58594523504144,32.100204835413024,-80.86175259802258,-88.54203354386846,-97.35565736948047
2025-12-12 18:03:17.546457,Right,-117.3748113209731,-126.53858798928559,-116.15468994993716,-124.27157919999445,3.864568212069571,-112.15030203177594,-120.51060244749533,-126.790869515331
2025-12-12 18:03:17.550540,Right,-52.311933683464304,-49.899202776374295,-37.14896893373225,-51.841151353903115,-96.47954574652249,-37.58102657314157,-47.87835921312217,-53.359254196693655
2025-12-12 18:03:17.554558,Right,-9.859700212837197,-10.743406474473886,0.07376774161821231,-11.115505799592938,-84.06713372492231,0.20449959964025766,-8.78798866487341,-15.86537442181725
2025-12-12 18:03:17.558574,Right,-66.8189540784806,-77.63883786665974,-69.20732042117743,-74.13299746805569,16.53619905828964,-66.35249834682327,-71.67773148126435,-79.48723003244959
2025-12-12 18:03:17.562588,Right,-105.45881256402936,-111.9224400857347,-101.65542299015215,-110.03000788128702,19.526439725595992,-100.75283232220681,-105.09463156783022,-111.36976794613292
2025-12-12 18:03:17.566599,Right,-38.274664599623065,-31.94259908120148,-18.88613124610856,-34.90972621773835,-75.814664047939,-22.451878383988515,-28.78205335274106,-34.12400513398461
2025-12-12 18:03:17.571607,Right,20.742206283903215,26.021039033541456,37.5971952691325,22.878357077832334,-86.66822403622791,34.311291091144085,27.794043353700545,21.096843134553637
2025-12-12 18:03:17.575632,Right,-34.09591452975292,-41.06615680194227,-32.60405339236604,-40.8301457677735,9.832314555416815,-32.2346195015125,-36.20284402760444,-43.64538827911019
2025-12-12 18:03:17.579661,Right,-97.92612858110806,-105.3324290565215,-95.75660794193391,-105.92117960617179,35.13460598984966,-96.22148374677636,-99.38088552973932,-104.41596663446398
2025-12-12 18:03:17.583662,Right,-43.335944693535566,-38.20988452382153,-24.840488852234557,-43.35549373849062,-53.852753627928905,-30.84300997760147,-36.10840494389413,-37.81759430008242
2025-12-12 18:03:17.587597,Right,44.82253016636241,53.21624000812881,67.04087023605825,47.760105128749274,-82.20597461052239,58.18166565010324,52.5483693847782,52.06033145316178
2025-12-12 18:03:17.593669,Right,23.5796456100652,21.98886874044547,33.334899638430215,20.946770869661123,15.237463206489338,25.556894580833614,23.152183559315745,22.825173391087446
2025-12-12 18:03:17.596683,Right,-48.30517932670773,-51.7610643178341,-40.2790791678126,-51.84052607539343,69.57703540226794,-49.651469601201825,-49.70932922262,-48.77093708445318
2025-12-12 18:03:17.600631,Right,-23.896457627328346,-14.771923192078248,-0.5291398407425731,-19.146527247619815,-8.46726924093673,-15.529921957815532,-16.690669681993313,-14.622876956767868
2025-12-12 18:03:17.603697,Right,58.2912665445765,73.60269106022315,87.72780444833916,67.59335242887028,-62.626171197305666,70.27867884581792,68.35835176630644,69.38363305502571
2025-12-12 18:03:17.606716,Right,49.2771878100757,55.38002411549678,66.03593662765343,53.43538676883327,16.445630096131936,52.16556032979861,52.38343616560451,51.86997700406937
2025-12-12 18:03:17.610670,Right,-29.32910994021222,-27.911272165976698,-18.363290352834156,-27.514672696212074,87.01137763482984,-29.616366552567342,-28.110095492884284,-27.83411159052048
2025-12-12 18:03:17.614733,Right,-24.68217938617454,-11.71235385996988,0.532583785650786,-14.797081094933674,22.127758218586678,-13.622012571286177,-14.534495507366955,-12.375456564855995
2025-12-12 18:03:17.618747,Right,61.52622781918035,83.55424487427808,96.97470613906626,77.93532268510899,-52.02551056371885,79.84642845738563,76.7993176066957,78.67283047232195
2025-12-12 18:03:17.622769,Right,76.23849133957992,89.94057528561098,100.99092756281607,87.6205397490703,8.40552917306195,85.46624305727892,84.69239571219077,84.68864744287566
2025-12-12 18:03:17.626772,Right,1.2805846044211648,5.502776152890874,15.619970129569992,6.123182086535962,95.8843919558858,1.4916346802201588,4.35755207555485,4.302679645916214
2025-12-12 18:03:17.629786,Right,-12.950556952069746,-2.153487978008343,10.84133643883979,-4.592100258159917,52.7032121962402,-6.7074888556671795,-3.610798810579581,-1.485452852328308
2025-12-12 18:03:17.634801,Right,71.20228092095931,91.58619421592448,106.20896369186812,85.71569158197963,-32.94679419964086,85.36676687089493,86.87564364596619,90.70868963765679
2025-12-12 18:03:17.638788,Right,108.551429731393,123.51998318647384,135.2625184225617,120.43954351509456,9.506681428450975,116.93085177402827,119.14654900151072,123.52876136018313
2025-12-12 18:03:17.642805,Right,42.050191039568745,47.240068145038094,56.32849813508801,48.559248978301184,113.4136555797595,42.123000729246996,45.9551593833894,51.56474458059529
2025-12-12 18:03:17.646826,Right,8.1850249832205,17.636683779855957,28.40784077666467,17.663865407870617,96.45713042224816,13.607575392030412,15.911733245913638,23.210716820613015
2025-12-12 18:03:17.650845,Right,80.8225067142921,99.39327356329886,112.01295243011555,95.61600818755687,-1.1035542597674066,95.21586407348514,94.06905518105486,100.99791653937427
2025-12-12 18:03:17.654855,Right,132.3814932507812,145.51065036273212,155.32635790499626,142.50613068422535,8.400698436889797,141.54990317308693,139.62529070969322,144.39918947397382
2025-12-12 18:03:17.659853,Right,71.55784085107734,72.67822167751729,78.4937585798616,72.49424948182423,111.04194409238698,69.49646328437666,69.3114907068084,73.80730579487863
2025-12-12 18:03:17.662876,Right,12.947438522693119,17.223484693473438,23.244737972068833,14.842183127970202,118.18001322097552,13.523471854568925,13.143143390276236,20.215190633869497
2025-12-12 18:03:17.667873,Right,62.18239080886997,79.64297440322116,87.6521138685639,72.36522107344354,17.842724750647903,74.34230839386873,71.20045057183597,79.90837464103242
2025-12-12 18:03:17.671850,Right,121.2548176170385,138.40246625783038,144.77818716182082,131.48229151968553,-3.688036247054697,133.226096923172,128.9817628392193,136.08528786386887
2025-12-12 18:03:17.675895,Right,78.97642904904205,83.21628399420297,86.16221827523259,80.83965577962226,92.80539142813359,80.49423700406624,77.99714237569424,83.34684239553462
2025-12-12 18:03:17.679923,Right,25.4524267425586,27.604997137968894,30.895285709542804,25.661315271892818,131.31364319224667,26.44889814524504,24.669122856634203,31.15396701177815
2025-12-12 18:03:17.683949,Right,83.00944219788653,96.67320739552088,102.9062606820371,90.63244928057247,51.77069270030188,94.02810754325765,90.68254688786692,99.12590818249737
2025-12-12 18:03:17.686919,Right,168.88728043090669,185.3053927681758,191.3741368426563,178.69624044951343,18.656529691797914,180.38484557501215,177.23914820239588,185.45253364462405
2025-12-12 18:03:17.689950,Right,139.51613219641877,144.56119252978533,147.78550828635343,142.4537632684369,106.78600033919793,139.35458875053155,139.76353574234236,146.96177903338685
2025-12-12 18:03:17.694965,Right,54.753035524605366,56.0532972276269,59.38647770421812,55.60353458511236,157.41689204519207,51.33675754495198,54.152259926413535,62.3957606368931
2025-12-12 18:03:17.698918,Right,70.55693622949912,84.0017100043624,90.5752523510746,79.49307911885262,76.54976453025301,78.00900021829875,79.2020492278898,89.63835412620392
2025-12-12 18:03:17.702997,Right,154.52790173668473,175.12403036309843,182.47276790511387,168.1022819195423,14.724082782679034,166.94390249749267,166.32791895175615,177.5620731933086
2025-12-12 18:03:17.707006,Right,148.82535632872896,159.93752190336818,164.88239550839353,155.8185606420884,87.29860799694507,151.1586018010712,152.22595671521412,163.6048333400904
2025-12-12 18:03:17.710005,Right,62.6778269046481,66.23999702847505,71.32798867217207,64.22694694201346,157.03066054106603,58.02581551766343,61.48480749872397,74.62772873818903
2025-12-12 18:03:17.714015,Right,52.893658260003576,64.64616774235037,73.81562222947105,59.99854411418346,88.5106925461605,56.03474364512658,58.863684770374675,74.29342322451703
2025-12-12 18:03:17.718028,Right,132.37223888590233,151.8287520899794,162.98272748179443,145.76377464911275,1.9020251172760254,142.4076356169935,143.54536045952045,158.87751021022268
2025-12-12 18:03:17.722074,Right,149.84680155471688,161.41104937496493,169.62008474159666,159.43078709948895,51.21517706273153,153.03733694732728,154.57397002343714,168.06353981600114
2025-12-12 18:03:17.727052,Right,74.87022366784868,77.64059839096444,83.29678881564178,79.13172200488953,139.03160463527274,71.62556577403484,73.42269907273112,86.57779202398524
2025-12-12 18:03:17.731068,Right,54.28691455439139,64.26970100497783,71.55902888889614,63.05380776253833,99.86730139257907,59.03527283893834,57.59233443207631,72.03814934695765
2025-12-12 18:03:17.735097,Right,136.70619813341364,157.0072672463773,165.92323441052304,152.27332676210926,10.37236511183255,150.51816225346465,145.00634532545655,159.3719306629755
2025-12-12 18:03:17.739102,Right,180.76328039426153,195.67636174154813,202.33873462305473,193.09788390509675,46.78024185138929,188.30551727004058,182.67048346055844,195.21421573384305
2025-12-12 18:03:17.743114,Right,117.40296766509346,121.76741238995783,126.01154428550944,122.62539157980245,154.60440524222213,114.74124081823538,111.35760491331894,123.34879724322127
2025-12-12 18:03:17.747209,Right,75.39565579836199,84.23441205074414,89.9445658929344,82.7615510969008,147.07242177559237,77.02298206304476,72.98925931700614,86.49608951747177
2025-12-12 18:03:17.752180,Right,136.7288938646052,156.7936483660451,164.37803897135018,150.76591720189754,49.45902311024474,148.45678042020518,141.09486450939585,155.22726673527723
2025-12-12 18:03:17.756179,Right,182.24718569291872,198.5632164216222,204.00035699519503,193.55517550913646,48.52749371965183,190.37037609940307,181.79393718875872,194.3594874346163
2025-12-12 18:03:17.760182,Right,117.65044828243117,120.41197522474977,122.97847539621944,119.90540288060583,143.77896804931515,114.44463794110925,107.0461190190399,118.61634166542353
2025-12-12 18:03:17.764128,Right,55.015299473867344,56.977694915025495,61.150847686076304,56.68748062344093,151.5007485193346,52.97528311367205,44.57704240492603,57.38547923801525
2025-12-12 18:03:17.768191,Right,107.68299844651483,119.99279548396589,127.57357203715219,116.72905990736763,51.661136914088274,116.30241802860837,104.09724670992,117.73386511456192
2025-12-12 18:03:17.771135,Right,180.34304563787737,192.02782871777163,198.86066284411936,190.28948583357123,27.894167206752172,189.09172649722314,174.84145326508587,186.84980762378837
2025-12-12 18:03:17.774205,Right,146.09740095447341,145.22035013599816,148.60630105694145,149.08072542330774,125.26170005428139,145.28254141991783,131.86910333332344,142.2956327400243
2025-12-12 18:03:17.778205,Right,81.12745372939389,77.8126461442007,80.99727840617561,83.27548124740133,165.63615659253992,81.32888642979378,67.13243389267154,78.57457829201303
2025-12-12 18:03:17.782239,Right,120.13698188384296,128.35266978999425,134.0272877061725,130.61548891750863,79.71417785097583,133.46898208925268,115.29292969653034,128.3028319644509
2025-12-12 18:03:17.786239,Right,203.1697434316884,215.32962234748993,220.46085231639154,217.5700715485582,35.6388892983523,221.00216372650175,200.338840085853,212.68007643894816
2025-12-12 18:03:17.791193,Right,186.88885225271224,188.78620433303877,190.33785551520123,196.08065142545092,123.82762216943956,195.49641650945705,176.63120664900634,187.72390318433463
2025-12-12 18:03:17.794197,Right,111.07638312751078,109.12031239025237,109.7209514688875,118.74509693279106,186.7115663237637,116.06631196411035,99.44755841039296,111.72481822351983
2025-12-12 18:03:17.798256,Right,122.30274587814347,131.88772375162807,134.6946490566188,138.08645667126984,111.89695196505636,136.59160468172922,119.38149743473332,134.05754275839718
2025-12-12 18:03:17.802284,Right,199.30360314188874,215.8780731956649,218.34866169045563,220.27783566940343,41.783949720833334,217.71189336670795,200.01102976160473,215.2323099594505
2025-12-12 18:03:17.806297,Right,194.09778117474343,201.1204040658631,199.53251724909933,209.38338929828024,108.08603845244215,202.5052170799172,187.36223339370918,202.1154172300885
2025-12-12 18:03:17.810293,Right,111.47963368239289,110.76466792609426,107.13006836095883,121.68446849277825,187.04680780872877,113.59972806656151,100.83455468574539,116.97530973087123
2025-12-12 18:03:17.814314,Right,102.05159450642532,110.07432933147356,108.5108412837726,117.53398910739634,131.8648543899908,113.58615991994157,99.28810252502444,117.68452921927383
2025-12-12 18:03:17.819330,Right,179.56409067116329,196.69668285672378,195.94449726099265,200.99927823341568,46.74551139654068,200.22780436820176,183.30526383324468,201.37523826830147
2025-12-12 18:03:17.822339,Right,192.4278559252416,202.47982669791963,198.5262951006298,209.98707751376787,90.75256694928976,207.59563035165775,191.58163579562097,207.1319862018281
2025-12-12 18:03:17.827338,Right,106.26061715290416,106.88038273969141,100.80685354497109,118.48929373819556,179.72525088839757,114.52525942666398,101.47369312972296,116.12064300148631
2025-12-12 18:03:17.831359,Right,71.02244012891606,77.93986219620274,74.14579392150335,87.52693173181615,144.39781362864596,85.74710279997089,73.43653497002379,89.53759299895319
2025-12-12 18:03:17.835316,Right,144.8090058547532,162.07181054494868,159.95484453559038,167.49708176380955,48.39356942898303,167.05438817430695,154.26503089811013,171.06950158985273
2025-12-12 18:03:17.839366,Right,186.88249764907232,198.96793366812926,193.58385282556992,205.17339339222235,70.09883811407781,201.20969437151507,190.72154599017813,206.5477156793204
2025-12-12 18:03:17.844390,Right,119.11879501014482,119.92226208077045,110.63313782698242,128.78846881946083,168.65360789271654,121.08806990949961,114.59087995247683,130.43130059933173
2025-12-12 18:03:17.847411,Right,68.67892519665475,73.22256671712967,64.58141282387078,79.59662901968113,158.9445094323455,73.10687277479155,67.6942692901066,85.17522926942911
2025-12-12 18:03:17.850414,Right,127.47963741031708,144.1905003086722,137.66614042667788,145.58872012750362,56.27744259341853,141.64837177646405,134.7500482187752,152.28037974209292
2025-12-12 18:03:17.854423,Right,180.11358248180477,195.07667029337608,186.91752759882365,196.68673327204306,47.378787728681345,191.09893860126613,184.91110506170662,199.5240200922417
2025-12-12 18:03:17.858446,Right,121.7662630220293,124.12217026326107,112.94701857876498,129.52686845874996,142.24590658501256,120.84205966533045,118.12627893665922,129.9858866959985
2025-12-12 18:03:17.862445,Right,56.60945420348435,57.835435674351174,47.55007614652277,62.71171459159814,156.93002177421295,55.106285465473775,54.18326268219971,65.68293734910549
2025-12-12 18:03:17.866460,Right,103.69741905498086,115.33489150681999,108.09958041619393,115.9462256259576,58.3530878048914,111.45083255207282,109.56708629344939,120.87012780777877
2025-12-12 18:03:17.870470,Right,173.0256804889359,185.06737361877458,177.7533101924637,185.70896564022405,25.905508915311657,180.62928576112608,179.12842403890681,188.43167684049695
2025-12-12 18:03:17.873460,Right,132.1426299472514,132.56866811402142,123.28018896507274,137.95762556098634,114.84358709774096,130.2628516186087,131.75282886470086,139.52836108545307
2025-12-12 18:03:17.877495,Right,54.12158296915004,52.53789217580925,44.52864674018929,59.2101867304591,151.89168568897003,52.75802143305191,55.770488182402914,64.64509451549384
2025-12-12 18:03:17.881503,Right,83.48807767411927,94.03337983586243,89.18535696106846,96.681440558139,59.59185715876811,93.95388989205821,95.46547833736986,105.60376916243695
2025-12-12 18:03:17.886548,Right,168.02536045084707,183.24097333080135,177.30384686935577,184.1082981650834,2.990231977455551,180.90410664852243,182.2238022161764,190.75231463334057
2025-12-12 18:03:17.890520,Right,155.25715547127766,159.8777069778007,149.02390025556087,163.84836758422898,82.55439424143697,156.12927260732977,161.03475721750874,166.73456244714907
2025-12-12 18:03:17.894480,Right,73.1315015112632,72.27221289597219,59.51534200634342,77.30025029889657,145.7305894728197,67.87481615375145,76.12642859813059,80.99582963931607
2025-12-12 18:03:17.898551,Right,73.40469443498296,82.66094038324081,72.39317729737377,83.83509078520001,70.35478251874156,76.74015076979413,84.72797779674875,89.94161754328525
2025-12-12 18:03:17.902559,Right,147.17666681532864,163.15446389617864,153.50754161996883,162.64743790228385,-7.704121486487566,155.79288292655838,162.97979340906022,166.9370196411328
2025-12-12 18:03:17.907522,Right,144.34181807088316,150.69041926175123,137.27058911853237,154.28623072514893,52.139099073028774,143.99192315244,153.27502482902491,155.10925888604834
2025-12-12 18:03:17.911573,Right,58.390529296244495,56.13730355666485,39.9452695044165,62.165142415236915,133.3693178587564,50.906441673170775,62.541007880470715,64.17436268241727
2025-12-12 18:03:17.914544,Right,42.22823938683723,47.73312203143723,32.88469992741011,49.01431877212599,80.92946114427468,41.59171618957771,52.331113015447045,55.069855182635365
2025-12-12 18:03:17.919608,Right,124.42039490849129,138.78292680747109,124.78841561547597,134.5069538305106,-8.12686542456504,129.42910448924522,138.5747038614354,140.626460220461
2025-12-12 18:03:17.923615,Right,155.66024322251906,162.744070117129,145.8784752707288,158.97173131848103,34.843713176538586,150.98519066380686,161.80803743793513,161.56967078958405
2025-12-12 18:03:17.929641,Right,84.83878259273479,81.52051229629433,62.41844387241872,80.05587919379468,135.02695738851617,69.32828458270524,82.84609686254407,82.08692980348133
2025-12-12 18:03:17.932658,Right,49.029075301543344,51.176740876573604,34.0751319679548,47.57289180808584,112.562563248066,38.75387137924554,51.47257513264776,52.451619670551736
2025-12-12 18:03:17.936658,Right,111.75323373798165,124.87846289336449,109.80763369560009,118.52428168995539,15.685689697333146,111.63134288182482,121.87294523636228,123.52970985576394
2025-12-12 18:03:17.939667,Right,142.4112133825256,151.8014541558805,134.50280634197406,148.21850964910118,27.363015896320576,138.3570593353943,149.68954276450677,149.8921490587527
2025-12-12 18:03:17.942711,Right,63.371451674669515,61.98057667733519,41.919441290578106,62.52510200161487,121.87598859306308,48.81266605856945,64.14754218183225,63.79768541964586
2025-12-12 18:03:17.946680,Right,1.0675547241116874,2.940789699991001,-15.55478236003546,1.4794979701109696,114.02169540632167,-11.650226859957911,5.342942653951468,6.717657849600073
2025-12-12 18:03:17.950658,Right,56.22195942015969,70.332237583003,54.65063292434206,63.955520674207946,8.48821044107899,52.46460508796736,68.22106772000552,70.81143493336276
2025-12-12 18:03:17.954734,Right,119.96595734701259,133.3812140894879,116.57658923786948,127.75263467105106,-4.980456965640769,113.45845774377813,129.39006331472774,131.1411025740672
2025-12-12 18:03:17.957729,Right,78.2221510798554,80.20640679929056,60.938302758237114,79.3521963118983,96.6486850961519,61.10232606847421,79.04292703204555,80.62886998377508
2025-12-12 18:03:17.961706,Right,22.80128062859876,24.817535734269768,7.398136200994486,23.7294878346147,127.20144512645493,7.022845890111057,24.428108665160835,28.46176746758283
2025-12-12 18:03:17.965750,Right,74.78912631090498,88.77155874631717,75.54196929262253,82.18572959300946,37.02499329506827,70.42439680031384,84.20518647271092,90.6996620374266
2025-12-12 18:03:17.969759,Right,151.54778570419876,166.97010276140645,154.00397263394552,158.15228687497438,1.665655913122464,147.3430334024888,159.49325550254434,165.8455095011741
2025-12-12 18:03:17.974795,Right,115.67834453991964,118.55294663627865,102.63859606787446,112.445556729479,89.92630673704844,98.63681311177788,113.11036321666325,118.53150734686642
2025-12-12 18:03:17.978762,Right,29.748504745337414,28.4303545455914,12.485132005764171,22.619637592462823,133.62175535369897,8.197371475427644,24.572270339296665,30.745714156422764
2025-12-12 18:03:17.982878,Right,41.794830707629444,51.58678538823733,38.74204075106536,41.985287346178666,43.2846508690418,29.6165331658558,44.98907898092875,51.93564260099083
2025-12-12 18:03:17.986811,Right,114.43422264707624,129.64162388746627,117.16488067619503,119.61310891370522,-21.017946426276467,105.95745308656478,121.1652698762191,126.39821146201575
2025-12-12 18:03:17.990811,Right,99.79655399449985,105.02656731841853,89.27833710730192,100.06734489972587,54.54957837113761,81.64955322234891,99.93321133035352,102.84475775464671
2025-12-12 18:03:17.995771,Right,17.22839937041863,16.456970264785923,-0.498432003238122,13.957732892682543,125.95283553119225,-5.641276441689115,14.758749301341595,18.151925100013614
2025-12-12 18:03:17.998799,Right,16.32029821429751,25.460987567639677,11.029980927778524,18.851104663626757,59.6726425740344,3.4614196230540983,21.279626114002895,26.986359798756894
2025-12-12 18:03:18.003857,Right,96.89092598226853,113.97997260073316,100.51477601303486,104.1409505023039,-18.825710388206062,91.64200258167693,105.53766783094034,112.01136353652691
2025-12-12 18:03:18.007865,Right,108.97443158482201,117.70129995807656,101.57186972894124,110.96889800654026,39.83198368382,96.73336396306695,109.91333975730231,115.95268935034983
2025-12-12 18:03:18.011873,Right,31.94294184327009,31.849418662517564,14.571387675066944,28.426830590586178,129.38165062131884,13.096951096100383,26.98608278555912,34.287264735030476
2025-12-12 18:03:18.015902,Right,10.905483600130538,17.829280681617092,3.5682146533363266,11.839626936416607,85.64319904477452,-0.7324383359227795,11.626733901852276,21.26564275243436
2025-12-12 18:03:18.018933,Right,82.68610636290396,98.74430055098492,86.72209761485283,89.41125979329809,-8.44924691162305,78.48215916576737,89.02300137438579,98.54686559116817
2025-12-12 18:03:18.021902,Right,105.6292515277164,115.10520326037658,101.20358934937394,108.12495653147926,20.53750206225959,94.25954717841523,106.52864412491908,113.41119619517121
2025-12-12 18:03:18.025910,Right,26.897402414804674,25.89518188321381,10.521031214724644,22.73428057867568,112.89782317800564,6.249203168859822,21.661319202685263,27.21815837500617
2025-12-12 18:03:18.029868,Right,-13.460915853400365,-9.260104643908562,-21.882168214360718,-13.816986275080126,90.10156380012631,-28.36009000132617,-13.371028831548756,-6.537948742741719
2025-12-12 18:03:18.034944,Right,59.21607170843345,74.75132164152456,64.81082431711548,67.28447948084795,-8.846370821716846,54.92992560280254,66.88327593590657,74.50021743559046
2025-12-12 18:03:18.037976,Right,113.2905683821009,124.9828077617567,113.15742430253886,120.23161621675536,0.11940276279347017,105.64812418456131,117.0182129319146,123.35809690941824
2025-12-12 18:03:18.041953,Right,51.752289696465596,51.02583443420008,36.71390115792747,51.440881709364476,100.17539932602085,34.20350420715113,47.447628735462786,52.978158771875314
2025-12-12 18:03:18.045965,Right,-11.497458840240142,-10.712106504957774,-22.6511900787591,-10.726812148510362,102.59880632370187,-25.6538923370681,-12.71763737515721,-6.213201639387989
2025-12-12 18:03:18.049984,Right,34.368555560402456,47.45611773619021,39.74047060824523,43.226744642845006,-1.4212601214821916,32.29320725078287,42.366447940905346,48.91000674912357
2025-12-12 18:03:18.053978,Right,92.9997350268095,106.43969172355719,98.72440523200203,102.5961903880816,-23.32295843877364,91.406699604413,100.63773345047957,104.74999450409086
2025-12-12 18:03:18.057984,Right,44.9580414435768,46.563069791009184,36.26391653159226,47.459864414311596,72.03088225070678,34.137197632779134,45.42532065548585,47.76362152432557
2025-12-12 18:03:18.062992,Right,-26.549492110396386,-26.90702155759209,-36.61597506077669,-24.949491332678008,101.76541441855079,-36.09602839798026,-24.4452314182563,-20.50016423575289
2025-12-12 18:03:18.067025,Right,8.491496014743461,18.73992733655905,11.791165427552187,17.305980403412832,6.542784176126588,11.136425668155425,19.89289764894056,26.48143540765159
2025-12-12 18:03:18.070979,Right,80.83992435423716,92.59789023043413,84.93810539798869,90.90473854118318,-40.32130858421442,86.21406814278453,93.28528144436132,100.23257742487476
2025-12-12 18:03:18.075043,Right,48.41452274561743,47.551672893285286,36.27319919496949,49.81967142522626,41.183135501123616,43.798306495678844,52.66451293283899,58.69894912104064
2025-12-12 18:03:18.079059,Right,-39.04717309480475,-45.086951806690195,-56.942037441869616,-42.67024176006089,87.4085980005475,-46.604911274669576,-36.56363839613914,-30.134873524395516
2025-12-12 18:03:18.083087,Right,-31.45557841929258,-26.985591961929458,-35.9450504809065,-30.433654639637098,-2.1127898703853134,-29.155139750102535,-21.34477351284295,-14.086178707933868
2025-12-12 18:03:18.088115,Right,45.86692646295705,56.30676554403908,48.03578363903216,49.2609028283041,-73.67883736132353,51.893549931104644,57.75983024422021,64.13867330968787
2025-12-12 18:03:18.092084,Right,45.48240940840333,46.458050735862344,35.73497464640241,42.317040725567495,-2.327713055856293,41.010048668962554,48.3971499849722,53.57103772096161
2025-12-12 18:03:18.095192,Right,-24.312578229641076,-29.89476497497526,-40.53039952661493,-31.445305385350366,77.19146836956497,-35.52087555277103,-26.53377138869837,-20.1534079053381
2025-12-12 18:03:18.098158,Right,-18.375350829170202,-15.001383467926644,-21.554539941455005,-19.121444099844666,21.384524395587505,-21.99194004711171,-15.070756486646133,-6.3559391985909315
2025-12-12 18:03:18.102137,Right,66.5611270100344,77.29000104885199,72.8498869616742,71.11454466520809,-57.57742992502608,68.47070164862089,72.51010333566228,81.13155418499082
2025-12-12 18:03:18.106153,Right,78.21085375259281,79.98339763849799,73.0514733523014,77.03767620572762,-6.127157664770493,71.41709110741795,75.98106564529007,82.37343927520851
2025-12-12 18:03:18.110198,Right,-9.58485584158916,-17.307434136935626,-25.77540818853595,-17.239884806520422,80.93704011505179,-23.736984385701362,-17.263057460659184,-11.710501111083431
2025-12-12 18:03:18.114190,Right,-45.268989878488355,-45.63145087049634,-50.98543978494126,-48.05651183705777,37.88694345492695,-50.74391793253017,-45.03163594346552,-38.40918338589836
2025-12-12 18:03:18.118175,Right,21.58784603717504,32.15824136530864,29.883856287182425,27.128908134880476,-60.66514547762927,27.112485084449872,31.08018675717176,37.67399724306597
2025-12-12 18:03:18.122145,Right,49.294542363335495,55.00613214027544,51.52487376438512,53.61978811552399,-38.23118500713463,51.17150104584289,56.35220850467158,61.132293717659195
2025-12-12 18:03:18.125216,Right,-27.96564404059609,-32.49295355538197,-37.62836598478316,-28.825676458203816,54.778426691002096,-33.61788868138683,-26.004628760783817,-21.915027906783507
2025-12-12 18:03:18.129172,Right,-73.90734127878386,-73.61038496627589,-76.48256215635047,-71.19186072396406,37.28010969632305,-73.42325042581069,-66.72951828638907,-61.25345748226391
2025-12-12 18:03:18.134240,Right,-3.7493522377335466,8.414205914275954,8.226558251946699,6.507360332820099,-62.033737618687155,7.218192212792928,10.77142130615539,16.821989703254076
2025-12-12 18:03:18.138237,Right,55.52069089849829,64.80374103770009,62.986084987584036,63.543187204020796,-57.61634530186711,61.845325790192874,65.22575358445465,69.73481968944543
2025-12-12 18:03:18.142253,Right,-1.303558008337859,-4.6737688000139315,-9.273990553330805,-2.091230860169162,44.91318361804588,-8.107506089872913,-1.8602113888773602,1.8180096461583162
2025-12-12 18:03:18.146274,Right,-65.02016381198337,-68.2112331083772,-71.33829343668913,-66.36473517576087,56.51349950672011,-72.23428975348361,-65.3087794711173,-60.00868714651733
2025-12-12 18:03:18.150451,Right,-18.05430751984386,-9.660035535256611,-9.35420840702136,-12.085270997486077,-44.519872930330166,-15.174254284131166,-11.188740320401848,-4.239110946407891
2025-12-12 18:03:18.155302,Right,46.76677270519576,56.02803755792411,56.04543639604526,53.69095069664763,-72.68584577046568,50.22584661807923,51.9993584001204,58.83879546466051
2025-12-12 18:03:18.159328,Right,1.7097281510505127,-0.06258402360981563,-2.695095920636959,1.7653558456368046,19.131885574461194,-3.8931260153549374,-1.6818839945772197,5.374620618575136
2025-12-12 18:03:18.163383,Right,-76.38879151563015,-79.41804801684339,-81.48509600142279,-77.52811477459181,53.02328582390328,-81.74220076095662,-79.74169198767777,-70.7308673721709
2025-12-12 18:03:18.167356,Right,-49.626744032975694,-40.73106935209216,-39.73126422311179,-43.63131121567858,-40.63746344034371,-44.32425805019011,-44.23318143823417,-34.270553779933834
2025-12-12 18:03:18.171341,Right,24.630539133380807,36.911172444786644,37.97085364652594,32.62326792297972,-92.43607698291817,31.33014170158276,31.792953883035807,39.33023839214002
2025-12-12 18:03:18.177369,Right,3.1058166462826193,3.857110613200348,2.224524192060926,3.5139948458818253,-9.722290076319041,-1.4230285293670022,2.893135082835215,7.105886864308559
2025-12-12 18:03:18.180372,Right,-74.57339645281172,-79.17177354126034,-80.52755060757772,-78.16368837087794,51.02202856634176,-82.6028410828003,-76.0661347511923,-72.64252102118189
2025-12-12 18:03:18.183408,Right,-60.19494053564267,-54.60836021153955,-52.30484771695774,-57.70978186398861,-22.887544989178423,-56.958534917423094,-53.125203750882065,-49.11960338843346
2025-12-12 18:03:18.187392,Right,24.88940409231145,36.25754441432946,39.6111012246256,31.188604594935896,-90.10334706883077,34.747959945460025,34.89384639752825,37.75026501281536
2025-12-12 18:03:18.190399,Right,27.412356008084316,28.027599219843978,28.327499376064225,26.936381422674458,-20.9169276756038,28.75057374242897,28.419393823372957,29.199680708181404
2025-12-12 18:03:18.194397,Right,-53.96094953017746,-62.141569412953686,-63.23921385092399,-60.545638469877304,58.43918907468469,-59.36297156105866,-59.07887840265175,-58.264241522825614
2025-12-12 18:03:18.198436,Right,-67.80219641740405,-67.76057662272797,-66.1677964384071,-69.6156238282856,0.46181073865409417,-66.03678627877161,-67.12183710676618,-64.686712738192
2025-12-12 18:03:18.202424,Right,7.016561573240324,16.41813248188555,19.615755354046996,11.572784193995176,-88.08789781102496,14.84645689656827,12.890150602404901,15.538362665451132
2025-12-12 18:03:18.205456,Right,23.78356369154062,26.84258689248236,27.70357820184654,25.28593328023271,-44.67734562853548,23.536718520044815,24.362398521669093,26.14291906575818
2025-12-12 18:03:18.211452,Right,-55.20840852590845,-61.038695697148796,-61.529139838828996,-58.68526747755823,46.72255135824162,-63.26275523552613,-59.22185610757151,-56.371293829251954
2025-12-12 18:03:18.214476,Right,-86.71581902657636,-86.53364277709261,-83.8950987734097,-86.15584808905987,13.40556469846888,-86.84831356709037,-84.13386596316923,-78.5300879916831
2025-12-12 18:03:18.217478,Right,-13.784531200144556,-4.374993839745002,1.3179044333483034,-7.328948566115287,-83.47042142160808,-2.9025377467296494,-4.2645894676825264,2.142290791394771
2025-12-12 18:03:18.222474,Right,27.894850190719808,30.85376425884533,35.268976777868374,29.885281201251928,-64.02669143037383,34.91415377703379,32.26792027965712,36.83679499409118
2025-12-12 18:03:18.226456,Right,-37.498063921153516,-46.616444086095726,-44.006340139534586,-44.16012698616396,33.08000331704807,-39.917549642959784,-40.886020755697245,-37.18667251519946
2025-12-12 18:03:18.230504,Right,-86.67116142913983,-92.19351894452484,-87.3476863736505,-91.98746478922476,22.057116093683135,-85.40069076991858,-85.98958480363217,-80.58481746318284
2025-12-12 18:03:18.234494,Right,-29.03682614828176,-21.805209472895513,-14.09042583943301,-26.24012546688573,-82.49687329501015,-17.538020091518774,-19.40626824602441,-12.76372499606805
2025-12-12 18:03:18.238535,Right,25.32296272566964,32.14386069338434,38.2248139229996,28.783379332551704,-90.99027867366158,34.54160238595978,33.289889199986646,38.70865586402215
2025-12-12 18:03:18.243540,Right,-26.952765753343556,-31.108974467322696,-28.331385062596382,-29.519192016496163,8.779963286901875,-28.257187415843873,-27.186241687286383,-22.910547456438508
2025-12-12 18:03:18.247542,Right,-89.71715335812087,-93.76658580173353,-90.13847817914757,-91.91641939741749,28.984235832394916,-90.45948650542596,-89.50127711680943,-84.20087966196661
2025-12-12 18:03:18.251544,Right,-48.22810785425645,-41.22933792994627,-34.284798477150616,-43.714214189033555,-68.55591734266454,-39.377927873911176,-41.053483254852836,-34.969808042216755
2025-12-12 18:03:18.255579,Right,16.68967024770103,24.325403293154523,31.226670206089693,20.974377356187688,-102.24009950344225,24.66147985391399,22.688607415067963,26.88599108397466
2025-12-12 18:03:18.258597,Right,-17.903754355803812,-22.03742658840929,-17.742153801324093,-22.02156540034275,-9.971222850052072,-21.214970963415908,-20.059974480918754,-18.283678107893138
2025-12-12 18:03:18.261601,Right,-85.05695373637946,-91.88117075760874,-87.24743579421556,-92.08350546611007,35.902300861971526,-89.99256121875078,-87.3799889566626,-85.72483965969877
2025-12-12 18:03:18.265612,Right,-54.960137507212494,-50.847016633104886,-43.48270320950178,-56.20189800374442,-49.30634027047927,-49.35681690061938,-49.46087207535311,-47.063780375647184
2025-12-12 18:03:18.269628,Right,16.357776863555955,23.687704815920824,30.32602606815726,16.351660939490102,-106.62879102973056,24.375290751664124,21.708946510449096,23.078365853030846
2025-12-12 18:03:18.273628,Right,-11.82628850826677,-16.262610918329734,-13.869756598462118,-19.652216972443966,-32.62630623257064,-14.962831646757309,-16.68985983183427,-16.817681790818824
2025-12-12 18:03:18.277608,Right,-97.45257087082973,-107.59942899296516,-106.58897257774242,-108.54424095899594,28.80238955097957,-105.35677400402767,-105.72907479408377,-105.06205040158636
2025-12-12 18:03:18.281667,Right,-85.27405408054074,-84.47301757818786,-80.46114368709505,-87.99461638783487,-39.829323028901854,-82.8452701829251,-84.46268742520351,-81.94302249117482
2025-12-12 18:03:18.285647,Right,7.747416324195001,16.444044079418745,21.989346592870106,12.148429479375409,-106.1878072731597,17.07371708021992,14.42507138163728,16.513435014798688
2025-12-12 18:03:18.289663,Right,19.99273357954189,19.593235687970264,22.732944489044996,20.19539711179459,-36.53974175663461,21.176221371217252,20.540243477275,20.397793417689172
2025-12-12 18:03:18.293683,Right,-62.2272735948809,-71.73446463885011,-69.94083875782349,-67.57103204925988,48.68241532027969,-68.06909221544629,-66.86346692056304,-67.7562854933758
2025-12-12 18:03:18.297702,Right,-86.45412463957837,-89.2782816777235,-85.0354841836106,-88.18592253282077,-6.164855967177573,-84.83206898921708,-85.72668373624037,-85.83301625292916
2025-12-12 18:03:18.301712,Right,-19.123585858611477,-13.8744087147752,-7.967362845725347,-16.28897343961762,-103.51162058956834,-9.340270775337558,-13.597485842739843,-14.282458381203469
2025-12-12 18:03:18.305726,Right,-1.4859279407246504,-3.4339233069549664,0.44822664091134357,-3.37606321966814,-72.21668998522728,2.976156217029711,-1.3836447972735186,-4.04039120987909
2025-12-12 18:03:18.309738,Right,-76.8634378114948,-88.21064336695417,-85.42152892208378,-84.53816455823471,18.608018679027737,-78.84601375905186,-81.5556783175216,-84.46510222314282
2025-12-12 18:03:18.314738,Right,-103.94061922293258,-108.26671124777204,-102.13659643326991,-106.46766323308111,-5.4915037801038125,-98.2450765278063,-101.75858774923472,-102.74792492357847
2025-12-12 18:03:18.318760,Right,-20.90743829164785,-12.925050979567459,-3.6178206461618174,-14.328632746692165,-96.15492220917076,-4.903767476222129,-10.492196587701983,-10.556853309833969
2025-12-12 18:03:18.322782,Right,32.95942211834699,37.385571935155895,45.100462037507896,38.53638692768436,-75.25170660492222,44.22389875870613,39.40528034522504,38.12622935726904
2025-12-12 18:03:18.326715,Right,-30.937797310303722,-38.51610501851246,-33.49272493888202,-32.69933383417083,26.877752258416876,-30.382878970536694,-32.83765134027999,-34.9258673873519
2025-12-12 18:03:18.332813,Right,-90.59267597709913,-96.65352177837849,-90.38641645163807,-92.23004480190866,23.674021614697267,-87.14099035147046,-90.51769760712341,-91.9926069858484
2025-12-12 18:03:18.335806,Right,-41.087904584677744,-35.92651501395085,-27.264471484513706,-36.873779133882636,-80.18504648447924,-26.76190717112695,-34.00073410906043,-35.943074353417614
2025-12-12 18:03:18.339822,Right,14.630820992621011,19.348026744210074,26.47689180488669,17.491902918998676,-95.46707854498527,28.026893670725258,19.060540953283635,14.580951018753694
2025-12-12 18:03:18.342882,Right,-35.552657489839476,-41.18951780494899,-37.143086631636834,-39.832730255457136,1.426066793523205,-31.726271719679062,-39.600281446560984,-45.70594902272569
2025-12-12 18:03:18.346866,Right,-99.88613915520546,-104.36599743556872,-99.38606347954556,-103.273144471048,27.08677347045159,-94.32327288050146,-102.93405472244558,-107.90631513772314
2025-12-12 18:03:18.349908,Right,-54.672825288569584,-46.4499920378621,-38.15920876055134,-49.24380822809326,-65.35160436094156,-37.22660952359365,-49.41511180177622,-53.2530729693317
2025-12-12 18:03:18.353847,Right,21.26287254970157,31.183112893671932,39.17310751014156,28.276650716543372,-99.82513010703406,39.86147573584458,26.1092203515218,20.826526546145033
2025-12-12 18:03:18.357928,Right,-9.926704957324546,-12.906628556564101,-8.344458131803549,-11.726710502349306,-8.544682651481708,-3.126470029426855,-14.472563809100393,-21.676510693188902
2025-12-12 18:03:18.361904,Right,-88.81324079479964,-97.07830299244597,-93.42062499588792,-95.60149969436316,39.83426294192759,-86.33516378932472,-95.91903886471118,-102.82494044300256
2025-12-12 18:03:18.365932,Right,-67.2212762119234,-66.02482169085488,-60.6906760894708,-69.6601250917156,-44.23372777857003,-56.24640983901554,-67.71951616513252,-74.00087089277076
2025-12-12 18:03:18.369913,Right,18.974373800912872,23.752636493212776,27.93628291006098,17.71282312747644,-102.14316505961324,32.37844793279146,18.9443731268766,10.498659729557403
2025-12-12 18:03:18.374911,Right,18.401760833294247,11.484082842507632,11.509625992734072,8.871527500763477,-22.25652892656217,21.128991459976532,8.739481657416036,-3.189612548361765
2025-12-12 18:03:18.377927,Right,-56.44950242549385,-70.67780115436108,-71.81503412605525,-71.49798895185086,50.958389702558634,-59.36207669781288,-70.59130073452616,-83.68297352894297
2025-12-12 18:03:18.381928,Right,-58.81419550535793,-63.7729035428747,-61.76224726629516,-68.44085439611081,-15.266970027660136,-53.27450323026642,-65.74262911272672,-78.07736256450153
2025-12-12 18:03:18.385934,Right,15.290882698391215,18.361044993449468,21.94142607387039,11.226586537864932,-95.80044766749052,26.135190662807872,13.533982533532253,0.7972151872381801
2025-12-12 18:03:18.389960,Right,22.972157672593312,18.41279427455447,19.6408763955842,15.220840669288009,-41.41991378914099,24.79675470400616,16.45391155939069,2.6229782170266844
2025-12-12 18:03:18.393963,Right,-54.02159167180798,-66.14901607629872,-65.76485531904109,-65.24644845728471,43.39374039340328,-59.23682700048448,-62.54422819588217,-74.83734146213828
2025-12-12 18:03:18.398925,Right,-74.35269949046051,-77.96394338414393,-73.94041176678365,-78.74491686835245,-3.664571035638801,-70.74196428258438,-73.12663319070998,-81.59064961567492
2025-12-12 18:03:18.402983,Right,-3.4944443086715182,3.4062866620879504,10.314540209194092,0.30367286362161394,-99.2743126872374,10.45992820560059,6.7503136047307635,0.14135001944669057
2025-12-12 18:03:18.406990,Right,19.233794837608002,20.447406068400596,25.520365131254948,20.617383982797037,-70.08911687543878,28.796199163443816,26.069759626829182,17.9047504280461
2025-12-12 18:03:18.411016,Right,-58.002031805917795,-67.15615082052682,-64.2444284281737,-62.694522780759144,24.262389959221764,-56.3490996503715,-57.02982581339165,-67.09950073996879
2025-12-12 18:03:18.415034,Right,-97.60294610644632,-102.20124236996344,-97.46046060614026,-99.43505466204078,4.6215817362608504,-90.79385957629347,-92.71946540824865,-103.40972318573768
2025-12-12 18:03:18.420092,Right,-25.017028375958034,-19.01736669176171,-12.254165873528109,-20.490875343159132,-91.41169648778305,-9.822662681664951,-15.15195170845982,-27.177786024156376
2025-12-12 18:03:18.423044,Right,32.611564269056544,34.79713693596568,39.15522482798406,33.70051331113791,-80.11404317402776,41.39446374004547,35.459940697481215,20.877060524864646
2025-12-12 18:03:18.426047,Right,-18.852338203883846,-28.22882027279411,-27.30825538762292,-26.963990577562072,23.29690297133493,-23.20171095743717,-26.974610025121365,-42.251728659379296
2025-12-12 18:03:18.430067,Right,-69.64028466228046,-76.65561626547424,-74.84363598751588,-78.16757013359893,31.05381683005544,-73.54072791847648,-76.98267093785398,-89.74117872133502
2025-12-12 18:03:18.433070,Right,-17.135092231925228,-11.840968945653003,-7.141595469747699,-18.72578318972228,-68.26380541438994,-11.169341799788526,-16.662272135617968,-26.989804374628875
2025-12-12 18:03:18.438157,Right,38.46020628915721,43.230581678202725,47.35018335098357,36.67643082085124,-89.84645385391195,43.64653658419775,37.79202918538067,27.13531826826511
2025-12-12 18:03:18.442189,Right,-17.126414218007994,-25.126699020802334,-23.515056966738484,-26.692916921980213,2.3604129025770817,-21.702921761883772,-25.67350655971677,-37.23609180881613
2025-12-12 18:03:18.446177,Right,-92.96290814577515,-102.92368505601189,-100.39458833372191,-103.47373669571971,30.705018047498015,-96.6088749964947,-100.5917396808727,-110.92249494411226
2025-12-12 18:03:18.449173,Right,-57.6418158989909,-55.67524321474775,-50.00683413697334,-59.85389279352239,-61.50682313978905,-49.584292756801005,-56.424877002995345,-65.00603764028347
2025-12-12 18:03:18.453130,Right,17.002044240027317,22.733259016757074,28.072333802050707,18.325562997539237,-102.95752163629368,27.459151616447343,19.17841588822921,10.243296601322072
2025-12-12 18:03:18.457135,Right,-10.87423926104384,-15.45959060232417,-13.295435078151058,-15.11399769619311,-15.253663630697702,-10.075729558713647,-16.58551619206264,-26.633751385197684
2025-12-12 18:03:18.461133,Right,-89.37169543697382,-97.70720589137636,-95.46497488686873,-95.34429063017888,39.193668307685584,-90.46474175712501,-95.93215039838105,-105.30116605846706
2025-12-12 18:03:18.466173,Right,-69.46814879194426,-67.18427106504532,-61.30699819546135,-67.89956711899868,-39.654568126592494,-59.19829995516557,-66.69295382550627,-74.78739613599464
2025-12-12 18:03:18.470185,Right,17.26938075765065,24.52306023534038,31.440884903557162,23.251589857543877,-101.75111778102291,32.89408242857098,24.252329018090677,15.601117430975137
2025-12-12 18:03:18.474158,Right,16.20998896450328,12.616922850829724,16.72405870297007,16.695282513916027,-26.903048463711457,22.899022097648412,17.31298930360208,7.682841952591843
2025-12-12 18:03:18.478200,Right,-65.06153820938198,-75.95673475073272,-72.67067415128258,-68.05215174751356,49.92126298738003,-63.23390024957553,-65.19343697795557,-73.34532331199443
2025-12-12 18:03:18.482171,Right,-74.09918134648615,-75.48015593440505,-69.05591334581186,-70.09644668363035,-10.526937166883727,-61.86823249769441,-64.23240261540195,-69.67781168695365
2025-12-12 18:03:18.486229,Right,0.9717766498142737,8.379296146733395,16.41288535850981,11.234578636089282,-92.76713090502017,22.104559598854394,17.408963176756515,12.299477433691209
2025-12-12 18:03:18.491230,Right,11.54451950461953,11.120833093693363,16.646421477475087,16.81563822260796,-43.00731925918808,26.103312772407662,21.53324992310081,14.594340159710555
2025-12-12 18:03:18.495275,Right,-69.9906768370638,-79.79825626462844,-75.800301213294,-71.5877543587776,43.87016752026102,-63.79432955764423,-67.07011898781639,-74.5276940691183
2025-12-12 18:03:18.499273,Right,-96.14307382949482,-99.2109020525968,-92.62577112062718,-94.7705692288655,2.6826585675225942,-85.63210709343184,-90.11496196635562,-96.2171418717262
2025-12-12 18:03:18.502291,Right,-19.81154627464275,-12.650651706826466,-4.104906183376443,-13.07471858151257,-92.5461182861618,-4.394594969275204,-10.998302967578638,-16.750247799180215
2025-12-12 18:03:18.507292,Right,17.32475978698494,19.122492464368406,25.15777272617197,19.646114192000823,-66.23695961592603,23.350387302252784,17.509729488941957,10.558115323758102
2025-12-12 18:03:18.511314,Right,-49.941664627738646,-58.927913753192115,-55.82846902303572,-55.68781749563641,31.618490247696172,-55.52806730423981,-59.57083077963762,-66.43715873047768
2025-12-12 18:03:18.514330,Right,-87.31535303605051,-92.3541645290461,-88.39495818713476,-91.80726913698891,20.031741672602948,-88.7346607340478,-94.58074957846839,-99.51345112000126
2025-12-12 18:03:18.517323,Right,-11.292323149129516,-5.587214406114072,-0.4056896362453699,-9.740222789012478,-74.11096969435312,-2.2688003369221406,-12.173349565564422,-16.538578130748647
2025-12-12 18:03:18.522349,Right,52.66002754703368,54.2828568417317,56.707616925632465,51.41910496955825,-67.35332060249493,58.09698738289444,47.376339597351034,41.07325027292973
2025-12-12 18:03:18.525336,Right,-0.7972718467499362,-13.120430614595534,-14.186896875842649,-10.795315847128222,34.488545641732344,-7.444444043219846,-15.681738079074421,-23.075666682321753
2025-12-12 18:03:18.529351,Right,-65.21893906444893,-78.60332111454773,-78.96723724263575,-75.5257403108335,44.11354647114058,-71.79853287975857,-79.66914224767243,-85.28068182139396
2025-12-12 18:03:18.533356,Right,-22.405198568303604,-25.073126807743392,-23.262489889671997,-25.128019816482265,-58.314314631912566,-18.87335685259677,-29.77598838290578,-33.62800445817993
2025-12-12 18:03:18.537376,Right,40.31763262805907,38.1208754714462,38.02395900682677,38.691454921376135,-86.67021057632519,44.03034834994105,31.57453138933488,26.80589530533325
2025-12-12 18:03:18.542418,Right,-0.8100669428094989,-13.94110130185436,-18.098242608932196,-9.314229814910505,6.286710074549774,-6.996736357592454,-17.22197835893894,-23.48542040333996
2025-12-12 18:03:18.546418,Right,-70.05599420655926,-83.62190257712791,-87.86966333654527,-79.48741856625566,43.52172983512719,-76.75151196320076,-84.6776278009711,-90.28626165084279
2025-12-12 18:03:18.550442,Right,-33.09781557255337,-33.228727889523725,-34.348735178160496,-34.51896524440235,-44.10481602443906,-29.064215527978376,-37.003776756428124,-41.31921413560485
2025-12-12 18:03:18.556433,Right,49.17161061988736,53.94771725719329,53.04460861308871,50.907959190240945,-89.14224773690512,55.63845595688326,48.175501304809586,43.307468580271234
2025-12-12 18:03:18.559460,Right,31.135657485370757,25.18067446610803,21.35121334926771,26.209321346250363,-2.003095436251897,27.759392201805895,22.793084176002594,16.955849373603996
2025-12-12 18:03:18.562448,Right,-48.43756759615644,-59.81287763527507,-63.93384376835456,-57.031398652550706,59.5921288343161,-54.521432125027786,-58.50237737858333,-63.28227378421434
2025-12-12 18:03:18.567532,Right,-42.18473120468116,-43.88794082835375,-45.01365458476175,-45.18362140964018,-17.106405659458687,-37.48113659284354,-44.008872646176314,-47.32614880588517
2025-12-12 18:03:18.571478,Right,28.806571743494715,32.578881382556574,31.82411516146385,28.65545056940755,-91.14698619324918,38.65766419143256,30.00082870793267,25.509734533610754
2025-12-12 18:03:18.574478,Right,17.370854215281724,10.676012573014305,6.172964705050617,9.94079845095257,-31.07588926949029,17.3316617667806,10.173654064568836,3.0905836333768093
2025-12-12 18:03:18.578491,Right,-67.91980067065742,-82.80021779649906,-89.34370337521432,-80.94902719485253,42.49086005584104,-75.15232639034366,-80.47736453883408,-87.98366028550663
2025-12-12 18:03:18.581543,Right,-72.10645800053317,-78.43771858665423,-82.67073845912455,-79.33234670758975,-13.144756095745834,-71.8015999356212,-78.64662173157922,-84.7138044749372
2025-12-12 18:03:18.585498,Right,18.992967383186624,21.796295104293677,19.312009032439164,18.878945775410102,-92.69639747578549,25.951890350934264,17.07589684812774,10.806174420817115
2025-12-12 18:03:18.589529,Right,48.34886285876928,44.285007636110095,40.12114064907655,45.46446784016007,-39.578722306494456,47.39686673270626,40.308865300361504,31.825307864914066
2025-12-12 18:03:18.593465,Right,-26.68249742313492,-39.83284397159878,-44.63345411314458,-34.130819947546115,58.18022815667064,-36.11346026530737,-39.5486614957299,-49.12902508039406
2025-12-12 18:03:18.599530,Right,-60.0604047244633,-66.31453310571669,-67.85237554516061,-62.16726016339089,28.261007137261913,-62.916471538483165,-65.42416265184875,-74.27658428024006
2025-12-12 18:03:18.602552,Right,11.348832072097139,16.47697501064249,17.207735459337528,17.530090182634012,-66.12331941582306,18.260448683264258,14.78775976986799,5.804487594483362
2025-12-12 18:03:18.606562,Right,55.0689306145141,56.30447660617938,54.26519717732572,59.553852249886404,-44.169787920713134,57.721411908885784,55.348717154927726,44.74892412184636
2025-12-12 18:03:18.609560,Right,-5.911700899549032,-15.04043737446409,-20.573069195820608,-8.132869176817621,55.68998516843203,-12.260312329104636,-12.165557480533607,-23.133463721653243
2025-12-12 18:03:18.613576,Right,-50.25542624115769,-55.62552699862135,-60.38400226579006,-50.91124792420669,48.256465753202065,-52.507163272908656,-52.376049424972734,-61.70605644863463
2025-12-12 18:03:18.617589,Right,10.132686111890507,16.034021369174297,13.268822831496436,15.873298253420216,-52.58994227144285,17.508212278236897,16.11444936580301,7.404036989195447
2025-12-12 18:03:18.621545,Right,60.98015049796231,63.91821834233997,59.61523180668962,64.45031618086796,-60.39419042222653,64.50443426590937,64.49864931610864,54.088589731454704
2025-12-12 18:03:18.625607,Right,-0.043644474102620734,-10.25457435763019,-16.73421908934324,-5.1234780298727856,36.038603883564065,-8.247249431518867,-4.308414386316144,-15.594758908613585
2025-12-12 18:03:18.629639,Right,-66.1764597700203,-76.66418624580183,-80.62351384442923,-71.51699771470885,54.14122651910657,-73.3741187905689,-68.09137274178647,-77.3037147529867
2025-12-12 18:03:18.634635,Right,-14.870629396180448,-12.933767573395016,-11.951875352536263,-12.2177203929823,-38.3078077066275,-10.602653352525522,-7.469712984209764,-14.339851462729712
2025-12-12 18:03:18.638647,Right,65.04118495852526,69.49761991579726,71.79081079583648,69.44222853107931,-61.707002752307744,70.47661020623855,72.86843722923732,66.05162214505617
2025-12-12 18:03:18.642675,Right,35.05372949663797,29.119668882911355,29.93030401134365,32.8027244857185,37.911921018336216,30.586361519501224,35.36804721651788,28.431382848950307
2025-12-12 18:03:18.646677,Right,-42.24851756823773,-50.06647383990639,-47.93803255964394,-45.84746363373051,83.62539009606917,-47.77456320033161,-41.7861159444401,-46.385554245684034
2025-12-12 18:03:18.650696,Right,-25.533612846200413,-21.701435208546172,-15.705119901511353,-21.552540076216246,-6.031774029301232,-20.676912591108703,-16.5120179480582,-18.129791453917278
2025-12-12 18:03:18.655708,Right,43.11062147305711,51.10940785901403,58.20000746414735,50.37525952431679,-65.8814824651381,49.8529176413831,53.478513004853085,52.54997564808946
2025-12-12 18:03:18.658695,Right,23.524982754981465,20.71938027253782,26.12122859628562,24.498057258424524,9.949314790594144,18.6174756903456,25.24157987525541,23.911901689531078
2025-12-12 18:03:18.661716,Right,-54.701005288687156,-62.70201185211772,-56.12984701062669,-57.03569114945276,74.62192554983449,-64.82522304879058,-56.12668651825879,-56.05756823460979
2025-12-12 18:03:18.665687,Right,-45.48804898673188,-42.610477560978325,-31.117629200842202,-41.34267382981852,6.427452235328019,-45.915440850474624,-39.4053599777435,-36.97621461872768
2025-12-12 18:03:18.669765,Right,38.32210968420259,48.689479290145755,63.30248663848215,46.70306824454383,-63.62056488562666,43.83339779854214,47.671516849764885,50.677018895930814
2025-12-12 18:03:18.673763,Right,44.32346849339956,45.28014226577943,59.47704030682871,45.9832356004772,0.130422616613032,40.461650227916834,45.22814149444275,47.879084868754944
2025-12-12 18:03:18.677815,Right,-37.81659808980476,-45.722384581313236,-30.38321524134335,-42.86894899515028,80.54192741017414,-50.0286022078526,-43.47082271467298,-39.13842773414399
2025-12-12 18:03:18.681769,Right,-57.03803150433305,-57.16498950652567,-37.1943399225529,-58.09105758523765,25.09896302895595,-63.15262922947295,-58.08199809715734,-50.86757532566662
2025-12-12 18:03:18.684826,Right,19.78558460545537,29.312423348223092,51.899924141433075,24.603476493595736,-66.95018164307385,20.28642633333402,22.63661169203442,30.11630240695922
2025-12-12 18:03:18.688844,Right,50.09906079029861,53.393899453769336,73.37905918836259,51.197518243419836,-25.726824029756244,43.58774228800394,45.94092420119705,50.753794037085754
2025-12-12 18:03:18.692842,Right,-15.412422547124152,-21.932929498030717,-4.830073646058736,-20.33760277167312,75.4741244537604,-29.718442249375585,-26.444792953088836,-23.503012621207745
2025-12-12 18:03:18.696856,Right,-41.38274455402643,-42.14205755031253,-24.031386569842653,-42.43239701777384,57.94529897224061,-48.223968062447966,-47.19602677920648,-43.92919534743305
2025-12-12 18:03:18.701843,Right,35.32369842758817,46.00183201560685,65.26456337896525,42.277982429506665,-31.121325893958897,40.32061755716859,37.53231949337351,40.66064470095807
2025-12-12 18:03:18.705873,Right,82.27556015070331,89.64684222968936,106.34736824932406,88.53840360096365,-11.617851695498757,85.747136431537,82.19817947363026,83.6896459922491
2025-12-12 18:03:18.709896,Right,15.878348621063196,12.425997277468014,26.813734124083567,16.87795590391943,88.9756325965651,12.710204546927343,10.577272106474084,11.64658068031622
2025-12-12 18:03:18.713895,Right,-42.116297019476406,-42.90070026352532,-25.78276921176075,-38.14059711233949,85.75877284775197,-38.92976305827506,-42.32639248537453,-39.31686259661001
2025-12-12 18:03:18.717865,Right,9.823134299518642,20.19994301956558,41.714784631836665,21.562014633511353,-17.21404273893313,25.245774506865928,18.128152374420097,22.56914052274169
2025-12-12 18:03:18.721899,Right,66.71988235722893,74.9912304371619,96.80478263446639,77.05561213755391,-32.55250262587697,80.20056104445939,72.03658054055177,75.68998613951499
2025-12-12 18:03:18.726915,Right,17.597706500753702,13.093713735455822,32.9489844493728,19.18692389235821,62.93615986599934,19.403192177643177,13.67352038941408,16.871287025651327
2025-12-12 18:03:18.730956,Right,-44.144670372264954,-49.35589973794231,-28.33307703915125,-43.49276806407306,87.53860326989661,-42.17914523181662,-46.918429533264316,-41.94143451144373
2025-12-12 18:03:18.734957,Right,4.814073698466018,11.74002603819099,35.69965000281445,13.516345750115306,-4.153333308089714,18.360009802395325,11.358987503904018,17.850500341220823
2025-12-12 18:03:18.738973,Right,84.13260967106544,93.18679649967953,116.4267922836516,95.07320013592926,-36.772408389465454,99.44872685303653,91.11781971323853,96.57619423524329
2025-12-12 18:03:18.741989,Right,54.57575156432722,51.11372343177027,70.85876387463941,57.85353096804465,55.363873726202655,58.496422968301886,51.951943627030914,56.27789157813751
2025-12-12 18:03:18.744977,Right,-27.526285487721907,-36.84001204776541,-17.72517135246744,-28.970606587952716,101.29457640719102,-28.938161213004605,-34.1220560448339,-28.045689778365045
2025-12-12 18:03:18.749041,Right,-18.479504425849882,-19.69412205329536,1.4930456272850279,-16.45849650324658,9.58644804051437,-13.912161375317737,-20.13394016060488,-11.340051482315403
2025-12-12 18:03:18.753013,Right,47.30834446087192,48.71293396623855,69.07628447807292,49.83932752213423,-60.52073888425912,51.788504035595906,45.76733777363813,54.71200664535627
2025-12-12 18:03:18.758070,Right,29.85761690923937,19.9197735618377,36.23967277025804,25.087102315864286,7.575612877664753,23.135940450037197,20.444952604083937,27.796812868510187
2025-12-12 18:03:18.761974,Right,-46.76706126398494,-62.71596876154888,-47.77693695298876,-54.61386885281644,75.69482317678921,-56.776028086880615,-57.62471797951798,-50.50051945519408
2025-12-12 18:03:18.765088,Right,-36.88425300505969,-42.139688990929784,-24.696483969324618,-36.598691346027096,12.860793458574335,-33.92991545293171,-37.8584159922043,-30.08439826518861
2025-12-12 18:03:18.769061,Right,50.57674345587748,54.819157575592726,72.67359376641616,58.54372116460121,-60.21750875240832,63.791398343775654,56.09931835898669,62.57024094453391
2025-12-12 18:03:18.773006,Right,61.94804374013529,60.327355659649584,74.0968127431479,67.4201569749705,-0.20321415367652662,69.78250306655627,62.6552340163812,66.43369451161198
2025-12-12 18:03:18.777075,Right,-18.048002465379795,-25.538186893537613,-14.768162993877922,-15.98479346697468,87.50324100388207,-16.125275721076832,-20.576856679247612,-17.71542691871764
2025-12-12 18:03:18.781170,Right,-37.141517952368304,-35.17853377543997,-22.76345457635034,-29.134498065162234,44.66991315332052,-28.134821029841987,-32.18011921031848,-28.552029120498446
2025-12-12 18:03:18.785166,Right,41.90672480108651,54.53244228384392,68.80269873441284,56.996364742240075,-43.36120027282777,57.370541947236234,53.06578898134103,56.10276559279009
2025-12-12 18:03:18.790144,Right,72.12518228243698,79.28033762292716,91.91633073621779,84.23756658303591,-6.697719005887848,78.96578953538028,77.49629818339963,78.67284252854006
2025-12-12 18:03:18.794089,Right,-4.250804000653716,-6.320401518476501,5.024960126727819,2.1067302567421393,91.02803582894194,-7.739728387047762,-5.3933631070003685,-3.871592750736454
2025-12-12 18:03:18.798157,Right,-49.155359935044544,-44.574247668227144,-30.631133258248155,-38.70512783323829,70.4041211334752,-46.92971091131176,-44.51558495051813,-40.085331847254565
2025-12-12 18:03:18.802140,Right,14.630971247238449,32.138127676663316,48.33083493079903,33.36562258297272,-29.012491216411945,28.01395130645551,28.15914473363773,34.018739169159744
2025-12-12 18:03:18.806159,Right,63.71989964711338,79.09301831082757,92.54117918485281,80.94901815579306,-21.50428455306792,73.63294016501641,74.54171568968286,78.61899450476449
2025-12-12 18:03:18.810161,Right,8.69677008002418,12.882750586104521,22.227986008001608,17.55710718129194,79.8341098519686,6.93667605656492,11.426787276455798,13.793675167387846
2025-12-12 18:03:18.815128,Right,-39.079118086475546,-33.53229453165295,-24.125528381042386,-31.63743976736896,88.76893488481073,-40.76003130948402,-35.07132634473783,-32.09679432257326
2025-12-12 18:03:18.819193,Right,20.040192371063085,36.35590657021112,47.598772408717196,32.099250595043486,-6.79969775938298,26.60386619484052,30.545941248311465,34.055221868437
2025-12-12 18:03:18.822202,Right,82.59333573552374,97.36390996298996,106.70150304900017,92.05412545844138,-24.291041674914595,85.99134900326953,90.1112647340542,92.07777294090738
2025-12-12 18:03:18.826205,Right,32.70603612101365,34.14770902451164,39.53130613626854,32.186229094417286,70.52188141846091,23.147757957410704,30.41314402180069,30.973367807569957
2025-12-12 18:03:18.829161,Right,-39.90228773453032,-41.53997077359509,-36.47932849004792,-44.13293406948651,99.19633550929393,-52.23643202450285,-43.541010340382854,-42.127151664153644
2025-12-12 18:03:18.833235,Right,-4.0229236856908415,4.189650878349312,11.660196972527046,-3.5143649211549928,5.010377610420619,-7.757490888491702,-0.9319438229304069,1.6222228567385173
2025-12-12 18:03:18.837246,Right,68.69330240045534,78.42639489071371,85.52837527624433,69.3335485948146,-40.68681693117287,65.74817183435016,71.8922666562139,73.67457221693257
2025-12-12 18:03:18.841261,Right,35.24944185006734,33.31826419965546,37.832715881664626,28.2021560541707,40.366477261550244,22.62012782858119,31.49409059860227,32.40809715752221
2025-12-12 18:03:18.845273,Right,-53.3067459156475,-58.94697255596839,-53.58588020300522,-62.48015234059312,86.45916323616439,-66.47819740098203,-55.63222145503096,-53.51394375940981
2025-12-12 18:03:18.849229,Right,-46.7304949896145,-40.500219587900574,-31.022007986801327,-47.221444283680285,-0.9139507930885884,-46.23218892533441,-37.0689447531131,-33.76716235007734
2025-12-12 18:03:18.852300,Right,27.460075274121152,40.67908565457401,51.34255787128859,33.58837174543714,-70.21271546774915,35.902726510979846,43.344124444989575,45.03305705001003
2025-12-12 18:03:18.857252,Right,20.7411199154609,25.45086410440308,33.24947224646894,23.9982941063181,0.388273911903525,22.500265806446805,31.51709635612133,30.78952319738164
2025-12-12 18:03:18.861321,Right,-56.98170547885195,-57.52409213141709,-50.78115349454674,-55.06337410827564,76.96750650299509,-58.77116215699334,-47.918547868212045,-48.11022868747932
2025-12-12 18:03:18.865334,Right,-57.46176726648355,-47.271168476820094,-37.854817032563005,-47.66089704125079,19.17621739000242,-49.093703481305056,-39.65144764511206,-37.22505195358826
2025-12-12 18:03:18.869335,Right,26.702870507417856,46.00895811773262,56.194026074368594,42.37274430709931,-59.87470726980246,42.13161199555452,49.61356884152701,52.88875489921156
2025-12-12 18:03:18.873367,Right,45.95865589603295,56.95555118301854,63.1085589776776,55.37052428334664,-7.800506177012721,52.254490822919706,60.96191944585189,62.982695920185506
2025-12-12 18:03:18.877376,Right,-27.325823434269296,-27.12010099440522,-24.843646667210123,-26.62210286699792,80.9752430886092,-31.342672885240063,-20.67925792385904,-19.15034444245248
2025-12-12 18:03:18.882359,Right,-45.850143775205424,-41.04379388083362,-38.91884646247854,-44.124201466832346,42.90165441510362,-45.789289289744374,-36.64922980890333,-34.553614002474205
2025-12-12 18:03:18.886389,Right,37.231341472210715,50.1878108293713,51.96528558278078,43.01792461795503,-47.409826992728995,43.767709987193484,49.89170287170418,51.15065212627087
2025-12-12 18:03:18.890412,Right,78.58961559760928,84.82646185298108,82.8509833336393,79.61197470365641,-16.50679064740507,77.66328477848174,84.1530193547569,83.33251150346041
2025-12-12 18:03:18.894424,Right,10.111750444590598,5.006169388980197,0.13755574967581197,3.3623429412773476,82.4515348871646,-2.10254722995478,7.370212287296454,6.499847483511985
2025-12-12 18:03:18.898444,Right,-36.33858824797744,-37.37906148316142,-40.1832198964039,-41.03853150753639,67.02553777190406,-46.06379332188908,-35.6130788587725,-33.80477326123582
2025-12-12 18:03:18.903452,Right,23.172846445277628,33.77442886033896,34.086616276483255,26.14951225098048,-35.181746031550574,21.93794796774364,31.39123370039306,35.36343877121544
2025-12-12 18:03:18.906460,Right,69.37239708245806,77.80870379814405,77.26730405286617,72.12629125284093,-38.13171703931948,64.37008019247787,74.93868290913088,79.12110160600787
2025-12-12 18:03:18.909470,Right,6.3066226658247615,3.412865695441724,0.9250207286531804,2.913355374283128,56.45340232192757,-8.948957927308129,4.680548215259478,9.828043141376838
2025-12-12 18:03:18.913424,Right,-56.86833459536274,-58.70811297417458,-59.13255979382484,-59.432483617451,63.844769693389026,-70.02448111568538,-55.90677992583733,-47.53673803678248
2025-12-12 18:03:18.917469,Right,-9.321118970575299,0.25016345920812455,3.409629949115697,-5.2887453243210985,-37.79455139289348,-12.070348163809285,-0.3520518612494925,10.75271663247986
2025-12-12 18:03:18.921508,Right,55.03154889368943,64.81230359745678,67.3782661261539,58.060538018715306,-66.13803758413087,51.008649480193526,62.354484470886746,73.59272837625394
2025-12-12 18:03:18.925452,Right,14.7392641485676,13.221355915762615,12.54742638613061,9.191383497484821,25.643871493381084,-0.8219659980295546,13.497925478812249,24.513588865745987
2025-12-12 18:03:18.929508,Right,-51.24857457147709,-53.85308261644968,-54.62027743013823,-58.61604130500291,62.513596340659205,-68.0946941002976,-52.10207378971427,-39.337104239795735
2025-12-12 18:03:18.932519,Right,-13.00185076437674,-3.621882540990555,-2.093335323032079,-12.908056725019378,-25.434289029330102,-19.37893254465962,-5.069901853419651,9.448825493131153
2025-12-12 18:03:18.936533,Right,63.30367194235623,75.96365731656806,76.37863720160021,66.30456588473498,-74.11934848940473,58.859132448838864,72.28299072115442,85.83612737428484
2025-12-12 18:03:18.940572,Right,35.32259424514086,36.700064202603244,32.70921749133595,32.12420470489269,5.447570184029246,20.2825319094909,35.95505511372721,47.1924780201407
2025-12-12 18:03:18.944503,Right,-50.09772101626368,-53.34429062735944,-59.070407313569376,-55.69233757927668,59.43448501030707,-67.83350117724694,-50.93966666710912,-40.67301926410073
2025-12-12 18:03:18.949566,Right,-41.613752288792966,-33.94819390764496,-37.86564198371343,-39.82041869500699,-20.46976356121195,-46.68237744520502,-32.6858235638756,-23.077540356407553
2025-12-12 18:03:18.953600,Right,36.77593898453051,50.59045659113144,46.38651504172776,43.247996051519294,-92.53235793744079,40.23938164908577,51.09985413479808,57.8165989827321
2025-12-12 18:03:18.957640,Right,29.98933797585687,32.953573962062364,24.87919497878829,30.278397995037267,-29.081503149854143,26.595381046907278,38.089356419886826,40.94800758427664
2025-12-12 18:03:18.961602,Right,-59.75772387591951,-66.36995693763674,-76.37181152957601,-65.36298242849261,44.38754519082795,-69.13791982083603,-56.08391053412561,-54.71481730185042
2025-12-12 18:03:18.964650,Right,-74.74428062111292,-74.57440020826652,-82.23974661768261,-75.95872490932925,-15.686353764896921,-77.11040046563267,-65.47806015134847,-63.60824888028219
2025-12-12 18:03:18.970640,Right,8.994510666811038,17.160087264588583,10.929877360937098,13.506105457960984,-100.35534775753968,12.04280219476459,21.715666701667942,22.92462923916173
2025-12-12 18:03:18.973657,Right,41.09854114164136,42.48097216672795,33.7141202508501,42.192926321485174,-49.3804991310908,35.159465476484,46.19415588394804,45.525676404220576
2025-12-12 18:03:18.978646,Right,-23.864053556201725,-30.761977153912085,-41.472234667480734,-27.97515394434322,49.43854015499164,-38.98643256005744,-25.67340816205433,-26.555934040887223
2025-12-12 18:03:18.982614,Right,-49.004537166430055,-48.70145915233661,-57.37928050314713,-49.68153282467665,21.310958785051298,-58.31307881373323,-46.239492527476614,-45.6154674723839
2025-12-12 18:03:18.986691,Right,21.290488614718015,32.09076163190912,25.095073510533894,25.78126391472415,-73.26407987111088,20.480161387565204,29.58647215538258,30.209980135028673
2025-12-12 18:03:18.989703,Right,54.37559232848798,59.690541741574634,50.18386346913576,54.41161592700519,-54.467907915709475,47.71505621414781,56.965766026718484,55.41930233919993
2025-12-12 18:03:18.992712,Right,-18.435423194089708,-24.743779778720636,-36.79634325818961,-25.99443533232443,41.64348316955329,-35.09122687343506,-23.545180933644588,-26.15019048456088
2025-12-12 18:03:18.996723,Right,-64.08822481860261,-66.77164866527164,-76.83215955417563,-68.71286950647846,35.1366751996602,-76.02181708383341,-65.01308167810384,-66.1431389140198
2025-12-12 18:03:19.000721,Right,9.748624989179007,19.45280060166624,12.191159649330757,14.558061451964932,-56.996613723362316,9.707995395090165,17.538498262099893,17.51352876662895
2025-12-12 18:03:19.004728,Right,78.99689886382112,87.45790959593614,78.3235166073946,84.9717295533901,-52.382694247808104,77.61356034338769,84.72106216517568,83.60913618106679
2025-12-12 18:03:19.009747,Right,25.315575213704506,22.04364373294993,9.01143798264286,25.182201436776268,51.614807453764115,13.42112062299293,23.017362461803714,21.16776833448057
2025-12-12 18:03:19.012759,Right,-50.69127028609,-53.52639107864343,-66.69873942189685,-50.15256170203247,67.83955678837901,-61.68576315895098,-51.19284107907697,-51.507241106564834
2025-12-12 18:03:19.016772,Right,-17.17231890828316,-7.405886465425283,-18.604536655756647,-8.689584578905851,-32.85928307980248,-16.906763443634645,-8.629104822193767,-7.685846344305901
2025-12-12 18:03:19.020779,Right,50.99687419031852,63.05746680139964,50.26258370573362,60.79331161285427,-64.59496111597946,52.850397845137195,59.95920721942821,59.574364109552334
2025-12-12 18:03:19.024778,Right,21.24229689747426,22.08624441286156,5.264681998434526,23.640570292441225,30.770208967753206,13.77237601470597,22.404455328967742,20.573821936990498
2025-12-12 18:03:19.028801,Right,-47.842165384693544,-50.41660251371832,-67.80088181701717,-47.952082062360205,77.12040278555742,-56.16195743050139,-47.23544525068428,-47.76514218839293
2025-12-12 18:03:19.032823,Right,-22.190689174476574,-14.880624546429317,-29.809055869272925,-16.222427211476315,-8.568062925869526,-20.070917206493505,-13.65999025279234,-12.200835925528736
2025-12-12 18:03:19.037772,Right,51.87235823783794,62.06119715538989,46.62946149328127,59.449437647322156,-63.980649726699085,56.03956693908776,61.54780290133749,62.41074420687073
2025-12-12 18:03:19.041827,Right,34.91383116022098,33.58072567276395,14.368818712537632,34.47202758218373,14.184308881576726,27.429568671887864,35.982800466816116,35.03213850699649
2025-12-12 18:03:19.045789,Right,-39.52401741360336,-46.814706307639426,-67.2258458977849,-44.94034129456304,78.85905053379793,-52.696999854480055,-41.791484096140266,-42.544052349379854
2025-12-12 18:03:19.048808,Right,-22.932794448990535,-20.595470391768686,-38.59027640504746,-23.10705490350756,10.145453993754018,-27.157395215957195,-18.297773020800378,-17.71140841223314
2025-12-12 18:03:19.053872,Right,70.20330504976846,78.63056818223595,61.08630645102494,74.05430054046064,-59.46114817432135,71.60750831717587,77.72116210924469,77.75527496502764
2025-12-12 18:03:19.058844,Right,84.13753221698425,82.16894478504037,61.62963202569517,82.18248104579561,6.036781181562219,76.99224896121609,84.02820517823784,82.36439529342715
2025-12-12 18:03:19.062881,Right,5.0042361239920865,-6.425892857687359,-27.68050811226749,-2.426665693315954,88.93076383075822,-8.588761666365826,0.6397266240383033,-0.5903399364797224
2025-12-12 18:03:19.066915,Right,-19.577506041312517,-23.866465850400346,-41.17626601760003,-22.413151981549163,34.553835010028706,-24.915579585798923,-16.317916629436695,-15.200096258880876
2025-12-12 18:03:19.069954,Right,43.313768144291316,48.00352205724448,33.62573346414956,46.101981574968704,-61.004696276869254,46.12146290354326,52.941689210010736,55.02281531409244
2025-12-12 18:03:19.073930,Right,56.814738616471004,54.99894305919497,38.893920039994555,55.3091156092878,-28.75963338493102,53.121153928927356,60.55249218243807,61.80305074175885
2025-12-12 18:03:19.076878,Right,-21.093388719367795,-32.708736939674964,-50.49425523312584,-29.20192166707966,61.0361987894521,-33.07268040629617,-24.632061882811286,-23.075845299654247
2025-12-12 18:03:19.080949,Right,-54.13001496448305,-60.5335100661332,-75.94846437045271,-59.31283480293405,33.251590735943864,-60.079567963740374,-54.299551747145415,-50.869558209566094
2025-12-12 18:03:19.084939,Right,16.119772465619462,19.774408072165897,6.669749015883099,17.302450859799137,-64.17618435191844,19.76421816471668,21.2040552186254,24.727033184395623
2025-12-12 18:03:19.088968,Right,56.490107844198064,55.61698225044256,40.54231793179588,55.151136235374906,-51.259048000842995,56.05354179361177,56.87332139827504,57.456618750486086
