timestamp,label,FC3,C3,CP3,Cz,FCz,FC4,C4,CP4
2025-12-12 18:05:37.624347,Right,497.2061669053828,1693.0412211359455,1717.6456204691683,1294.6201563209386,3809.475436463944,1187.5205497580332,1150.790482206036,1751.071275035184
2025-12-12 18:05:37.640389,Right,2683.8942249821007,9112.71350388643,9244.722855005108,6967.161250981346,20519.2663423497,6391.901209620873,6191.335486685309,9423.092586785739
2025-12-12 18:05:37.643409,Right,6165.729520894294,20867.345684761443,21167.434927823713,15948.231259859802,47027.32497800907,14634.364246811203,14166.555578896949,21569.105640082144
2025-12-12 18:05:37.646439,Right,7727.266221407377,26088.921870707476,26456.737997519296,19920.01212001813,58836.74995482467,18282.991424665277,17683.984518856356,26940.280306265806
2025-12-12 18:05:37.650406,Right,5230.5789938104335,17707.59997390535,17939.520715223676,13480.99641041019,39915.08498905698,12377.630295449628,11953.576953397092,18230.26841702829
2025-12-12 18:05:37.654415,Right,574.774052979832,2131.9814898946206,2123.696141149936,1554.2509557147423,4698.974630256533,1437.5921696975129,1355.276187135867,2089.990389278697
2025-12-12 18:05:37.658462,Right,-2893.4939397777125,-9630.24844804997,-9813.30359651352,-7427.568078758224,-21822.100266832742,-6793.730947011092,-6628.125705075465,-10077.071505406435
2025-12-12 18:05:37.662450,Right,-3703.9004212928558,-12664.531510482659,-12883.011508494528,-9723.18579803966,-28507.298455780954,-8891.417705585685,-8677.400984492357,-13194.473319712968
2025-12-12 18:05:37.666419,Right,-2605.2722314145212,-9101.805201559386,-9256.484362183197,-6989.67015940143,-20373.57061228063,-6390.4316893558425,-6251.568127087463,-9489.496329902322
2025-12-12 18:05:37.670475,Right,-1125.3308170692762,-3910.814390619169,-3984.0979379707132,-3026.5526734555024,-8762.039005258703,-2770.85997716384,-2718.4557723530743,-4113.2726696324535
2025-12-12 18:05:37.673477,Right,-333.1096997706918,-1065.9833573427168,-1096.5793580875616,-852.603076883126,-2453.3241082283203,-781.004249158781,-774.556844321487,-1168.894510613056
2025-12-12 18:05:37.678441,Right,-476.13128511887044,-1679.1577698593028,-1715.6466048919829,-1314.3309679258964,-3778.419858247973,-1194.9075063573546,-1185.601071175537,-1798.277151281829
2025-12-12 18:05:37.682509,Right,-1136.6462826175848,-4052.5876546172076,-4119.23297897476,-3127.5237173183123,-9042.95067210286,-2853.6508802370518,-2801.4180508196587,-4248.505607416853
2025-12-12 18:05:37.686508,Right,-1612.092420597648,-5523.853294390952,-5610.506734406576,-4256.234996146115,-12417.9278727856,-3896.7041750065982,-3800.387218610209,-5768.208978495211
2025-12-12 18:05:37.690527,Right,-1471.2160521644691,-4887.477469210746,-4965.102321911021,-3763.190291366598,-11071.176972484915,-3449.383488809224,-3357.5939876769553,-5104.830381520209
2025-12-12 18:05:37.694538,Right,-943.4882776174927,-3225.8569931809325,-3276.7844388030935,-2476.8707281707902,-7267.94236290548,-2264.447675141215,-2221.311190544395,-3376.2766586557264
2025-12-12 18:05:37.697536,Right,-641.8255236937839,-2380.526514302008,-2415.8327010644134,-1824.778610191308,-5268.887748525012,-1664.4519448300125,-1651.1590773140197,-2495.8448212810326
2025-12-12 18:05:37.701502,Right,-822.7099733998475,-2876.854992817389,-2920.5462418136885,-2211.9441483666888,-6450.9199465739075,-2027.2418229626492,-1992.116335884668,-3010.637823049212
2025-12-12 18:05:37.706556,Right,-1105.350362387835,-3624.01414385566,-3682.1558729918906,-2784.3820678243646,-8254.37765331869,-2555.2435656902962,-2492.404542100965,-3782.0456612921553
2025-12-12 18:05:37.710620,Right,-1039.977411312837,-3478.31065110059,-3533.158543880214,-2660.254660120816,-7874.817803076701,-2431.9034088797634,-2385.396840964968,-3618.889051379403
2025-12-12 18:05:37.714594,Right,-722.6854341309518,-2611.951508566388,-2648.5115574436495,-1990.0305705699138,-5770.392827008618,-1810.9365906439489,-1800.0864407287445,-2707.815926766605
2025-12-12 18:05:37.718642,Right,-593.672356108611,-2103.743180393474,-2130.374521375634,-1608.86610312853,-4628.856067737332,-1470.4856100872275,-1459.7920020360616,-2176.439436843386
2025-12-12 18:05:37.721644,Right,-771.684949962917,-2453.40248356387,-2487.5361438068794,-1881.0672127235448,-5560.094392448664,-1731.0547899377998,-1689.37062193983,-2537.7757320025703
2025-12-12 18:05:37.725640,Right,-921.2503758962848,-2965.163865079521,-3007.315610060352,-2260.99421683501,-6739.4777429648675,-2076.621116563154,-2022.8614380676881,-3061.1232353114756
2025-12-12 18:05:37.729636,Right,-783.1594871426933,-2737.817257516319,-2772.59769523039,-2075.1056426934665,-6106.05991870095,-1899.0000696394127,-1864.0843991491129,-2815.8180134834256
2025-12-12 18:05:37.733662,Right,-529.0993518756004,-1906.267086715554,-1926.3635833347216,-1443.1120607100893,-4204.670008497313,-1324.208379050484,-1302.2843718163203,-1951.3781052158447
2025-12-12 18:05:37.738767,Right,-466.4288590758806,-1456.0541357073234,-1472.1803863054374,-1106.6500357914483,-3317.4654685286805,-1025.4666222676751,-992.6956054025213,-1486.8532729590079
2025-12-12 18:05:37.742719,Right,-606.9776576611912,-1853.5704022810096,-1877.8948455527425,-1404.552460652776,-4268.706901454134,-1296.7565249084146,-1252.9036908554845,-1895.1536946787965
2025-12-12 18:05:37.746714,Right,-704.6958093667636,-2386.820479564136,-2416.6296692618635,-1800.897417984088,-5362.726376636419,-1651.4145143962232,-1612.5101208103006,-2439.1467950122897
2025-12-12 18:05:37.749711,Right,-610.3679547750216,-2160.915350112715,-2184.586310222163,-1629.3428141187178,-4791.058725624578,-1495.9532914250158,-1463.6757839740603,-2202.506799065741
2025-12-12 18:05:37.753657,Right,-426.07263643082115,-1356.827764311689,-1369.925221259473,-1022.6043521640822,-3077.445808005985,-950.0663560121902,-915.8427824893733,-1374.318916715216
2025-12-12 18:05:37.757716,Right,-337.8274860906822,-960.3140309782466,-969.3431208847323,-716.9643719039159,-2256.38521444425,-671.4606685257168,-636.67522029049,-965.2622609745013
2025-12-12 18:05:37.761726,Right,-401.735949289432,-1357.73160457192,-1370.3434610556578,-1011.5069989491021,-3065.756605630275,-933.8315883471514,-901.5344910572749,-1371.6870467355475
2025-12-12 18:05:37.766742,Right,-501.0575501783169,-1822.1869278054219,-1838.5718548657605,-1367.4464351495262,-4036.9534128061496,-1259.706958161667,-1220.3574642959866,-1849.5066424163524
2025-12-12 18:05:37.770771,Right,-477.60655489450437,-1586.2766579729505,-1600.1286033927463,-1195.6278160040965,-3589.3827225216664,-1110.8970673453878,-1060.2216688675107,-1608.5425948501797
2025-12-12 18:05:37.774784,Right,-316.3139185346954,-903.2189792903373,-908.9832405962516,-672.5193590363488,-2139.6910167294554,-632.9228785418672,-589.1143447487266,-903.4988242442487
2025-12-12 18:05:37.777788,Right,-186.14596024010098,-611.368673996185,-610.4292313643964,-440.3852224146831,-1409.4931042895187,-411.08354565210175,-388.3059329498792,-597.8173522034194
2025-12-12 18:05:37.781724,Right,-234.88553486033925,-938.8856039554812,-938.3734027957544,-691.5907091579866,-2048.5783162005246,-638.0410659720073,-617.3701996586751,-934.69566099043
2025-12-12 18:05:37.785787,Right,-368.18619507248513,-1270.4116695524426,-1274.484581729048,-955.9560047334526,-2857.185944420751,-888.7687381860451,-844.9679228027235,-1281.8020506412722
2025-12-12 18:05:37.789827,Right,-357.7599384073692,-1071.2126963179326,-1074.9872675659135,-805.4872576132766,-2517.788768774364,-755.8958584750653,-700.1833236839739,-1078.5812250351883
2025-12-12 18:05:37.793829,Right,-176.427844286256,-568.8240833334276,-564.8982941961731,-410.8570658856188,-1341.2866174911615,-388.43591016758,-350.3590627544909,-555.065158847894
2025-12-12 18:05:37.798831,Right,-56.058926295576384,-339.8923926167772,-329.9256458073505,-232.0490799396066,-716.5376835912466,-222.01724190171808,-197.76943357894197,-314.7824316576589
2025-12-12 18:05:37.802797,Right,-142.5011907244334,-531.4749969579279,-524.9582213259418,-387.87838077929337,-1189.6417454562616,-373.70323308033403,-331.758257511945,-516.0982822926017
2025-12-12 18:05:37.805800,Right,-270.40775165642845,-759.6253207480186,-759.8971834102995,-566.9960546436487,-1828.1914466519374,-543.7025422714069,-480.0109892101609,-755.1190072718309
2025-12-12 18:05:37.809882,Right,-220.63200152863283,-662.2256522015668,-660.948254882067,-484.0870038444991,-1584.8292246795027,-459.7913525926415,-405.63540232085506,-649.7406085912371
2025-12-12 18:05:37.813877,Right,-55.44996250345139,-319.0723269912414,-308.6288271623198,-216.91850674158195,-673.5379964021267,-206.66276643818128,-175.3095420312311,-288.6409645107924
2025-12-12 18:05:37.817894,Right,-4.4365377653739415,-95.1830740335281,-80.09876382426592,-55.09767891923548,-155.99508060666267,-62.962130261585116,-29.466911032941425,-58.71558591310168
2025-12-12 18:05:37.821913,Right,-103.70332940427761,-182.99779455998214,-172.75008751271525,-129.89258002414135,-471.2455113133183,-137.73890496318927,-84.98947077727644,-154.9075396138942
2025-12-12 18:05:37.826910,Right,-166.25664309349668,-383.69223232002696,-378.77367513324134,-276.0230112177669,-942.249263744452,-264.90344667670433,-211.57641658370267,-361.70055724994745
2025-12-12 18:05:37.830923,Right,-91.19689173043298,-362.95115583675215,-355.7225383426121,-251.95898692516494,-784.0779866126832,-232.67702991477563,-196.52963068985264,-335.30658103409223
2025-12-12 18:05:37.833940,Right,8.327530133377877,-78.6584590379207,-65.81200831953902,-41.47117579731275,-122.84212684899103,-42.77177280338947,-9.927339841757203,-41.32232194158132
2025-12-12 18:05:37.837977,Right,18.998165903169138,158.42629507783568,172.25541382687516,128.76256557897432,289.48347297805594,103.8598151167389,149.6362673486874,200.03932215060922
2025-12-12 18:05:37.841947,Right,-14.522862735888339,100.96373511751881,111.99797873391071,86.64339706819737,118.71333828172646,67.15183225218789,113.36438503600948,141.82592105545336
2025-12-12 18:05:37.845966,Right,-11.50194836762239,-92.13029087387258,-81.81502504250966,-54.33133302780334,-193.7166154497536,-52.549906613858184,-22.35815568327962,-52.706035539129516
2025-12-12 18:05:37.849991,Right,13.850442069480778,-85.03976462992432,-72.8591800393915,-54.119183111935854,-108.43358796450775,-52.53318386110186,-27.26983007788658,-46.15628691048187
2025-12-12 18:05:37.853989,Right,23.570563667206443,153.22247706074268,166.17769483389566,117.84087851567165,325.0014814681781,96.98937397656846,134.18196436807557,193.20501660612354
2025-12-12 18:05:37.859015,Right,39.59037824297775,327.20275495614624,339.52297137978894,253.69276975246612,636.969487914088,222.5599468913715,261.75130633347817,370.31585069830544
2025-12-12 18:05:37.862005,Right,75.60781874851091,268.3719681323637,280.97949107445675,220.1355713153389,592.3137781513651,201.71622079329973,225.3757731562473,313.52310730495276
2025-12-12 18:05:37.866007,Right,85.81895767006517,157.06417860484817,170.25895836146765,136.14738557801866,423.6169377997612,126.40295774562765,143.582817646693,199.8077546931454
2025-12-12 18:05:37.870024,Right,57.976354585389345,207.7102996360336,219.72234012479748,166.99461902587063,449.0979766052478,146.61552054213098,176.2469346092912,246.86621443174226
2025-12-12 18:05:37.874036,Right,62.05289353313128,358.85359636363137,369.55839027404727,283.9562166278629,682.6374887067795,253.08982099905552,287.15063765195373,399.38107180829684
2025-12-12 18:05:37.878059,Right,128.723814435456,429.1732385005598,441.2251732983714,348.7950885012833,901.8266451485688,322.54750492922904,339.64047454060346,474.438116741032
2025-12-12 18:05:37.882001,Right,175.32754909097275,409.6184694900585,423.4597838569898,336.0055656232871,961.5870187406254,314.26886386562546,320.2879959201673,455.1048538656323
2025-12-12 18:05:37.887080,Right,139.67689538229024,413.5234024967067,425.46913026762195,329.38016232939844,917.3050231227535,298.398389467111,318.45361861873243,453.41951095027616
2025-12-12 18:05:37.890086,Right,94.27873308219569,454.0165176583978,462.32800837693503,357.29289570404217,896.0529390375596,317.02925352442253,351.85175137533224,490.1958483030321
2025-12-12 18:05:37.894096,Right,126.64363985056116,466.47344332942157,475.136102628574,375.67727256778744,961.2413234343985,339.18238407032914,365.3302032625652,504.8002606918453
2025-12-12 18:05:37.898097,Right,190.781027258221,476.2204650026106,488.9256581022346,386.3349910369434,1097.3941133778426,352.93667736058705,365.5982931891631,517.0457286906894
2025-12-12 18:05:37.902064,Right,192.83216983611055,550.6384446208249,564.5121966048027,433.3367583807849,1238.1749289237196,388.64824265713105,407.95852112199645,589.6466702171019
2025-12-12 18:05:37.906123,Right,152.60196364313015,630.9815816262271,639.5775006646872,488.428798147419,1296.1160042473348,433.1375269511482,464.00002623032196,667.2052382528782
2025-12-12 18:05:37.910144,Right,153.2919786963903,604.3113872940885,602.963551760884,474.3957657740684,1240.59996479447,426.7969516759913,448.9357230378955,640.3129836676526
2025-12-12 18:05:37.915162,Right,187.36425507884996,522.4638784614508,507.63907069026027,414.6675173260737,1170.6827525555855,378.4921582679963,385.84088745937333,557.892486880417
2025-12-12 18:05:37.918153,Right,185.95674414893438,552.024227092159,520.4748455639347,425.090786366316,1235.0482629201142,380.68490778497653,395.3000422959449,584.3590404246934
2025-12-12 18:05:37.921155,Right,159.89388993161265,695.3453082754277,648.9472574292449,522.4311804493191,1433.2148667566944,460.305031113734,492.917798937473,726.6151900653495
2025-12-12 18:05:37.926164,Right,174.35727624646097,761.8521643423592,710.1220006827498,575.2860069453018,1569.8463045707904,514.0646371337934,544.0835891593597,796.9359861355624
2025-12-12 18:05:37.930120,Right,210.87754620873602,666.2407473918283,619.2399990101112,506.85243764781626,1491.476850127452,463.7487862807466,476.557221021445,704.3376581312623
2025-12-12 18:05:37.934192,Right,195.4079318360309,566.3914539088146,526.7018738796469,423.5662180396612,1319.643261300982,388.60007288021734,401.34569328307407,602.0749283155892
2025-12-12 18:05:37.938232,Right,150.22712634861819,617.6925750927185,582.6476305539254,454.69560386787634,1324.3248475281289,410.675030399987,438.8993657644023,651.1844570271205
2025-12-12 18:05:37.942220,Right,169.91444193615462,747.9141563629382,716.8942663627677,560.4166513638338,1557.2653003227897,509.89566832524724,537.8678196466644,786.0897079539136
2025-12-12 18:05:37.947234,Right,241.95157203800045,789.1171733167721,763.5703134224168,602.708064450766,1749.1004082469735,557.1734154124279,567.8060002801358,833.8935575359501
2025-12-12 18:05:37.950242,Right,247.90969420038164,718.8794426983804,697.0165104947519,546.2302008057595,1657.887261148775,504.0521513967542,512.106124333106,762.5247300879564
2025-12-12 18:05:37.953274,Right,171.0406651084486,651.8239573534811,629.8341789599508,484.9428879961488,1415.7546301938128,438.8083152495674,463.97289439477026,688.3842681027018
2025-12-12 18:05:37.958276,Right,141.2537001449964,665.0898955377052,643.8910265663872,496.7848435669439,1373.0945141061675,450.4783225587453,479.62461471452843,699.5130104345735
2025-12-12 18:05:37.962222,Right,216.50222691515228,734.5348565462045,719.1493540763622,559.751571909932,1620.2427935057785,519.0949913854711,529.1360303039546,774.1639112472767
2025-12-12 18:05:37.966251,Right,276.69725760124857,793.6159186420264,784.7029871654231,603.7038451780099,1845.027992530726,562.1307025856222,562.7661441226956,836.4875552447047
2025-12-12 18:05:37.969296,Right,223.81115944453632,783.4885526753496,775.6304100229172,584.477499921748,1749.3606434380636,536.2183587328182,553.5303909103386,822.9632941391319
2025-12-12 18:05:37.973292,Right,145.62025055816048,699.144723277539,689.6612365037436,517.2775637356681,1465.7532033226453,473.524841895327,503.7081490775454,736.4921378749423
2025-12-12 18:05:37.977343,Right,163.65705086287926,632.7695990788052,626.1927164754597,474.18528442824027,1387.7822544197552,446.0100649530068,462.947408397391,676.6531820778036
2025-12-12 18:05:37.981320,Right,235.145010794251,689.3365052611334,689.7220007155556,517.0450300491648,1631.3769181044772,493.25924954516813,494.56137597491033,743.8917333527934
2025-12-12 18:05:37.986328,Right,241.6479477324756,813.7625899960985,818.0766925127245,600.6514181208331,1869.0392665290274,565.1716788750491,572.8914247573703,874.827045720187
2025-12-12 18:05:37.990341,Right,188.05518881505122,820.0876368636964,823.8246860409854,602.0931195837911,1775.5853281277232,563.7052307623671,581.518536891439,883.3272580058547
2025-12-12 18:05:37.994369,Right,170.56905544101028,667.5892729926854,672.3534778205212,496.8213834744529,1475.634789013071,475.7549846463371,483.05416163802147,733.2887577939546
2025-12-12 18:05:37.997361,Right,203.98758381934022,565.6347783965757,575.8006014283746,426.5738962382893,1373.6098334616981,417.35514570208034,409.2459806994302,634.3989021190209
2025-12-12 18:05:38.001368,Right,220.41454095498193,673.7061972136144,688.9389608539641,503.5229998835712,1599.1839179566596,480.19397321913857,476.91978935257066,743.5457531884313
2025-12-12 18:05:38.005397,Right,205.01920281618368,834.2217439796077,850.7422319600591,623.0415610668715,1832.5200785216875,581.2764965094393,589.7925417060032,903.3357474398799
2025-12-12 18:05:38.009413,Right,202.83609935466666,796.4980791201815,813.5110532798572,604.1902250298299,1746.2290428590495,568.252558596083,569.1734809760237,864.1815125272842
2025-12-12 18:05:38.013406,Right,212.74809574632673,608.6505956236506,628.4248238498112,468.88991551089566,1450.7998499255627,450.8760899332701,435.38454761652974,673.1441386032384
2025-12-12 18:05:38.018449,Right,196.61605544990744,546.132437871187,569.2042787825922,415.30321735306643,1334.8420733311214,396.6280893768999,383.1989515903988,606.3754151526373
2025-12-12 18:05:38.022514,Right,176.62194637139328,682.8767822894733,707.8463204998989,513.4203564708587,1531.4573477017693,478.16235293541104,477.89161945856176,741.9676359506557
2025-12-12 18:05:38.025540,Right,203.55441511626123,790.5776081582299,817.5220835794462,602.9064082372934,1746.563897518674,563.0901296546217,560.4362570809317,852.0708548607072
2025-12-12 18:05:38.029456,Right,242.50362867329386,706.8476145837922,736.4971763768699,548.0502998735756,1670.7595575624146,519.8268527642358,505.52820753108244,767.8973014935618
2025-12-12 18:05:38.033457,Right,215.53968096894096,566.0839899554849,596.6168847398367,435.9915201542899,1396.1816906693857,412.7588955647079,404.8934229532606,620.5728981124703
2025-12-12 18:05:38.037548,Right,150.5207225130871,558.2130685537122,587.4375906453934,421.55460816971026,1275.021491859341,389.5022177773644,399.82871691079345,607.2918660002761
2025-12-12 18:05:38.041476,Right,151.93555971750175,648.3336488901405,678.1416547119152,494.9455406795023,1435.2734136015642,457.8887299710768,465.52719667507336,700.1797842781525
2025-12-12 18:05:38.046524,Right,217.4296182030812,679.0626446212409,712.6694839226548,528.3398431239184,1621.733839808032,497.50657197483815,482.3137416159152,735.6149162176298
2025-12-12 18:05:38.050465,Right,228.95226857688976,617.9594070384046,653.4801159150666,479.056047628168,1558.2760382408742,452.18965860648314,429.7942320112488,670.2991096049082
2025-12-12 18:05:38.053480,Right,155.06000311518437,555.1558125482406,587.8113623700337,421.444658196182,1316.3527688723989,391.36643067514524,385.57010917784646,597.0453275367618
2025-12-12 18:05:38.057612,Right,111.3730870213185,540.7070263174828,571.2119190299418,412.73789183818735,1197.179363463074,384.57373218255816,386.00273483793717,578.8179657490691
2025-12-12 18:05:38.061508,Right,162.2920154100284,553.8532209080877,587.8615967724472,434.1437930697575,1317.0084638304543,414.82851930864854,399.8972126105218,597.4808205085574
2025-12-12 18:05:38.066496,Right,209.5133044704853,574.9036114399787,613.1441649871413,450.9690720003564,1467.8640511981212,432.37267966679065,406.6636920617311,621.9679860445904
2025-12-12 18:05:38.069577,Right,165.18458951512002,583.7823434146121,619.7058127938071,447.9694803474704,1417.3594215312041,419.99638355569914,406.75725079205586,625.2901492547244
2025-12-12 18:05:38.073580,Right,102.37304820324061,543.0988555848598,572.601019029622,416.1605019054841,1215.6065797461197,386.81619963416597,383.3399927065475,576.6719106913079
2025-12-12 18:05:38.077618,Right,120.86824002911453,469.7023067434784,496.70531834312715,370.9031953087542,1104.014879440423,352.502548524586,335.6424392548506,499.77618066687137
2025-12-12 18:05:38.081673,Right,175.90704260353232,454.4393737014616,483.5858582232613,362.362015829538,1182.3659361740574,346.34135293605505,316.2031519577722,481.9669350044569
2025-12-12 18:05:38.085627,Right,169.55682904436253,523.077081634663,552.7830482249847,405.10153468849603,1293.9059881360736,373.6946299985284,353.87061981484294,543.9877817906672
2025-12-12 18:05:38.090636,Right,124.05561254447093,561.3775534202578,588.4377111061476,430.2630621858407,1255.9477719231509,387.4401101163239,381.49524656351423,574.467400114052
2025-12-12 18:05:38.093654,Right,126.20680028756033,484.6626192975091,510.76169457344804,380.81461652368307,1098.0146569812205,346.5447252271115,331.8079304914572,493.32698477467056
2025-12-12 18:05:38.097681,Right,164.2953441881109,392.7142300012056,421.07044531742577,315.92769137280993,998.0375726900529,292.0071889006649,261.8905494745122,398.76806623034645
2025-12-12 18:05:38.101641,Right,161.55237831373233,420.3052542785881,449.48754678166006,328.9012931798352,1036.410113298567,297.0801448847633,272.59858496213565,422.56908266455866
2025-12-12 18:05:38.105709,Right,127.38954065236612,511.1706090834923,537.7453780526994,392.5583732521627,1107.8216897977982,348.55222453630995,337.9500194726861,510.401133555104
2025-12-12 18:05:38.109699,Right,133.92530822829576,505.6315775428666,530.1966557160486,396.38139632885577,1081.2402775832452,358.69374102482107,341.4358655171236,504.61586651799735
2025-12-12 18:05:38.113708,Right,169.8619107757404,403.72892550134566,428.96396305330563,325.64606426871615,967.4599819779396,303.80796043382725,268.6845278458786,401.61010302440263
2025-12-12 18:05:38.118739,Right,158.70982859432115,356.46568001806736,381.63406980165746,282.0863614024129,881.6713374194223,261.72798868548125,227.2914625441772,349.1183547718683
2025-12-12 18:05:38.121732,Right,108.75786116844392,407.2327045315178,430.0926458799513,311.8755183321773,883.6042277337983,282.0131626353832,261.6741890042904,394.744189139572
2025-12-12 18:05:38.124755,Right,104.35291454123217,433.60619492433034,455.7630516656209,336.986875866598,916.5231560827233,308.3872035519453,286.415154912218,421.1873881192878
2025-12-12 18:05:38.129742,Right,147.7373408585554,372.7549529541284,397.46172687306534,298.8224014331354,899.6314115312416,281.1992496018647,244.55829397164052,362.266090645222
2025-12-12 18:05:38.133710,Right,150.03270695041283,319.1001593786059,345.0304472966818,253.22733700473327,827.6494514371734,235.8527256968664,200.98521941888612,306.0810732145328
2025-12-12 18:05:38.137784,Right,95.25621819743537,338.3311080536805,361.2075352706015,259.2321927016019,757.3210804124828,231.3701705475687,213.90086283441633,320.2124927593395
2025-12-12 18:05:38.141780,Right,73.06668251287192,354.6236223988235,374.4474179822719,276.1432944518747,727.850758458022,247.99249657581095,231.44813324708957,335.4573416390922
2025-12-12 18:05:38.145799,Right,114.85595155984629,306.7887341233436,327.6844434621744,249.93208834459074,725.8545339100529,234.0825840156176,197.7706290705828,289.90229667548556
2025-12-12 18:05:38.149815,Right,134.9653970535146,263.93150220043026,286.77494309691247,214.49673639517277,716.6749256658368,202.58320034050848,158.86262606387027,245.8708702318836
2025-12-12 18:05:38.152853,Right,87.62555945216445,284.70491524226964,305.9833782177884,219.27592509164242,682.1090066421311,197.95686591381673,170.31304448796436,261.479021810228
2025-12-12 18:05:38.157842,Right,50.474667205271544,297.870954299462,316.7354058033088,229.91339187847916,627.405205771327,206.48690588015597,188.48654689680552,271.975637228461
2025-12-12 18:05:38.161884,Right,80.78131311846664,238.19926445023157,258.48484501161147,195.3455486042658,572.5321297305636,184.54364206449827,154.33663180761505,213.7464725759346
2025-12-12 18:05:38.165877,Right,111.92847628862364,180.69100391643587,204.13253785436973,152.90185359795578,540.6120068833698,148.8134280780214,110.56468904356007,156.02850169833982
2025-12-12 18:05:38.169903,Right,80.24997933919076,209.60679806245025,232.92912132525817,165.20902442320948,537.0758150324691,150.7984606596292,125.54550654324703,181.0118823677185
2025-12-12 18:05:38.173910,Right,42.3118832547334,257.01678760984214,278.32767907890957,199.60066837258637,534.1655888194218,176.90834542183438,160.9842175032245,226.24913310800912
2025-12-12 18:05:38.177868,Right,64.86125613717013,216.1500229788944,238.65171621757327,178.66287743707653,494.35872543021105,164.39180670346832,134.38440410856856,187.6426244105096
2025-12-12 18:05:38.180939,Right,97.87412705269526,132.38015045417706,158.445765675453,118.77543914166745,420.5504251108505,113.96811721782433,69.4762649651384,105.43359268305358
2025-12-12 18:05:38.185930,Right,70.42371112373075,124.66331508377334,151.41925581399119,104.49767907644855,364.5950790862553,94.11599591287086,58.241771219007205,95.67395273974398
2025-12-12 18:05:38.189945,Right,27.41557976565673,177.34282168588834,202.07106431073043,140.89081438444555,364.70721855573356,122.37213740346488,99.01407014683355,148.02491291833576
2025-12-12 18:05:38.193968,Right,46.66095614634105,174.27802154555684,199.7148968957481,147.51553620700724,386.9202876078198,134.1336288242601,101.93784546692041,149.8935413301806
2025-12-12 18:05:38.197967,Right,89.70658090205688,103.00144726189319,133.58791394205764,100.16523593681632,360.61280911020003,93.97772701253416,47.771320789994206,83.91646272689104
2025-12-12 18:05:38.202021,Right,69.86801333156473,60.51692975324113,98.39454103348544,65.9924636465148,274.365134407999,52.21304960292764,13.480280602350831,44.32609473809134
2025-12-12 18:05:38.205990,Right,16.16019490431063,71.7868166200933,120.76072911504889,81.74017588881543,200.68230545741972,55.05122648749966,30.905483746464597,63.32700746902265
2025-12-12 18:05:38.209005,Right,25.13561835292785,61.361067025049124,129.06989172881003,100.26397684996482,202.64841387199704,73.67987497453578,41.23062054425827,71.0739202532568
2025-12-12 18:05:38.213025,Right,82.52847404396744,8.746560915140435,97.94901014532661,85.32039761153283,243.21694317576475,65.99958624213468,13.291719538217876,38.845068848866504
2025-12-12 18:05:38.218024,Right,84.10500553247402,-18.536141994816717,81.88465065206401,66.2954546167166,228.55707824078854,45.09798451772076,-5.796368376817554,20.98845620144857
2025-12-12 18:05:38.222049,Right,22.231944949395256,-5.212674068287015,90.21428012399701,63.54309396215831,136.02833286079112,38.14756512621534,7.224151480186265,31.174267568218056
2025-12-12 18:05:38.226044,Right,-2.030493950966047,-17.662183770211414,65.19539222551975,46.130537852150155,50.92438542074524,32.11492837086553,5.184392555383965,11.86485320108477
2025-12-12 18:05:38.230066,Right,37.97336714807898,-63.60267985839164,10.287984249182045,6.174821542284917,53.23960043175612,11.445892272458877,-29.798684233188396,-39.53667993203271
2025-12-12 18:05:38.234040,Right,51.22480567765888,-66.73841174715199,2.9877426244784147,-9.074310221883934,105.61010623548646,-0.5388373892928939,-42.8770093099447,-48.57127811049577
2025-12-12 18:05:38.237077,Right,-0.623474664054811,-22.605734296666924,43.57735773117747,12.25933100032853,100.49097171565518,9.637859388225479,-15.238938331254758,-10.624369543365901
2025-12-12 18:05:38.241037,Right,-34.95903950736101,-29.132513064774685,33.94910131744109,10.084987923211884,7.217030527070165,6.55309935574769,-12.740257926547201,-20.199387714412296
2025-12-12 18:05:38.246125,Right,-2.1784338936413405,-104.89711292993161,-43.319642079557525,-38.77452541273669,-83.35217813053168,-29.160851799853845,-63.53517981854384,-97.1661411919631
2025-12-12 18:05:38.250115,Right,26.358733902859967,-132.50648568040924,-74.38848358707037,-64.77361513825599,-81.850987596903,-50.46927545106155,-91.71094037273724,-129.74507429866935
2025-12-12 18:05:38.254156,Right,-6.340091178295552,-61.617231659038225,-12.295776386745274,-25.831586506130407,-23.664282085373998,-21.74736738106003,-49.51752605155343,-67.96819138497813
2025-12-12 18:05:38.258147,Right,-41.757734827828244,-14.265934684022795,24.877498227113392,5.547445331030758,-21.42985342303291,5.519875490717823,-14.867024162129383,-28.062355285626836
2025-12-12 18:05:38.261166,Right,-22.531745656080602,-82.0161069566966,-48.433354439475806,-39.74626276255003,-110.73728786257561,-29.34513584455999,-62.23555177242088,-99.37380186011433
2025-12-12 18:05:38.265110,Right,0.5818444258402451,-161.17680245626252,-130.00232725247042,-101.70160726671747,-201.43703693407588,-86.78091607538227,-126.38720398888108,-182.30076075391844
2025-12-12 18:05:38.269176,Right,-28.147445834496466,-125.63278178547625,-99.38565363190719,-87.11760761142068,-201.5519844898372,-84.77295688692539,-108.7318729667677,-152.26566030218964
2025-12-12 18:05:38.273195,Right,-59.58668655996007,-43.17626522487262,-24.172699329792522,-29.73052461280895,-142.71279293100815,-36.98715302729397,-48.09864265478973,-72.83106856790255
2025-12-12 18:05:38.278192,Right,-36.47379445027036,-58.41762168513378,-44.148473658875446,-35.343669212496025,-135.24678788060555,-33.186497172384406,-55.52999089612422,-87.36008898627188
2025-12-12 18:05:38.282173,Right,-9.91879917737242,-148.9832576950721,-136.9339679118275,-104.42288467256003,-216.82169423054438,-90.33152010524645,-125.78347176026728,-178.8124518339755
2025-12-12 18:05:38.285169,Right,-45.51049938482902,-175.1262038553541,-167.35679350107966,-136.70355882355943,-303.1289036099042,-127.31625829275436,-152.77554707099807,-209.98448994104547
2025-12-12 18:05:38.289222,Right,-91.91931121100424,-118.5836416391976,-117.35882371902699,-101.17169095802092,-305.3098329899949,-101.70877922260843,-112.34016932693248,-157.65162622428034
2025-12-12 18:05:38.293237,Right,-68.12709122731758,-92.54603927026619,-95.61576755762508,-75.60023917487706,-250.0010236571252,-72.37112059479841,-90.60401077190181,-132.18756603754082
2025-12-12 18:05:38.297252,Right,-16.287628964928444,-134.73873106275278,-139.5874514549505,-104.948138492211,-239.24677804825478,-92.5576955827928,-126.3401291053815,-176.75705012714934
2025-12-12 18:05:38.301258,Right,-31.674861384684846,-162.78281440972205,-171.8907250931734,-137.12080689108188,-310.3170296410244,-128.01744377533396,-156.7266445849309,-212.79940626075359
2025-12-12 18:05:38.306273,Right,-89.7871345863914,-141.5842970807571,-158.1972444920175,-130.29330446313543,-388.6337406911334,-129.77607964267008,-144.17992778358166,-198.84385434423166
2025-12-12 18:05:38.310315,Right,-88.39557332831828,-134.41695412834088,-156.0225793608024,-119.71429317769525,-393.00929977143096,-115.18165143252281,-135.87015026607696,-190.89037963724695
2025-12-12 18:05:38.313248,Right,-31.73449900167452,-162.73503636313762,-184.41307997561353,-134.98519387122815,-344.36148639706516,-120.04076872829955,-158.92648839479807,-214.21300205901207
2025-12-12 18:05:38.317305,Right,-22.127668876812095,-165.79905349631554,-187.7309426586762,-144.45988913476504,-332.00264778586336,-131.59574353055177,-168.49197988577362,-216.4427948373559
2025-12-12 18:05:38.321310,Right,-75.35063952675591,-134.84150033782134,-160.54803536747568,-130.19230058739413,-390.7748206436627,-127.45390970709559,-146.39107039477676,-188.15848639850446
2025-12-12 18:05:38.325341,Right,-95.76917881136069,-142.5791492926619,-171.63032315620512,-131.94147234026605,-458.4715086407232,-127.64248887469148,-146.1354917781282,-195.8854374881339
2025-12-12 18:05:38.329343,Right,-52.09795203734393,-197.249143305522,-226.18388480889553,-165.92967017372575,-464.89651997506735,-150.61050840972166,-187.8752360468934,-248.98992902148166
2025-12-12 18:05:38.333300,Right,-30.274881081903004,-210.74425034174055,-240.2001704104332,-182.52411031143856,-424.9923327100987,-166.49984666270757,-209.61863477461156,-265.50952436037187
2025-12-12 18:05:38.338425,Right,-72.00000358748366,-162.77632020020974,-197.1072251938458,-158.61230119848915,-412.40284536080435,-151.23038035514037,-180.95981252267666,-223.76210574249853
2025-12-12 18:05:38.341385,Right,-100.81256450893125,-152.35445537706983,-191.99699040646374,-150.47093893698184,-457.99539333823486,-140.25270287714375,-166.91799337090924,-215.09431026360835
2025-12-12 18:05:38.345442,Right,-67.88048727441492,-220.04434168944135,-260.4709374910308,-193.20310798095306,-513.3937004460895,-167.94374953793886,-210.28821591222368,-278.8605011376494
2025-12-12 18:05:38.349405,Right,-40.73717850540561,-261.6172819122876,-300.91112201653596,-226.48196156101767,-521.5068874265125,-197.34465933406318,-244.71798928685894,-317.0661632581905
2025-12-12 18:05:38.353422,Right,-72.12791392201325,-206.86170465746545,-248.34791382591357,-195.1016381378431,-491.44700211449526,-179.0828738585842,-208.83771830849582,-261.7801523216185
2025-12-12 18:05:38.357412,Right,-101.08096266925713,-149.99172326401458,-195.534829926386,-151.99585732183186,-479.66924155846937,-142.99151489291398,-161.5983039092389,-202.9853020258015
2025-12-12 18:05:38.363443,Right,-72.43662630667677,-188.7488385103352,-235.34565164364176,-171.5817486497108,-512.0067002194119,-152.10379241664486,-183.2952788337716,-237.3772396481363
2025-12-12 18:05:38.366455,Right,-45.089885410176066,-253.87976849236293,-299.5412818365148,-220.57806892307417,-554.3129099738435,-192.7107989747019,-233.91277297449415,-300.6936818428803
2025-12-12 18:05:38.369470,Right,-81.12812229207339,-234.9683773581928,-282.35444879406714,-217.6545739287103,-563.5994625443127,-197.85928040843282,-225.00808007395244,-284.15726649045246
2025-12-12 18:05:38.373466,Right,-124.56944740738254,-174.9789469866373,-225.80817780343932,-176.03566602355568,-543.6154118184932,-165.31335440513794,-176.44081514305435,-225.37287303392077
2025-12-12 18:05:38.377438,Right,-101.85194518091885,-185.12447745908867,-236.1191670136759,-174.33759188151453,-533.3625398456934,-158.69299111131113,-175.74433707809658,-232.74798781162826
2025-12-12 18:05:38.381473,Right,-59.079379421658814,-243.1315345930052,-291.5456049319182,-213.5855220843514,-553.0434358312632,-191.83676011569332,-219.03348041456775,-288.95562665665057
2025-12-12 18:05:38.385447,Right,-77.76842106210825,-242.48151632826193,-291.1219375215005,-221.05302015377674,-582.2448130321573,-206.91646487411344,-224.32306805229746,-290.875815718784
2025-12-12 18:05:38.389522,Right,-123.87247335663415,-191.6211308914062,-243.82465738101746,-187.2057002596557,-592.0989548702491,-181.90861442210735,-185.66500989807537,-241.9658672446385
2025-12-12 18:05:38.394535,Right,-111.27784437072114,-192.65263258756022,-246.20686404340086,-180.5310985421529,-581.6977224069415,-168.05170166917378,-180.32874851985252,-239.53975829604315
2025-12-12 18:05:38.397569,Right,-61.7328717722703,-247.15649855905212,-298.25190664990805,-217.45361099706497,-573.3756734937779,-192.40996287902817,-220.65833983881748,-289.02586460707244
2025-12-12 18:05:38.400551,Right,-63.468107185690315,-254.87695330166025,-304.74000136047835,-232.31391592233558,-581.5261069627013,-209.05764683292364,-230.6777253006294,-295.7282181500923
2025-12-12 18:05:38.405562,Right,-106.44397422921611,-203.41592287208186,-255.54863941238727,-200.81903085060185,-598.2622136604041,-187.03617287272937,-189.49635329697048,-245.3405346245272
2025-12-12 18:05:38.409519,Right,-102.22782778456167,-190.4107999294356,-243.97340294608148,-183.92641970937257,-608.0457803995814,-167.96932176372502,-170.54447825526586,-231.034786708944
2025-12-12 18:05:38.413593,Right,-51.401291126880096,-238.7538788357051,-290.4444475877099,-212.08079840426217,-606.1720134699717,-186.75083893892588,-203.95413039805135,-277.4680473636254
2025-12-12 18:05:38.417602,Right,-45.08135395793943,-254.72491144109517,-305.2652565452736,-229.58710864296881,-599.9162307267543,-206.78934180515353,-221.91811976587633,-295.05829586309846
2025-12-12 18:05:38.421607,Right,-96.29613056985545,-207.46765705899452,-260.32164957927307,-202.7295373546367,-598.039830545662,-191.2535121619585,-188.84835866600042,-250.90852082689526
2025-12-12 18:05:38.425696,Right,-115.1528590653179,-189.94406984027592,-244.7516800002195,-185.53194839917705,-603.4602395883994,-173.70584763854276,-169.75678006678936,-233.1483645751141
2025-12-12 18:05:38.428685,Right,-74.27396053251869,-243.61133102225722,-296.80287271522684,-217.10763077426236,-612.5542157740565,-193.39897878048941,-206.6588863976067,-284.6774959989125
2025-12-12 18:05:38.432700,Right,-56.68400135812408,-275.42657579795923,-326.76505179581,-243.6112547221419,-617.7573857520474,-217.41858764673816,-235.17748514129198,-317.47293336113216
2025-12-12 18:05:38.437712,Right,-98.50589501543436,-227.21160772826988,-279.6330004138872,-214.93816163792508,-613.4794531392399,-198.826086908055,-200.85848839694518,-271.9287992614554
2025-12-12 18:05:38.441689,Right,-121.81968620322004,-184.91847578826128,-237.8022727528587,-178.6960015144432,-603.3127470979234,-165.09977936156793,-161.0508401513507,-227.77490792539902
2025-12-12 18:05:38.445711,Right,-82.85911104630213,-223.27646840695525,-272.1849232519744,-195.55738169280812,-598.9313641049666,-171.33653898528428,-182.11978524472215,-259.88589241867885
2025-12-12 18:05:38.449689,Right,-56.563139255391434,-271.9915898112813,-316.1562795895152,-230.78281194664305,-606.7782842442393,-202.1586498945253,-220.6077169784985,-304.56220688467147
2025-12-12 18:05:38.453719,Right,-97.49411606346257,-248.4347649544943,-292.4461749915499,-220.5120454931748,-617.374080539681,-201.85797515517334,-206.21139772288734,-280.8219032892375
2025-12-12 18:05:38.456714,Right,-136.06962837523315,-206.73325031425338,-252.98399272281677,-187.32884924300015,-614.8136925875442,-175.15958902818966,-169.72183489633608,-237.56457744783256
2025-12-12 18:05:38.460756,Right,-105.15220720370417,-229.60037397936685,-274.76562079193536,-192.87228030513506,-598.194050384569,-173.7206169910496,-180.08522700623143,-255.79313839541283
2025-12-12 18:05:38.465718,Right,-63.44165683504252,-272.9294032571488,-314.33211151423166,-221.95955260423943,-585.7486806182424,-198.81648726720596,-214.16410543580423,-296.0421831376152
2025-12-12 18:05:38.469750,Right,-86.2461239809927,-253.53386558860075,-293.43255048495485,-214.76793480012566,-591.884716926259,-201.5757607432315,-203.17951835674467,-276.5358136225841
2025-12-12 18:05:38.473753,Right,-126.40104073761904,-208.40355022385484,-248.75227317487588,-181.4014046996599,-606.1021854901919,-175.42841294559184,-164.04098638548749,-229.02677958848653
2025-12-12 18:05:38.476779,Right,-103.85475064342609,-223.08247777906945,-261.2604210897698,-181.38216871360783,-604.8803947304841,-165.99438400872168,-167.00351582310395,-236.92850323871244
2025-12-12 18:05:38.480782,Right,-55.942366548784776,-266.84947864321293,-300.6895297533483,-209.09244965575635,-583.6317371667828,-183.02239631174598,-202.12617403868353,-275.4729999866686
2025-12-12 18:05:38.484796,Right,-68.08723048886168,-250.12243020633468,-282.69434558594367,-204.45485363237094,-564.9557468341663,-183.79002901673084,-198.05570413457463,-259.2597568333731
2025-12-12 18:05:38.488791,Right,-114.95005674769345,-197.40415886498522,-232.22664290870307,-169.12448265042622,-569.0321358949877,-158.80248130270047,-158.29303572897334,-207.9141378350323
2025-12-12 18:05:38.492763,Right,-107.98868529306492,-205.59745858929818,-240.86628258094424,-165.93833728967002,-585.1403952504043,-153.5756077807746,-155.88878164906055,-213.01968584791757
2025-12-12 18:05:38.497820,Right,-59.67271130603331,-260.3414374591084,-292.7750212084502,-199.1613691765233,-584.8107185725821,-181.40694285574136,-192.508800409385,-263.29974531620974
2025-12-12 18:05:38.501853,Right,-58.29623436575639,-256.67992264637724,-287.8757274686359,-201.99709243816324,-560.6502686489839,-192.62137543596327,-188.12443276343402,-258.79694213485345
2025-12-12 18:05:38.504838,Right,-102.40300973402918,-193.94713653507642,-227.50896076270146,-161.1418549522641,-537.5613279106328,-164.4857307963539,-128.9363782054861,-196.60733011586126
2025-12-12 18:05:38.508853,Right,-104.72495596023509,-183.09128527279245,-217.89510792208603,-147.07536691287532,-539.3554964478826,-146.69064588623587,-99.95841480098898,-183.12266537407413
2025-12-12 18:05:38.512902,Right,-55.934675860306015,-244.22959204675863,-276.4010246566613,-186.26742094010115,-555.7661329400726,-172.246269573865,-134.62382407160476,-240.84181583236204
2025-12-12 18:05:38.516888,Right,-40.353307233250234,-265.3480863702134,-295.3441842874745,-208.14406115293968,-555.8608212330146,-194.25821459206054,-155.25381634628866,-263.05408514267765
2025-12-12 18:05:38.520887,Right,-76.46385799451673,-203.75984863488702,-235.50334769685287,-169.9152790158987,-530.3284034323879,-168.67391334014246,-115.7428623616579,-205.5741665282403
2025-12-12 18:05:38.525900,Right,-83.81035477569094,-163.4421306172153,-197.25503810384544,-134.06335580348969,-504.53747868863866,-134.88986445165938,-84.65871220751433,-166.88460704532918
2025-12-12 18:05:38.529932,Right,-37.918762367015006,-206.24240142770577,-238.69267603132175,-155.94336041959468,-503.9547940440243,-145.7397879656055,-116.64705911127385,-209.20594956184505
2025-12-12 18:05:38.532921,Right,-19.584709672955796,-242.5157504802337,-273.2560591917136,-185.8625976226176,-519.298133376753,-173.3445398468175,-150.777575592394,-247.5916837361874
2025-12-12 18:05:38.536940,Right,-62.963547365303384,-197.85152389708674,-230.4847226338461,-162.0773623660789,-519.3676596817095,-161.57629364560125,-122.44158283236902,-206.81935507548042
2025-12-12 18:05:38.540938,Right,-87.56455299818481,-146.63235701533267,-181.91455584648065,-122.24540432950016,-493.77750814380124,-127.86805798398564,-80.79431067529367,-155.67250378837343
2025-12-12 18:05:38.546968,Right,-45.82489541392715,-171.75790634774603,-205.93824650516035,-131.8981425797101,-466.81958922964986,-129.45428664266365,-96.9310431748745,-177.136582657462
2025-12-12 18:05:38.551000,Right,-12.847150226909434,-215.44714249286335,-246.95922633301234,-165.88513991516083,-463.8870739992708,-159.0969791385578,-135.43701212786254,-219.82159263436915
2025-12-12 18:05:38.554036,Right,-48.22175485918706,-192.4862845854368,-224.50171190069523,-158.92459610122023,-477.0623585815774,-160.82203313487116,-124.11580542696174,-200.13926100439858
2025-12-12 18:05:38.558018,Right,-84.99539535529038,-146.6120941292611,-180.68327818345279,-125.0308933785418,-476.7069118091604,-131.98731169407256,-86.67639303387841,-155.92477175535168
2025-12-12 18:05:38.560999,Right,-53.02439857655554,-160.47808912722394,-193.26219919335563,-124.6088809450157,-452.12067588523496,-123.13681346341036,-92.82278299637255,-167.20149222540203
2025-12-12 18:05:38.565020,Right,-8.313801174852415,-197.55061565316282,-226.88753375748638,-148.54477652156493,-425.30725053336937,-142.201255430351,-125.85290735933813,-202.76058907003608
2025-12-12 18:05:38.569050,Right,-28.65598018867604,-175.78104533150326,-204.73303588776616,-139.5654075050261,-420.1608646232635,-144.46402543777367,-117.6541660768271,-183.77555256854976
2025-12-12 18:05:38.573052,Right,-70.1661397878488,-127.94244882138446,-159.1525209133979,-105.44489812123356,-430.36187680764124,-121.55280708818464,-80.37182023667265,-138.1988351647742
2025-12-12 18:05:38.577006,Right,-50.709160318408976,-139.9992655533133,-170.8751927849953,-105.33144954201998,-429.25432305422146,-116.49532086809631,-82.60381239902927,-148.2667469359003
2025-12-12 18:05:38.581060,Right,-3.4746806962502887,-183.95847014861647,-211.52998405287508,-134.97097979206592,-406.4729850400472,-137.69417522323783,-115.92634951934451,-190.1182749242289
2025-12-12 18:05:38.586097,Right,-14.61155484507617,-166.25998138985597,-192.51547894842224,-131.41598910448374,-380.86505530332215,-139.27257061412092,-107.9000162431621,-174.2254146069754
2025-12-12 18:05:38.590087,Right,-62.20220011247147,-106.06375668657711,-133.87152884202078,-92.21972694026772,-373.73227253358345,-108.29289840260753,-60.73566676894552,-116.25938823656179
2025-12-12 18:05:38.593110,Right,-57.18328462493082,-105.8778297197423,-133.254027875897,-83.75913385581225,-380.4511021366343,-93.05216492689215,-52.811347638547886,-114.42548526369501
2025-12-12 18:05:38.597120,Right,-9.36216506306664,-162.04550724703586,-185.71544266026467,-118.39409990829881,-378.3514655045001,-114.79870489778114,-94.50122893965454,-168.00434185925405
2025-12-12 18:05:38.601145,Right,-8.613168200070504,-168.1198723151465,-189.95739715511445,-129.35522010363638,-357.9232137853978,-126.96400536576402,-106.74363274328061,-175.22607862442965
2025-12-12 18:05:38.605076,Right,-57.12091934296768,-110.20804139605025,-134.45641625969438,-93.65386940725148,-334.3227113869507,-100.99310530300136,-66.13205044096685,-119.97547582141124
2025-12-12 18:05:38.609147,Right,-66.33326754179143,-93.35250442795223,-119.42129085195484,-75.64766758511541,-325.50211827037856,-80.44320035152487,-48.52034399737022,-102.29953479353571
2025-12-12 18:05:38.614182,Right,-22.825508144756895,-147.4633918478503,-171.23040874674916,-107.98447507870151,-328.51457389385905,-100.59214041914674,-88.42664999351837,-153.0671140778577
2025-12-12 18:05:38.617203,Right,-11.3210480674461,-170.7641088530072,-191.5842397720553,-129.29908348823665,-325.276574813528,-121.02323826655629,-113.58519752990105,-174.4506022464484
2025-12-12 18:05:38.620189,Right,-53.00852428426151,-116.4106073807925,-136.83754966739798,-95.88160226179752,-307.51729185390286,-98.12809656257741,-76.74094023165526,-118.14276285062078
2025-12-12 18:05:38.625198,Right,-64.46463434562611,-78.11628980521346,-97.43856990314089,-62.5472138193436,-286.4740959255723,-65.8640105604427,-42.05173868717975,-73.87141189654358
2025-12-12 18:05:38.630207,Right,-14.80160529159184,-116.8252325449721,-131.2489485803526,-82.61471801597509,-276.3136384085519,-74.5445864846115,-66.49105723510729,-105.33208498271415
2025-12-12 18:05:38.634269,Right,14.138354202616028,-149.8071289548534,-159.41319229692454,-111.12252429197542,-275.6502623327542,-99.12213782645995,-95.97314478055341,-136.62852221139474
2025-12-12 18:05:38.637205,Right,-21.881966160639422,-106.78222896484658,-116.12512837932445,-89.85293461760739,-271.2208239627071,-86.61065835269983,-68.47022078870214,-97.11245518369833
2025-12-12 18:05:38.641233,Right,-48.85929298667179,-60.56784747802885,-71.23398368887138,-54.81877180899028,-256.2437240673462,-54.2634489958582,-30.328323876892682,-52.48136837867787
2025-12-12 18:05:38.645261,Right,-13.628409002849367,-89.5573297305964,-98.06295376975322,-66.9288253885752,-238.07510294928215,-56.347324618225684,-48.45432709113811,-79.11418287747074
2025-12-12 18:05:38.648275,Right,17.129491846062592,-131.74742050032364,-136.5096816236619,-98.23947245016461,-226.9504261435941,-83.53004864408285,-84.80882662575459,-120.38776679901639
2025-12-12 18:05:38.653272,Right,-17.253540267804055,-102.49047338834498,-107.00751389877405,-86.00450230756542,-222.85722494625952,-82.07959720751387,-68.40680924832122,-94.01177752623335
2025-12-12 18:05:38.657308,Right,-56.281648964984925,-52.594392929633614,-59.23572541237809,-50.45184589744895,-217.27011556201614,-53.85824104119092,-28.169590226665605,-46.44765187375015
2025-12-12 18:05:38.661275,Right,-30.099898962958832,-71.04449419787852,-77.26746093801921,-55.58449363292311,-205.02116379502695,-50.13946004261379,-37.88663869994343,-64.47291591309477
2025-12-12 18:05:38.665284,Right,10.480399009116809,-116.59092182980385,-120.5887738285819,-87.90372383169597,-189.84032675763592,-73.38791928972933,-77.2041856959695,-110.96621608757414
2025-12-12 18:05:38.668319,Right,-10.71259402767464,-94.81198663590476,-99.77874430269003,-81.25106365903048,-178.1344170694938,-72.28981457452755,-69.11260616910295,-93.8003262366401
2025-12-12 18:05:38.672346,Right,-52.94253462400229,-36.54752814176027,-45.23441641527461,-41.75558976858156,-171.02730947220698,-39.33986099908361,-24.25666860322235,-39.26360989169916
2025-12-12 18:05:38.676351,Right,-35.493984825283405,-42.22641015070258,-51.688778428710066,-37.923170013556955,-164.39223591028713,-26.87868741696002,-21.891041127120843,-44.12050714192446
2025-12-12 18:05:38.681376,Right,10.244453366147354,-95.05156062863534,-101.38577483315021,-73.25134497132967,-154.6882525504334,-50.147340274153976,-62.60540654780925,-94.84683050020249
2025-12-12 18:05:38.685366,Right,-1.887321720845648,-92.48585438984446,-97.02833481261041,-79.58398206927814,-142.4387722935062,-58.67654512680019,-67.78165735438233,-92.28294902390917
2025-12-12 18:05:38.690344,Right,-52.06268957752036,-36.546553444466554,-42.50174900452839,-43.164619758026674,-130.52384403487667,-29.59085543709807,-25.389197309617884,-35.4351489150431
2025-12-12 18:05:38.694406,Right,-49.592298714997014,-27.523212918109493,-33.651971132843755,-28.132447694486473,-120.94050586421508,-9.06870885824901,-9.80122094223043,-21.449121683632256
2025-12-12 18:05:38.697413,Right,0.45999049468082376,-75.47282774874475,-78.55314774016733,-55.99619959908887,-113.42902040039189,-26.423251599248033,-41.812068776460364,-64.24096492843819
2025-12-12 18:05:38.700433,Right,8.09256277573877,-82.86984263313934,-84.07463233330054,-67.29963196147582,-105.9957781014964,-41.573467390204314,-52.01656155407545,-71.31466819971683
2025-12-12 18:05:38.704429,Right,-34.888008991976676,-29.34690984300687,-32.2920765162562,-35.509257543453714,-96.4888896777993,-22.005413447332103,-14.255881120887352,-19.932769512903178
2025-12-12 18:05:38.708398,Right,-43.226424336353375,-11.528326592582744,-15.41090041201096,-18.446922220522538,-84.7111802760046,-4.036783337040106,2.8726200571400113,-1.4013539020670578
2025-12-12 18:05:38.713451,Right,-0.47007889487576904,-61.458672700828174,-62.2255820465507,-49.08631293743383,-73.263488978846,-22.971757975581568,-34.50053495516477,-49.003826132713584
2025-12-12 18:05:38.717471,Right,10.841058842110215,-82.90951700258302,-80.55447167804232,-69.74454305358813,-65.09303370385896,-42.95257074962137,-57.15118799620541,-71.38238300403464
2025-12-12 18:05:38.723489,Right,-33.2917997566401,-27.969699368462898,-26.56364675614168,-36.16198477556463,-59.601141041202936,-20.69898334876052,-17.752809658864862,-19.283242014440475
2025-12-12 18:05:38.726491,Right,-50.1462193550542,13.6843646162597,13.123426539154025,0.30643796164076775,-52.55329393531429,13.545166558003984,20.99869433477579,23.300662178749917
2025-12-12 18:05:38.729459,Right,-3.9430156267044367,-20.647622737829806,-20.04017541190842,-14.408506883279188,-41.22116132470546,9.22958570276387,-0.012823084514820948,-6.641730462317355
2025-12-12 18:05:38.732468,Right,25.049265388719505,-54.67461593769258,-52.13571463135304,-41.29350362956757,-28.550863572396338,-14.861147702788003,-31.03765782751725,-38.676054310199106
2025-12-12 18:05:38.736547,Right,-12.326542660877749,-19.003623934462667,-17.656566143443342,-24.515701821510447,-19.96816901426064,-8.621853281510994,-9.15884626848856,-4.455030293989694
2025-12-12 18:05:38.740483,Right,-42.910095443767204,20.491886380914366,20.08041254093405,5.43618029463687,-16.065061521017924,16.78184296967811,25.898918883947772,35.100360685697524
2025-12-12 18:05:38.745573,Right,-6.68967625618825,-9.904687197093153,-8.063133854680927,-7.093954232725082,-11.133555928885471,13.248457031600992,9.920862034938182,7.637597046064911
2025-12-12 18:05:38.749580,Right,32.75549435609719,-49.79747438043705,-43.87141508367495,-34.67580088163959,-0.5090231565991417,-11.043380403483752,-22.72814412340813,-30.85837622368126
2025-12-12 18:05:38.752593,Right,7.694177277007839,-16.878533024224453,-10.518232770846225,-17.017776060849428,12.751380483096,-6.223199927655514,-3.544991755959927,0.5375499536457937
2025-12-12 18:05:38.756596,Right,-28.383965155328042,36.11209667476942,40.00272550879163,23.47535275237169,21.486484414199367,23.995007153760525,38.9272232355579,53.42510243700235
2025-12-12 18:05:38.760574,Right,-2.2747734532895265,17.663753215776524,21.258926868176786,20.794797968876082,24.149593930051196,27.75345313308935,30.78012008224323,37.94592941159499
2025-12-12 18:05:38.764636,Right,41.76747503941442,-30.50352792191552,-25.060341106087435,-11.372490519599523,27.334558366972487,2.7041147572890623,-7.680683454920654,-8.73952624591766
2025-12-12 18:05:38.768677,Right,25.277434219089628,-9.606200200214516,-4.695869451214094,-4.155966819060268,37.04088207526365,1.5092061257455498,1.777159614910488,9.395194420183543
2025-12-12 18:05:38.773616,Right,-17.502311118871148,51.31181515462231,53.42060913465684,37.700459162151674,50.30067683313973,32.92845875269268,48.67727213833132,67.3134354656504
2025-12-12 18:05:38.777638,Right,-4.406026011460199,46.57811569326441,48.57757254506578,42.68590164769557,58.93017192103434,43.35224495615694,50.731534753896995,62.9938948181516
2025-12-12 18:05:38.780626,Right,39.80171294164029,-12.199940934195183,-7.066030418412993,3.7186846363911172,60.6770292945439,15.16113172272162,4.675092263110855,5.1944364022347145
2025-12-12 18:05:38.784646,Right,29.574237879376597,-18.047180632711388,-11.643077229469782,-8.687334861897398,62.48505964502692,0.06366745739069302,-7.619847435227712,-2.3749253776477417
2025-12-12 18:05:38.788690,Right,-19.663726202445105,35.94475751268328,40.3692642468377,25.225462764967233,71.11592812411254,25.28439409645216,31.919358659812133,50.0280794982682
2025-12-12 18:05:38.792693,Right,-17.968921881129063,49.029799673866364,53.09212554967962,41.62741048452153,83.85139440215426,45.38991988732596,48.54672056331765,64.92036684589402
2025-12-12 18:05:38.796725,Right,32.12220468472515,2.708229677504278,9.883418149140198,13.640607097520842,92.13205125922104,27.27942042540235,15.808124249335378,20.455621617671568
2025-12-12 18:05:38.801715,Right,40.498215120580426,-6.110791750455974,2.6637901484355098,0.5542709221917903,93.24597805753001,10.861966909957118,3.5971539970305457,9.051237071995274
2025-12-12 18:05:38.805737,Right,-2.466885431091214,51.65837991370063,57.791132256927085,35.62575324026693,94.02463481525774,34.06687688987586,45.492220670115785,62.65924365821411
2025-12-12 18:05:38.808740,Right,-9.43048182997154,80.14691087564279,84.32543630321743,61.965311112086056,101.4753640119743,61.284215848267195,73.42017120949458,91.29031277638569
2025-12-12 18:05:38.812754,Right,38.64127933018972,35.121706942562014,42.09746255532082,36.928060006466694,113.24744501829264,48.36512258221046,42.73038898993036,49.61036080273334
2025-12-12 18:05:38.816794,Right,55.716136552231546,5.782518605687073,16.54246874396631,11.451901522930712,120.96142258832697,23.95704086581827,15.57005867605585,21.182980267811217
2025-12-12 18:05:38.820809,Right,11.311146796018875,48.82447096775286,59.9205997481331,35.85290537387482,121.67562775767874,35.712816526975075,46.13067106189192,62.97707881862152
2025-12-12 18:05:38.824800,Right,-11.716537645712378,84.96233763426426,95.62284825356619,67.74431844790524,121.73426223179558,62.52550512376183,81.53023236572699,101.41084310137376
2025-12-12 18:05:38.829794,Right,29.650037530620466,50.65659145555401,64.06574122576421,53.731011508905794,127.94964768033242,56.88230556558847,63.04645449866939,74.47572983477585
2025-12-12 18:05:38.833844,Right,59.03377752585584,17.78712098338292,34.27446779996535,29.33781702989654,138.4143260367855,35.06609115550236,35.64213850156386,50.015750451195345
2025-12-12 18:05:38.836787,Right,22.068354244019247,55.40501342507196,70.81392949286237,48.6267333033029,145.37715226053842,43.926330330788915,59.607450388749385,94.53621492187813
2025-12-12 18:05:38.840842,Right,-14.267997062658651,95.91886282348423,108.80781487846252,78.63897112294944,145.87024910926993,68.92066297114434,93.25672885327185,140.76875588742405
2025-12-12 18:05:38.844846,Right,12.324784718948194,61.21573815409647,75.62896025060036,60.78235431043868,145.4694088952965,60.28582909394754,70.77888927295135,108.55676616980782
2025-12-12 18:05:38.848893,Right,44.85059220287167,13.415830214893504,31.727351088538853,24.84363314512302,150.4388779324945,29.84552597171205,30.275305323430075,56.16385261817777
2025-12-12 18:05:38.852891,Right,17.040760642815258,44.143512966162234,62.83292543600328,38.66798757407014,159.35088058171095,33.92765939898163,48.51154695268997,77.02941552670018
2025-12-12 18:05:38.856883,Right,-20.270953941781272,104.40172943547077,120.41489298714077,83.11606955173556,165.416756008417,69.72649007473228,99.31633532502747,130.0364849649668
2025-12-12 18:05:38.861906,Right,5.763878963406569,92.37768921698444,108.35985303862981,85.10925675842373,165.8127752784494,77.96589919731196,99.28110536388704,117.13180621045376
2025-12-12 18:05:38.864906,Right,51.91135633155682,38.86811352098448,57.89972813973168,49.940451571073936,165.1587555483129,49.65238936345304,58.55559561776681,64.25651020357702
2025-12-12 18:05:38.867879,Right,37.49585771117472,47.92724147750414,67.96628627750033,49.23780269740564,168.9102811683333,40.91672702908727,59.17129314648628,71.15286462495715
2025-12-12 18:05:38.872931,Right,-6.304021749112508,104.52757805714282,122.94741163087929,88.29732429997603,176.12100217377883,69.60891942668513,103.24680504269782,126.0177925758635
2025-12-12 18:05:38.876943,Right,4.204452373491222,105.24207438862868,124.64883999937229,97.97393720977107,181.18552477169214,84.21622242802118,111.82430824515177,129.17223629811087
2025-12-12 18:05:38.880956,Right,48.04284820139037,51.242131003091345,75.3574190545769,63.302652054953796,181.55757531180643,59.770201410449204,72.66990153231745,78.32041912467321
2025-12-12 18:05:38.884976,Right,39.069063108137925,43.92047230322896,71.08193391736495,49.35673842233746,180.80147133445098,42.06699188041421,61.04405078747368,69.91149428653807
2025-12-12 18:05:38.888917,Right,-11.661261335562813,93.84277422378545,120.32049482118964,78.3253819557217,183.39475373394384,60.345705633895705,97.14808316501876,116.81919615010702
2025-12-12 18:05:38.892985,Right,-15.13511333878887,101.21889728648057,128.22821771307645,88.57518657511537,188.84545807624272,73.26407604856104,108.43715598846757,124.48892623167922
2025-12-12 18:05:38.895987,Right,30.737338168628412,44.92059482287323,76.20048230602697,52.589555089847636,192.84599312750288,49.34416211149437,67.97994817738072,70.47660071880091
2025-12-12 18:05:38.901022,Right,38.884345634647616,25.480071165890706,59.958129520266084,32.051939877030236,193.22265706841426,29.6066107649076,48.82003373319458,50.424246921087615
2025-12-12 18:05:38.905017,Right,-3.388226653503807,79.42053617402917,112.73542313688813,64.76756642745022,192.4631275126012,52.60077883187478,89.77900933807541,101.9592679794805
2025-12-12 18:05:38.909023,Right,-11.300190895166452,111.54023009447428,143.59432727479725,94.16955484286882,193.98250365947024,81.44045996909699,122.34495563444216,134.61227394446905
2025-12-12 18:05:38.912989,Right,37.03460821953922,71.3423013082338,105.89443492548162,73.21197427242441,197.69395874366455,70.1066620837264,95.66249191014504,96.59082067486452
2025-12-12 18:05:38.916051,Right,57.23799151597996,43.70172114624074,80.99456461665977,48.82713433769095,200.6079706034725,46.418044951893535,67.4182814835076,67.45625205299439
2025-12-12 18:05:38.920002,Right,14.99518076917957,86.48225719680704,122.71109647143749,70.91070601295723,200.9815205554769,58.20590704294227,93.29558219258615,105.89843777810893
2025-12-12 18:05:38.924064,Right,-9.360562726687931,120.96190403323271,155.3935673168453,97.73725513013414,200.2703966625122,83.87306006376093,123.01074150946806,139.11745298661117
2025-12-12 18:05:38.928090,Right,30.533197468987055,80.61897827567736,116.83533729735063,75.28514041728704,200.8178745030018,74.257260406961,96.76004081104475,100.91169584006275
2025-12-12 18:05:38.933091,Right,61.922564661748766,38.62015426863945,77.43299701726937,41.06740585681837,202.87756059330422,46.49044981288898,59.95230938895838,58.67302368725359
2025-12-12 18:05:38.937120,Right,29.085207011386956,72.4153422468953,109.84924022448831,55.64657017409627,204.71928351889073,52.48108304339985,79.31029310236045,88.9248968150423
2025-12-12 18:05:38.941064,Right,-4.179219850055233,117.78625277221727,152.18467363677337,88.91217458748724,205.05486363067757,80.67001656877255,116.75873612350551,133.23115345639235
2025-12-12 18:05:38.945132,Right,24.421542957625206,87.99778749397956,122.99234879271535,75.72184384855791,204.40472802285512,76.83065133843047,99.32232257063151,106.13216432246554
2025-12-12 18:05:38.949137,Right,59.085224563237716,36.67136092855071,74.3281597666064,38.12828614424507,204.09346696421562,46.12010813890083,55.82585532774101,54.684297599000274
2025-12-12 18:05:38.952165,Right,31.47529319240857,58.87252724327118,95.7665147700609,45.06457731361297,204.641456587633,44.55545438142144,63.8040146745916,70.717335734269
2025-12-12 18:05:38.956166,Right,-9.740198217994475,114.77643277262541,148.28017642542545,84.56970739088138,205.45731182341115,75.12431494923658,105.54439365775033,120.14792845136253
2025-12-12 18:05:38.961270,Right,11.475736100132053,104.36482261751371,137.41423499349912,86.62828900664317,205.70231993339257,82.42184082115273,102.16223589031142,108.30976690399984
2025-12-12 18:05:38.965197,Right,56.194468891917495,52.397984949901,87.96087545361661,52.701713222697435,205.0952202253102,55.22100416869216,60.749875113819144,57.58586910676968
2025-12-12 18:05:38.969211,Right,42.13204253796721,59.833324498795264,95.46941052329203,50.93659808065422,204.04369952721754,46.083388587976515,59.99796520950622,65.1841900300642
2025-12-12 18:05:38.972215,Right,-2.8622684286383446,115.05138847020862,147.6788923494605,88.27242881773418,203.25818388006883,73.20471688375255,102.96060508514347,121.1439908433822
2025-12-12 18:05:38.976238,Right,8.134284423664212,117.36980838189629,149.35043563980435,98.69084589942213,203.12135310826125,87.76085652392794,112.47497216008196,126.91276776514133
2025-12-12 18:05:38.980257,Right,59.97783002889628,66.90049519643071,102.05228465578693,68.0790387926827,203.21438489138382,66.19783024100616,76.59047890377406,79.24418252507166
2025-12-12 18:05:38.984260,Right,64.17293442913069,64.2579820386818,100.99673313606763,60.662385391835414,202.61092978573288,54.155989011138445,70.50393881231139,75.05471622962796
2025-12-12 18:05:38.989255,Right,22.622949597374827,120.14696051513602,154.279420488514,96.73850807616691,200.93796691682655,79.44236169909709,113.15366253335378,127.74112094621523
2025-12-12 18:05:38.993256,Right,20.632290368877875,132.56542628794705,164.4871386881132,111.80856436051545,199.02125962803257,97.46443851835647,128.2193556214188,139.60567361820722
2025-12-12 18:05:38.997283,Right,64.4977458025387,76.76640759026486,109.96413016873703,76.31583064192091,198.02580508388928,73.40191625993612,85.3201748674037,84.2143710557284
2025-12-12 18:05:39.000297,Right,69.22616378920793,52.625915833952604,86.81426141585689,52.494955037604086,197.90466085250955,48.06359810625145,57.959207342006266,57.788038540733396
2025-12-12 18:05:39.004298,Right,19.618513846362475,99.45040887944924,131.4116846384859,80.39151082807803,197.25285809813067,63.28527578396461,88.53060413032654,101.9842138896056
2025-12-12 18:05:39.008321,Right,2.6438570163591066,124.42689446121221,154.6912054556742,105.12760617403546,195.073564447026,85.94707643511356,111.8384803935769,128.67712541007495
2025-12-12 18:05:39.012332,Right,48.07735378741927,77.44999865881982,109.75625614618184,79.95526486734161,192.23924426399753,71.17301810217032,78.33997525088489,85.8072940355487
2025-12-12 18:05:39.016278,Right,72.95324843149865,44.32704018424556,78.47370801935904,51.76950529770693,190.49412813343224,45.19101771511487,45.671509489722666,53.11400097508158
2025-12-12 18:05:39.021340,Right,34.17901448207704,85.49106321680301,116.99237670420553,71.47553676149982,190.10252779646544,54.397651738647255,69.31402139416605,90.71950477366045
2025-12-12 18:05:39.025361,Right,6.225203945519752,122.69833599928825,150.3096254779084,98.55880262739083,189.3458527365001,77.56990666716592,98.58120724145556,125.54513905792555
2025-12-12 18:05:39.028315,Right,40.63913677914388,85.20876158378087,112.69181924806617,77.95341342376196,186.76854773593368,65.90384940814693,72.51436767328414,88.32778874595533
2025-12-12 18:05:39.032372,Right,71.10541714105784,42.524606972772744,71.45831275911769,44.828314849452,183.230225026462,35.95961537431867,35.77151796013641,44.9981445598969
2025-12-12 18:05:39.036409,Right,40.48983209300059,75.38423831496038,102.23356858368788,60.268201822429546,180.85353023238713,40.63981311068346,56.526864019208006,75.58801837784995
2025-12-12 18:05:39.040430,Right,9.183540271696984,124.41551821229223,147.17103766505898,96.39047178473265,180.14632248310954,70.75509280632832,98.26797107121092,124.87386156443972
2025-12-12 18:05:39.045421,Right,40.192319353853236,98.59585753173451,120.6971224823501,85.53551889781374,179.2306424068811,70.4397214474302,84.90241529939522,103.0834963847592
2025-12-12 18:05:39.049407,Right,77.60322434757836,42.68375535219093,67.15204963285942,43.99340044504788,176.35469148177071,39.00101330045436,39.72657320337021,50.25702303511207
2025-12-12 18:05:39.053432,Right,48.93601059069624,52.85275840158283,77.7111749870819,41.16550538793672,172.31671027114498,30.924234168734984,40.83820078005374,59.602980055322405
2025-12-12 18:05:39.056436,Right,1.65337887059286,99.42242647295643,122.63831803252106,72.39032709063031,169.43030631783768,55.15182597680541,77.06429567123996,104.72906530434557
2025-12-12 18:05:39.060399,Right,18.100977999063616,87.54412765117013,111.57262261514552,72.39475953864167,168.37708692834713,61.77476497206953,73.0298934479506,93.4109308510524
2025-12-12 18:05:39.064456,Right,65.29309453251335,38.85021598388266,65.81790756440023,41.24076364435314,167.25620095152408,38.72168854958727,33.673925155904726,44.11903911092668
2025-12-12 18:05:39.068481,Right,57.301978114388476,50.44639437161095,77.13467251119437,43.8828954253695,164.17069905405515,34.461603787363856,34.90668078539602,51.708628454071004
2025-12-12 18:05:39.072503,Right,13.215545271727024,107.70778219171916,130.31173318938818,83.86522793804761,159.8209258344432,63.598593856804655,77.65836772488547,106.12947476418049
2025-12-12 18:05:39.077522,Right,17.948444205831038,105.35028538532788,125.65811615847633,90.87404677462473,156.54576153648668,74.86959690369258,81.08961276288028,106.301125645914
2025-12-12 18:05:39.081528,Right,62.16873733942339,42.569221763376845,64.17936210996413,49.892089135275455,155.13292719249148,45.20652119418082,31.694175453405478,47.375826315168524
2025-12-12 18:05:39.084529,Right,61.46859063073498,28.341309532450396,49.79120117521961,31.855989534087712,153.7726065229799,25.181721510976786,11.454511873642332,32.63725212063582
2025-12-12 18:05:39.088549,Right,16.868034666556923,83.40537122249953,100.76504056280828,65.86721914068039,150.55579776249942,48.802592656968045,49.96193807880627,84.93046752407099
2025-12-12 18:05:39.092549,Right,13.770352636798634,104.77742002259765,118.79620830278145,87.86243187358195,146.06050739437342,72.75488814941491,72.70678637865058,106.27653424881282
2025-12-12 18:05:39.096595,Right,60.99267233740102,57.37731204496231,71.99817033507861,59.80530374520458,142.51265101745958,56.80481183840311,40.30937099963194,60.07841525449476
2025-12-12 18:05:39.102590,Right,72.40349232622248,35.45349189855915,50.70109393654275,37.3873161465599,140.74400589583092,35.87640911365452,18.6724852463376,36.32255304318096
2025-12-12 18:05:39.105597,Right,26.592238514480414,81.5011037040822,94.17217692942359,61.904682103864616,139.12452951355954,51.05284095607931,50.57899859486497,79.59393215499585
2025-12-12 18:05:39.108682,Right,6.774134515297192,104.49049438687507,115.2132328604639,81.35935043371865,135.84383412759053,70.86346114706248,72.33419035714178,104.06611852125206
2025-12-12 18:05:39.112679,Right,46.41800174178934,51.436824904958485,64.41329702381336,49.44002261960122,131.34458635933697,51.233492336730706,33.49500727788836,55.346096743945964
2025-12-12 18:05:39.116656,Right,67.9392310592375,9.80273222688993,25.212162618947332,15.536094275361393,127.63207619593595,20.83831320729223,-5.341737232884043,14.808065198085387
2025-12-12 18:05:39.120663,Right,27.973456775893283,47.29516308112943,60.44993118378625,35.21885891142301,125.5281767656561,29.94041436673433,18.066449038218707,49.636534884164575
2025-12-12 18:05:39.124690,Right,-2.211760445185064,87.15774992204388,96.26962923388055,67.30718398567114,123.6454489871976,56.733589158335235,53.36551766935736,88.03319479098718
2025-12-12 18:05:39.130657,Right,29.0715693576567,50.84938309856807,59.42948701951536,49.38500743354962,120.35796060512075,46.25799998639559,30.901409722078824,52.34357348609774
2025-12-12 18:05:39.133665,Right,56.63474178916658,1.8188393274031114,11.794436538693844,11.348345861420967,115.97027045843424,10.68268127234478,-11.12998293392593,1.8429483124637045
2025-12-12 18:05:39.136682,Right,20.8355908581143,24.615016582334647,33.148915493133245,17.405579703350668,112.19078764363076,5.942212664827821,-0.5739760104770539,20.51302209806454
2025-12-12 18:05:39.140687,Right,-19.092476187332068,67.51731678159558,73.11237168175285,46.85529567366757,109.78725684809615,29.47962306700356,34.27761315589305,61.33758666079666
2025-12-12 18:05:39.143697,Right,5.988967607947416,41.94259719448746,47.98819996874954,35.54478818253847,107.65266393552884,28.59454206271039,20.384066480473848,37.33526904360042
2025-12-12 18:05:39.148701,Right,46.8831086009086,-8.841202559124213,-0.03125348764297087,-1.0929200712707825,104.4059812683845,1.6780433441817877,-20.31226160492224,-12.601737217162736
2025-12-12 18:05:39.152721,Right,28.531643071837607,11.256397972101695,19.61747681898123,5.1936253189633135,100.21952323731966,1.8849584390773089,-10.173383942652436,5.294776575508877
2025-12-12 18:05:39.156731,Right,-10.46114093401411,70.02564844184963,74.75355225845124,47.00229422857228,96.45885541042662,35.35230019171286,37.364177103292604,62.79287865982042
2025-12-12 18:05:39.160763,Right,7.323986180766951,62.55108500539791,65.96303884887311,51.06593605308444,93.80392169312108,44.86930913247488,38.09722561997478,57.736162519446225
2025-12-12 18:05:39.164768,Right,50.310360127085005,2.714760882779956,7.992481162204058,10.74181149177457,91.44313409156166,12.464601450759801,-10.450648525024008,0.12277030291443225
2025-12-12 18:05:39.167764,Right,35.56716484045319,-4.21738404975622,1.0633813835447654,-3.40389143936045,88.27640006534057,-8.221705345524242,-25.802347471850226,-8.146147960345843
2025-12-12 18:05:39.171782,Right,-15.007841614591598,44.60379889106116,46.907242450033664,26.517876440942928,84.35644859774038,10.546241494601418,8.887998540471017,39.52057502280513
2025-12-12 18:05:39.176830,Right,-12.876961118039617,49.986745681177126,51.45776507614937,36.863230180017126,80.68767881393433,24.1178067433284,19.724730213943985,47.98877339363389
2025-12-12 18:05:39.180803,Right,33.96109206444817,0.14991173983435147,4.701806725744973,5.070868122231332,77.83920063523692,3.3204414800929953,-15.236403108312516,2.113102212184458
2025-12-12 18:05:39.184757,Right,36.37587499269284,-8.268560445205367,-1.856392333531403,-8.490321422366833,75.29015640448779,-10.650664666893135,-25.596300642399,-6.339557947605499
2025-12-12 18:05:39.190829,Right,-10.586059232187836,44.41525092966185,48.62445010821102,22.994132604253537,72.23519241943723,13.371662769575778,14.737646515321103,44.341350256916485
2025-12-12 18:05:39.193845,Right,-20.059188871055085,60.02361847640714,62.430443766890676,39.31342789087648,68.62498707624036,34.186993156559765,33.54437288449844,60.38704487872019
2025-12-12 18:05:39.196857,Right,23.67732316150432,5.143308183047338,9.631891879122122,5.1625639161648,65.1083175005624,13.274680274895218,-6.625714950620022,6.815543033721042
2025-12-12 18:05:39.199864,Right,36.50895127296462,-24.410169289003534,-17.59669570873666,-22.060948707447096,62.13054303210811,-12.729103640536778,-36.84288479204406,-24.856498501845635
2025-12-12 18:05:39.203881,Right,-6.922623068909161,20.608081306410895,26.404472851208993,3.2309108099798323,59.44085840063053,1.3351525096950354,-6.957564119300514,15.969216171593871
2025-12-12 18:05:39.208825,Right,-25.03862094008946,52.90443006011628,57.5625392224174,31.190577939101786,56.52329992590239,26.59105034647655,23.84386429994629,46.89430794852524
2025-12-12 18:05:39.212882,Right,17.636071818997152,11.442117996040906,18.45166694946238,9.017779602625524,53.247029603953706,14.71214307723858,-1.9501692915218882,6.466740517396829
2025-12-12 18:05:39.216908,Right,43.038664035822876,-25.744999009155435,-16.211956685845507,-21.572466333396733,49.93013373215217,-11.803473457453947,-34.111635830304294,-32.06817069513636
2025-12-12 18:05:39.219860,Right,4.546250233252067,11.177184551001119,19.115017688513035,-3.0195303246582625,46.8904217009258,-1.6853560747331358,-10.213469203830755,1.4334210254310165
2025-12-12 18:05:39.223919,Right,-26.45673937365791,51.81423262800672,56.98086329452053,29.92512944758346,44.11446900840383,28.667353008378996,26.209631920493848,42.160272849112516
2025-12-12 18:05:39.227948,Right,5.916925475186872,16.42700057644106,22.581524100649403,14.733864941605134,41.35482930802391,24.458537250378868,6.327265369651286,11.125805846262665
2025-12-12 18:05:39.231948,Right,37.530016413766134,-35.34527330406854,-26.670342323144723,-22.95659906104993,38.42095208601677,-6.921377055172343,-35.841108037668164,-37.87084548042185
2025-12-12 18:05:39.236902,Right,3.718567676096427,-16.043583012666204,-8.614349220893928,-18.39635543264012,35.33974182003294,-11.189962859774823,-27.46344811544259,-19.685680154194415
2025-12-12 18:05:39.240967,Right,-39.898939697854075,27.392491087433882,31.36343702970771,11.737143066886347,32.30543655762449,11.795409355094307,8.093240042908292,23.61163197651331
2025-12-12 18:05:39.244991,Right,-20.610364016654785,3.4841503667630604,7.616120633036189,2.647399392721127,29.50131121405866,10.219466819253284,-2.647312369179417,3.38492089920328
2025-12-12 18:05:39.247993,Right,16.96569886862744,-51.03608366601111,-43.353377239822294,-34.98067174306925,26.91592103795847,-20.019268207201094,-43.899764854657406,-47.672221133958374
2025-12-12 18:05:39.252028,Right,-4.184809656308062,-39.201237669847615,-30.073364401207073,-33.36388786783209,24.320570420502918,-26.07907727512793,-39.63948053457716,-35.48809794989211
2025-12-12 18:05:39.256006,Right,-49.15087889865026,13.810276885342319,21.559068204674986,4.9780052242131205,21.50026424624957,2.3426031187191256,2.2035691773853614,18.075445916379977
2025-12-12 18:05:39.260030,Right,-37.24640259077569,5.774307817482622,13.948419715816271,9.573035526038439,18.53587934319512,11.487958165285818,1.2247041601331148,12.862696769472677
2025-12-12 18:05:39.265025,Right,6.8504676461925555,-51.75679770408169,-40.8457594286665,-27.44081739363901,15.762449098401703,-17.142954487295356,-46.12897772933138,-44.02690821773285
2025-12-12 18:05:39.269064,Right,0.27130033611683757,-53.60493907140699,-42.541185556707205,-35.82780450309656,13.364240308001172,-31.213138037201134,-57.72693066643842,-50.589993936911924
2025-12-12 18:05:39.273067,Right,-42.40095814929555,3.1859667876815365,10.930883702560095,2.269521287387761,11.09451081858424,-4.046462611739116,-16.678198507137495,1.0471699696208816
2025-12-12 18:05:39.276064,Right,-37.246250227508426,13.234504555210151,19.479660197241174,18.73283659837398,8.550895304331789,15.68612481393211,-1.8041508194601192,11.007303142148885
2025-12-12 18:05:39.280093,Right,10.323472551703162,-41.338908131165226,-32.903871545648144,-14.245296314074949,5.715719083207659,-5.9564594521943945,-40.98504120967482,-41.46749614142027
2025-12-12 18:05:39.284095,Right,14.156789778150596,-58.80238096050016,-49.6764546655686,-33.79233716651652,3.0299141260038596,-26.516182821796974,-61.31424277993028,-60.476858847468975
2025-12-12 18:05:39.288101,Right,-31.949418186354706,-8.490261743445444,-3.0336025849246653,-4.824040491679625,0.8290334074408747,-8.155742783270398,-27.346522939189526,-14.29796555599387
2025-12-12 18:05:39.292065,Right,-41.47477923068618,13.288297000824969,15.450625251167367,15.832453703973442,-1.1340152172924718,12.179427037957794,-6.516095614284495,5.960360271135869
2025-12-12 18:05:39.297136,Right,4.779053793273306,-34.49217368088284,-31.54694278126408,-11.226504572754493,-3.3932277400017483,-5.383084134089586,-40.074373691732035,-40.57368457874691
2025-12-12 18:05:39.301141,Right,23.490308923925568,-60.24657275953723,-56.39503484104716,-32.553564846301015,-6.047032644972205,-26.778456672363973,-63.860034029200506,-66.10781552518893
2025-12-12 18:05:39.304147,Right,-15.909023846821583,-12.192937943964353,-11.317829542178515,-2.587788552227721,-8.592568372027017,-7.589758759117103,-28.55936463735725,-18.405078926891292
2025-12-12 18:05:39.308166,Right,-35.29809618937588,23.3799847772425,21.011019808800484,29.017422104992875,-10.588314073567744,22.08664028055864,5.973531718309459,20.029732974573562
2025-12-12 18:05:39.312187,Right,4.7158959486423555,-17.228398690898757,-18.486290753542562,8.37061368468494,-12.267047790373908,11.401115005941392,-19.66485686263877,-15.648986216401681
2025-12-12 18:05:39.316181,Right,30.382018237444868,-55.99132378539434,-54.79608467705657,-22.76117335552044,-14.24084859713912,-17.894550476812583,-54.38831601115044,-52.64223863988809
2025-12-12 18:05:39.320196,Right,-7.528956143689072,-19.233997480081598,-19.464410156797385,-5.431292111021321,-16.66961762146093,-12.553470506205485,-32.18950934212444,-17.43311513360095
2025-12-12 18:05:39.324218,Right,-41.93415568023249,23.630301690500346,19.998260963793655,25.729575829722307,-19.028432269697078,12.92934325000897,4.319186520595849,25.72889934638806
2025-12-12 18:05:39.329214,Right,-14.837182619005944,-10.914918638274685,-14.874151972568143,7.044020542358339,-20.813284647170804,4.2642233173282875,-16.479266660610847,-5.659727011088762
2025-12-12 18:05:39.333254,Right,15.504576475043905,-63.533234531072594,-66.03288691116722,-34.115124704880145,-22.23134986232617,-29.860298573770706,-60.4796186218299,-57.22048926930802
2025-12-12 18:05:39.336269,Right,-14.015842308768697,-40.788158217032105,-44.93719279706329,-28.374563836699963,-23.92411766918667,-32.66601300405455,-49.997776471904444,-37.43193014631288
2025-12-12 18:05:39.340265,Right,-51.203648992820945,12.04390058883655,4.119695554000373,7.818617128254118,-26.093528759578476,-4.261066959272284,-7.598986929867351,12.744961675334707
2025-12-12 18:05:39.344292,Right,-25.94103015312703,-4.315359126385374,-13.040560184668948,3.320391994106103,-28.226781041172217,-0.9526442304886586,-13.681727686697286,-3.5764733692685695
2025-12-12 18:05:39.348284,Right,16.838407356263815,-59.10118816582872,-66.14419555708842,-35.65654558994174,-29.796870735561242,-30.347522907235543,-56.78470479260932,-59.10115636004775
2025-12-12 18:05:39.352245,Right,-1.0907895449536227,-50.114302210962705,-58.33128980892866,-37.73716810776932,-30.97754100705788,-37.49820825162169,-55.109720603088135,-53.571300059729765
2025-12-12 18:05:39.357306,Right,-45.51705901684545,6.206086235890325,-6.165291213138062,1.1034246259678184,-32.39783115246246,-7.310222125162909,-8.442575160472188,0.6798800276737893
2025-12-12 18:05:39.361323,Right,-32.4249397979047,7.534057359364851,-6.364365775861188,11.320012978349041,-34.28324986032385,7.548878554925977,2.5059047736531284,4.509695696201561
2025-12-12 18:05:39.364327,Right,16.226175255871567,-42.43947158180799,-54.12453709325655,-20.372738225480134,-36.1606291734206,-15.4810689021906,-33.549555600066014,-42.083833993196095
2025-12-12 18:05:39.368333,Right,13.482830684004512,-42.536066930842935,-53.63013372475507,-27.958074725995175,-37.51391890178638,-27.6500781563318,-39.460386932013535,-42.50947602914084
2025-12-12 18:05:39.372344,Right,-31.3452301447669,13.891130293662172,-0.13812804196277284,8.107896685644846,-38.47892691066954,-1.0403913333884702,3.897757530119634,11.690266859547137
2025-12-12 18:05:39.376334,Right,-31.631921297221197,23.94716632159998,8.357147888471445,22.44848172924867,-39.6384005906948,17.764250942469516,20.354830758706157,21.413649488453984
2025-12-12 18:05:39.380387,Right,14.400244534108424,-32.79071846687975,-46.27565427899208,-13.11505231033334,-41.22477668562351,-6.202508045242212,-19.283876894023706,-35.348655516407916
2025-12-12 18:05:39.385395,Right,21.831957802714896,-53.843301677180534,-66.44708775109757,-35.10842423213762,-42.82494271174801,-30.285941365185863,-41.49941964763639,-59.49781105329737
2025-12-12 18:05:39.388395,Right,-20.84807203035234,-3.1567305679404853,-19.341247965596267,-5.622614679741673,-43.96124200135455,-12.699786923361899,-6.794061768971005,-12.75082508354808
2025-12-12 18:05:39.392406,Right,-30.43189765079478,21.974669039094124,2.0430874009580293,16.77620710225665,-44.73006217306465,10.245576798626644,16.00000332687887,12.14374128826148
2025-12-12 18:05:39.396418,Right,14.428378337057438,-27.21744725942699,-47.058835670832195,-13.533699334194807,-45.64257543017811,-7.035447433143418,-21.439781289234816,-35.11102700507308
2025-12-12 18:05:39.400424,Right,32.662768870271975,-59.147626235069936,-78.24934348941679,-42.954692919310446,-46.92395773769567,-33.094437742856826,-54.5970150722369,-68.08955042782418
2025-12-12 18:05:39.404426,Right,-7.770731288432216,-12.358843786904345,-33.89479857865081,-17.612148267279963,-48.23454047677842,-17.589353844876314,-24.07778585770575,-24.524870947599084
2025-12-12 18:05:39.408398,Right,-30.132599230275446,29.64991589399085,5.432320177369547,16.371185714016917,-49.15556084371383,14.652240179772889,15.02234338902963,17.96759264137836
2025-12-12 18:05:39.413459,Right,6.519416591620029,-7.065969074350278,-30.1346468334159,-2.247446360577669,-49.74508728828005,9.03161994392758,-4.662148494615394,-13.80864216801183
2025-12-12 18:05:39.416474,Right,28.761142970350193,-52.26223533178563,-73.01065589832069,-38.74090813176872,-50.4259462636237,-19.53791157935666,-40.71707848221013,-55.1992171120437
2025-12-12 18:05:39.419431,Right,-14.74342252851784,-25.316417154376722,-47.23174665223269,-29.99370464660842,-51.404692031845116,-17.252731167764978,-24.36644737554161,-28.137085933096387
2025-12-12 18:05:39.424487,Right,-54.821107817180746,16.520465764147957,-8.154801735501678,-0.6722752713071714,-52.421910411466115,8.672978463663185,11.09210949167391,13.363831244572793
2025-12-12 18:05:39.428548,Right,-26.078592896968985,-8.758882438939963,-33.024647725585965,-11.733006935261983,-53.13133206776456,7.469210065254629,-3.1150762760898942,-11.395299535408412
2025-12-12 18:05:39.432524,Right,15.269910170020012,-50.44822426944211,-72.58529097346764,-42.487079591151996,-53.555882931222186,-16.861208741535393,-38.68331793591278,-55.0570463909371
2025-12-12 18:05:39.436587,Right,-3.14503207614689,-21.358969315102513,-44.640260953419784,-30.007017562576948,-54.02126092067556,-13.228849475195148,-22.99727207919568,-30.84592013397196
2025-12-12 18:05:39.440488,Right,-39.09689754398278,33.440636398723655,6.822704827689449,8.66391916547127,-54.70701988939982,17.425331274648556,21.597976229764754,21.637498816680818
2025-12-12 18:05:39.443568,Right,-21.309699136429117,15.14414954262611,-11.469792450683599,3.458900843322226,-55.43498831488432,19.482613436403454,14.957163257829961,6.246953003827002
2025-12-12 18:05:39.447596,Right,13.033686068800307,-45.77430518340407,-69.32738204394991,-39.458784694773385,-55.93851339218236,-15.265921557085505,-33.458734445939626,-51.74531181972634
2025-12-12 18:05:39.451582,Right,-11.208677224680287,-43.01115899846263,-66.46523878948938,-46.62219074316454,-56.21008577905377,-29.68366195114595,-40.6446515039388,-50.79200017633957
2025-12-12 18:05:39.456575,Right,-61.51448268188324,12.234006308523021,-15.282249882235192,-10.341339787531979,-56.47658910293467,-3.086904041665548,-1.321874585984915,0.9585993990694988
2025-12-12 18:05:39.460671,Right,-53.115354824964015,14.91085516797284,-15.35974996243749,-0.8111451389886497,-56.88514134331126,13.341840583163957,5.226213242116501,3.2388781345616735
2025-12-12 18:05:39.464684,Right,-4.6808847106476605,-38.44390546828981,-67.95263355792122,-35.372369969585634,-57.33493921081026,-8.008595496098224,-35.71151949619889,-48.919267177407164
2025-12-12 18:05:39.467666,Right,-4.029844722568669,-46.469841218317015,-76.02245242195204,-48.41902195012153,-57.64031151866948,-22.870842097287095,-48.23818398689764,-57.96611748710711
2025-12-12 18:05:39.471672,Right,-46.663711193985364,4.820034983877122,-27.546776731411228,-16.25777504751204,-57.7690100761065,-1.760162955423766,-9.994563481010118,-8.53202424419942
2025-12-12 18:05:39.475656,Right,-46.36395115114283,16.812320684064616,-16.83129478288174,-0.8368197913241602,-57.853373720459786,14.23852538303072,6.1024909955085604,4.231080738816672
2025-12-12 18:05:39.479629,Right,2.4890171084480244,-34.37866903161739,-65.46687076473609,-31.449559698365192,-58.00539513502008,-7.171335864842149,-29.875626877095783,-45.02109902495067
2025-12-12 18:05:39.484662,Right,13.400297857639089,-52.21075242940424,-81.21651332944748,-48.889152550442304,-58.19397502909851,-26.828385944894762,-48.099096177942556,-63.13725394198627
2025-12-12 18:05:39.488673,Right,-31.45722772782392,-1.7646382446855569,-32.10476272251981,-17.43084375249964,-58.310952000523685,-7.369552936354012,-10.809942791147478,-13.435255488864641
2025-12-12 18:05:39.492626,Right,-48.39096664302633,22.71527072484787,-8.419471653658547,6.104548637835251,-58.30551805223513,14.851185952355081,14.803691271674325,13.750914648691833
2025-12-12 18:05:39.496706,Right,-7.905961356089392,-26.26349019337249,-54.37387825985934,-22.31926533695878,-58.224408356443746,-4.025027857430359,-18.824304216966993,-31.156763973489433
2025-12-12 18:05:39.500653,Right,12.358244213090074,-58.07688380076797,-83.3782145893274,-50.04064022180319,-58.144229462479416,-32.662066163473355,-49.28528617205666,-63.37685433441948
2025-12-12 18:05:39.503714,Right,-25.45228577472153,-10.70707153406147,-37.73983164099627,-24.00964064713662,-58.09323629298888,-20.804883062101,-18.815086664882983,-20.902990249527647
2025-12-12 18:05:39.507730,Right,-49.2591734829366,33.158322296825645,3.2177539691037964,10.256219940793017,-58.03350454809697,8.238049450023027,18.062579376979556,19.57184272217637
2025-12-12 18:05:39.512774,Right,-14.353666420498485,-2.729324968702713,-31.587910150810785,-8.582071849614294,-57.90188024177769,0.42437109841375786,-5.455230668463628,-15.736091912975098
2025-12-12 18:05:39.516746,Right,10.880761963529949,-49.920703998161116,-75.84718170012638,-46.18145011780689,-57.67178036545374,-30.05384856803903,-46.20474491527784,-62.18886710904917
2025-12-12 18:05:39.520767,Right,-26.960321586630016,-24.657232355883025,-50.92743488179258,-37.56566082248537,-57.38619360716257,-28.47223341498102,-32.31032844779111,-38.15184086757654
2025-12-12 18:05:39.523784,Right,-64.10138281296167,18.19613996422777,-10.270893585213344,-6.04765470807979,-57.12076019556116,-1.1089276083203004,4.766101139175589,4.640629896264727
2025-12-12 18:05:39.527781,Right,-36.099102692111046,-7.324563033384038,-34.94011471718113,-15.402325229679263,-56.89779167989036,-1.165991130616021,-7.253788128175074,-18.425860100611317
2025-12-12 18:05:39.531734,Right,3.049425234352384,-53.87106858080551,-78.8132494188103,-47.76528070159111,-56.64766383769165,-27.285039454372964,-43.77985609438838,-63.83778903305938
2025-12-12 18:05:39.535816,Right,-18.79404958224768,-30.1085558519826,-55.60782741762523,-38.243687009740825,-56.28481803675095,-27.01507551598479,-30.421937682975113,-41.92366444989966
2025-12-12 18:05:39.539840,Right,-58.69298871119827,24.5996788821285,-3.6955526896199444,-0.2630821620914503,-55.82197733000794,1.9849073905661498,14.29915065334717,12.266708115883375
2025-12-12 18:05:39.544803,Right,-40.17878292565001,10.204629057079728,-17.49858828206925,-3.95531063458111,-55.369552854579524,5.041937670606785,10.404130363705917,1.2730998150618689
2025-12-12 18:05:39.549858,Right,3.669998470948485,-48.15116332094112,-71.96916568815504,-45.90078078388251,-54.99840346870042,-27.672951754706446,-35.018191031627794,-54.050435006880434
2025-12-12 18:05:39.552800,Right,-6.57525235490175,-44.430150730468085,-67.11032587169029,-52.3926065922642,-54.63768362879637,-40.00210371873982,-38.718557720418175,-51.80595898170941
2025-12-12 18:05:39.556858,Right,-46.857944982431945,14.24332682860404,-11.54558898810501,-12.436240893908689,-54.15807813757419,-10.917044222847835,6.579327780200401,3.694789411914826
2025-12-12 18:05:39.560905,Right,-35.10518701468027,21.96118084781847,-5.779184693870775,3.469735455670161,-53.54652246856858,7.120269658636971,19.368506204798905,11.07028656489274
2025-12-12 18:05:39.563833,Right,13.429351615835913,-30.40332197044154,-56.411153386943624,-26.96534768553829,-52.935779611827456,-16.15539512093528,-20.13191289958195,-40.0765758413545
2025-12-12 18:05:39.567915,Right,12.677517081272526,-41.37288804040145,-66.26901273334079,-39.765850024567044,-52.432836418403895,-35.298067088457174,-35.23685808546725,-51.65930299020329
2025-12-12 18:05:39.571909,Right,-34.694233529848134,9.4460463986361,-17.25314697490103,-7.270407867679751,-51.97004594538157,-15.638081337016047,2.6366078796090733,-1.4465116057399428
2025-12-12 18:05:39.575926,Right,-42.488851815800444,23.52336528262458,-3.4686052265387843,9.377096184460243,-51.38940712744807,2.757621151075,20.928016923986434,15.73602102735822
2025-12-12 18:05:39.579924,Right,-0.6772511320705235,-29.522552286227437,-52.641931611484324,-23.15535857560826,-50.6572285309303,-17.03611482678025,-16.13711387479998,-32.69927211221875
2025-12-12 18:05:39.583893,Right,8.614184674566786,-51.74725114852299,-71.48353482960374,-44.627723695215536,-49.91708397017646,-37.20299373965827,-37.988408500012156,-53.75675051927101
2025-12-12 18:05:39.588991,Right,-33.0678296207152,0.4648056547557644,-20.111598291958217,-12.95791413092229,-49.29977030001464,-16.872214371804148,0.42332228907980607,-2.8645062615505594
2025-12-12 18:05:39.591957,Right,-45.46818148251987,33.04099688496353,11.276778558771184,15.435514267730468,-48.74431157839717,8.328412025468424,32.15637521139797,30.483340822182072
2025-12-12 18:05:39.595973,Right,-1.0384968300131732,-11.46475220141292,-30.70895505261433,-10.796037310003157,-48.078105586144375,-8.987195122022968,1.3093719243806845,-11.874553855443082
2025-12-12 18:05:39.599991,Right,20.88431245019092,-47.602315133093725,-63.97664645385521,-43.13719262391169,-47.25227127353719,-39.32546422843734,-33.832909963133716,-49.093786967543565
2025-12-12 18:05:39.604011,Right,-19.33911829583667,-6.815771444817074,-24.319981579385058,-23.128882749293552,-46.411043026382686,-29.586034946078144,-9.423742373481218,-12.106907909415895
2025-12-12 18:05:39.608007,Right,-46.74806054687724,35.58069072073704,15.970319243198901,10.954038935891731,-45.69749304871948,0.27068377310206415,26.795906347855635,28.96211667325406
2025-12-12 18:05:39.612031,Right,-9.870824220339273,1.6130739927448303,-16.057932654301112,-2.758709873727639,-45.05979897605721,-4.71219418788678,6.3629449830878,-3.189345726124884
2025-12-12 18:05:39.617049,Right,24.438620330762205,-44.35726474859439,-58.20650943677174,-34.75861994160368,-44.323221103535616,-33.13302545298211,-32.26226837457216,-48.970245015545515
2025-12-12 18:05:39.620064,Right,-3.9206735694460804,-16.437477763887728,-29.882919214418507,-21.058759384275618,-43.42905031747068,-29.854811476827308,-16.844589683296363,-23.68175605428405
2025-12-12 18:05:39.624071,Right,-36.761567929796,32.91581905540443,17.67753550508496,15.905583853102144,-42.513764995121164,1.0427688369054522,22.831273490457534,24.722309412227332
2025-12-12 18:05:39.628031,Right,-7.359942481865801,12.292392136641865,-1.8070185392352869,9.11730606508172,-41.72248057383695,4.811404614552885,10.887503253437899,6.341964558763721
2025-12-12 18:05:39.632085,Right,34.24161524142073,-37.33605060427908,-48.09858633491967,-27.178130989059355,-41.014044330251636,-21.158062867172703,-32.007400959071674,-42.45163451656845
2025-12-12 18:05:39.636110,Right,14.295749958257147,-20.57475276803416,-31.05060189372307,-24.182047143278396,-40.22199023721623,-23.361151666224032,-26.9649304335544,-28.566442537063267
2025-12-12 18:05:39.640124,Right,-28.09990981496958,31.76087117254974,18.721853067392658,11.781316988945036,-39.28277883899864,5.74210732064239,15.105888904032327,21.626992394256376
2025-12-12 18:05:39.645164,Right,-15.745307632276308,19.29357067813544,6.4012957257946255,10.667405711868923,-38.318632516340585,12.510685982051655,13.801351602134673,11.339433152334095
2025-12-12 18:05:39.648154,Right,22.347007332375142,-38.58737699380981,-47.91603345324256,-28.77429670620586,-37.46813551217201,-16.36150481887671,-29.250808215758298,-43.1288545043426
2025-12-12 18:05:39.651208,Right,7.542530359083685,-36.26477049313689,-44.03527140260849,-34.22523722101323,-36.701430564775364,-26.877415657068923,-32.207628075811954,-39.696048998550395
2025-12-12 18:05:39.656164,Right,-38.10265995411464,21.972249171769363,12.317586568657134,6.330842111863603,-35.868445336978766,2.2401231621115585,13.890707710907009,19.696294120742095
2025-12-12 18:05:39.661179,Right,-30.310702201770255,29.30024001088168,19.336383491783636,21.441684008095763,-34.90522531482566,19.07055773492175,26.89494802982881,30.883715254403796
2025-12-12 18:05:39.664184,Right,21.046137414841724,-25.837095415907243,-32.80069952445774,-12.64532162669093,-33.915193814536906,-6.075054356853798,-15.07965563277321,-21.27558419826164
2025-12-12 18:05:39.668139,Right,29.22253247257322,-39.984143838113596,-45.59397626580176,-30.081933272071183,-33.023686523716606,-26.42982935467444,-34.349863579976954,-37.362789507682464
2025-12-12 18:05:39.672206,Right,-10.361007513214645,11.635403464597402,3.4855134247336537,0.7565916497187573,-32.21199285706825,-6.027815618490422,1.3674371663000784,10.641719347539038
2025-12-12 18:05:39.676235,Right,-15.386690250170432,30.030544437808203,20.395748245326104,19.384175402597975,-31.3521972423041,14.477790082652064,20.477418142887473,29.225312341161043
2025-12-12 18:05:39.679232,Right,26.22689490290759,-21.168247194002106,-28.041061290387006,-11.85828532488631,-30.383614263650088,-4.743304467621783,-16.63614687700101,-19.271770004557766
2025-12-12 18:05:39.684257,Right,32.64862832236577,-47.05245486410422,-51.30228562195407,-36.074377077373356,-29.38820234320883,-27.59800673232894,-42.4084879735874,-44.90850887817214
2025-12-12 18:05:39.689243,Right,-17.143032585789115,0.8869951116375887,-4.644979767093901,-7.962984368477919,-28.473247624548094,-9.81958515898441,-8.478321869601132,1.4924571369301702
2025-12-12 18:05:39.692270,Right,-40.43961129163836,33.129861348536,26.40385054553917,20.824564045269653,-27.63040423970233,17.297615098505048,22.677589766279198,35.153559886170115
2025-12-12 18:05:39.696273,Right,-1.4769301891556097,-11.17736975293883,-14.53504266282107,-2.3737432224424992,-26.75740022188984,4.119759910434368,-6.89897168623429,-5.461680367519875
2025-12-12 18:05:39.700284,Right,24.26977170884038,-50.59604235131883,-49.526870948098804,-33.192167880743,-25.799689953331836,-25.72547814508289,-43.183900759129756,-44.62982760383966
2025-12-12 18:05:39.704296,Right,-8.674848809284413,-13.337050309339247,-12.281207614658342,-13.54895277014657,-24.81680424411752,-19.906806481485546,-21.21742546355199,-11.555748652222974
2025-12-12 18:05:39.707293,Right,-32.74683853982606,29.880002399551813,28.531505052003922,20.189043568152556,-23.895035240901052,6.047641907662182,14.958428230600475,28.223191207045602
2025-12-12 18:05:39.711334,Right,3.353074133047812,-0.2661770666800294,-0.9684834754334588,6.374281308570062,-23.035141129679687,0.3022995666869974,-2.822190866267192,-1.9179593458175077
2025-12-12 18:05:39.716314,Right,36.42841467906783,-42.95981095066418,-40.96084796899231,-25.841683215179728,-22.161901186816976,-26.11288759125091,-37.81668430942955,-43.85709926072013
2025-12-12 18:05:39.720274,Right,6.220289548684377,-12.117167537515343,-10.268040828028461,-11.085687164873889,-21.22894419133081,-19.314867641674937,-17.517323744063106,-12.937179956174077
2025-12-12 18:05:39.724348,Right,-31.903612497517315,40.290617358652526,39.900732118105225,28.749150913543417,-20.2738717163229,14.754318847782997,28.18219100441638,41.293262316272376
2025-12-12 18:05:39.728357,Right,-10.031421827213308,19.194813031068406,19.307067257894232,23.478360052880817,-19.36073908554681,17.896402855301858,19.378906904223186,23.76823624491226
2025-12-12 18:05:39.733384,Right,26.971438561095965,-35.83229148843566,-33.13575142958507,-14.905218991777474,-18.4978253479494,-13.973862201597512,-25.987755194388228,-30.373013014908793
2025-12-12 18:05:39.736375,Right,7.708875064483891,-22.562667876110936,-20.42472404133514,-13.588561263738484,-17.636571252347494,-23.244685241359548,-24.340657391128843,-20.152217122446018
2025-12-12 18:05:39.739380,Right,-30.734559750063,34.70240660487616,33.334507529390976,26.46156557786344,-16.740006627500406,3.3258080390442046,19.75244368976928,35.19555216025765
2025-12-12 18:05:39.744344,Right,-12.161897958920235,31.483086145581183,29.41269816919521,33.49293805370871,-15.82547919912031,12.363788591228513,24.411463522910708,34.32994759239591
2025-12-12 18:05:39.748405,Right,34.67305935747572,-22.014541296550306,-21.0528682746517,-0.7683979989751606,-14.935041582102713,-14.519304061290313,-15.721425673804333,-16.584252419928816
2025-12-12 18:05:39.752429,Right,27.432478794650024,-21.791675403619593,-19.610046992256684,-7.178853263771998,-14.082736368858605,-26.56028751908525,-21.017377816820954,-17.620233653011383
2025-12-12 18:05:39.755401,Right,-17.323894396377682,34.04708915319861,33.73264670293793,29.780713334356733,-13.244814244375448,-0.141347455457435,22.298224836180452,35.827838331400926
2025-12-12 18:05:39.759470,Right,-14.738766635312004,41.619516215294425,40.00391927604869,42.23624431472945,-12.394193524283764,15.554102437894471,35.505186334779864,43.96314907062879
2025-12-12 18:05:39.763477,Right,31.086683332029338,-14.280664363481264,-13.52759433616302,5.756187545908688,-11.530518102714268,-10.5590147459734,-5.6542765002250235,-10.307298205265397
2025-12-12 18:05:39.767457,Right,35.68548137167428,-31.914123743885284,-29.295868322729802,-14.773347961249783,-10.675279346200114,-33.36787729171192,-25.659074565099218,-29.012809108977308
2025-12-12 18:05:39.772467,Right,-8.0782359907804,17.37689278515427,18.865986712797167,14.267301625135588,-9.846485167799983,-14.825941387945932,9.861908277891416,18.13931534810945
2025-12-12 18:05:39.776509,Right,-17.217344796353927,37.138573083722804,38.49024142955204,34.03817421318672,-9.042243768053595,6.774017579675274,30.81250734753212,38.23386485016454
2025-12-12 18:05:39.780527,Right,26.011912489814904,-11.927858706543702,-7.1155524873593095,4.847203937620179,-8.245208714310138,-10.34448638937829,-5.264684234001834,-9.975969662997159
2025-12-12 18:05:39.783511,Right,41.133545964618634,-37.72605110070435,-30.14871891353141,-19.272848464378967,-7.4404446694024955,-33.89254607626572,-33.210515640347694,-38.55148315259066
2025-12-12 18:05:39.787516,Right,0.6998104195861288,10.857811453197428,16.897877385923493,8.123773345292648,-6.6312391658866545,-19.193891512775735,-1.3023152766481871,5.518435919995682
2025-12-12 18:05:39.791527,Right,-17.79253934854887,47.56752096784476,51.70104873054697,38.67980409426991,-5.837839128653286,6.581251326319034,32.89530608250607,41.58844152770325
2025-12-12 18:05:39.795486,Right,22.66296420485787,8.397598130271945,14.988988864250132,18.824705833117605,-5.076518020330695,-4.70285815866373,9.957944228431188,5.719249797717566
2025-12-12 18:05:39.799548,Right,48.45632584240093,-30.35490964300152,-19.695501004594917,-11.110488181712753,-4.338988506067835,-31.275631824359152,-21.771981282397064,-30.941068909161913
2025-12-12 18:05:39.804565,Right,12.247651943095207,3.8586892000603257,15.09233660505015,6.297875928316898,-3.599154421593994,-21.68590886504535,0.8355017767580648,2.9205392784642754
2025-12-12 18:05:39.808597,Right,-19.64483156942606,42.332650171874775,52.15702232734657,35.86675999838417,-2.8450799788261065,7.486123642360326,34.572350068513515,42.60170664805628
2025-12-12 18:05:39.811659,Right,7.769668998895668,2.911719665133205,13.884194997889608,14.130923629796598,-2.0976859945367323,0.4652229423154495,9.730676533020414,6.7764408734037715
2025-12-12 18:05:39.815633,Right,35.92356125960487,-53.65079664191035,-40.394591353348915,-30.02986924990364,-1.3873196208514855,-33.53760550508014,-36.50619504595397,-48.252080280157315
2025-12-12 18:05:39.819588,Right,4.807949491592808,-32.03182644823755,-20.04144591646309,-24.528003784603243,-0.7136806338166934,-35.06752335780038,-24.390833239977837,-28.80802643244715
2025-12-12 18:05:39.823649,Right,-31.315440726753877,23.9628489191291,32.460617744235606,15.692489044593458,-0.042975575757736806,-2.310731329202099,22.87270815226657,25.374171831237618
2025-12-12 18:05:39.827666,Right,-3.263887107609662,14.076938517257076,22.19228599931921,17.542097493136225,0.6486284739112307,6.807642270865472,21.78850512844383,16.00696960802088
2025-12-12 18:05:39.832642,Right,42.86541430750458,-34.37105192301351,-24.035985985477964,-16.79659420628127,1.3408762180806661,-19.041484943476462,-19.548698110916575,-33.43803809747624
2025-12-12 18:05:39.836674,Right,28.99743313858562,-22.525856503070827,-12.697349134362412,-18.488638271272293,1.993533652919723,-26.71530998160415,-20.26431635691324,-25.894440086862232
2025-12-12 18:05:39.839615,Right,-11.603740881021622,31.974156730702816,38.76198651676259,16.86697422974089,2.6002540161098295,-0.024074046092209755,21.629491012260587,26.009473273991716
2025-12-12 18:05:39.843695,Right,2.740530182907605,28.488142234957195,35.56833914102617,22.477989939396366,3.19922721356852,10.67113506311398,28.066385579356393,25.34828678800386
2025-12-12 18:05:39.847675,Right,50.52606191891209,-24.814378643610326,-13.274928978062917,-10.397171488867343,3.822760345061397,-13.911415558995941,-9.314287245741525,-23.886260083837442
2025-12-12 18:05:39.851703,Right,48.17605407240444,-23.208059404722007,-9.135703642689919,-13.141420728322146,4.4523371197828965,-22.9265562738874,-12.21262521358176,-22.230993547266735
2025-12-12 18:05:39.855718,Right,5.319519217622656,38.204901646169674,50.30638829213353,30.150334316697354,5.041862251589919,8.842019664736654,35.03357508225736,36.7721635372518
2025-12-12 18:05:39.859743,Right,4.598035569022613,52.237370314756845,62.703915522289094,48.116510860760286,5.579829221969703,30.62677349814112,52.17609122692113,50.20616663074543
2025-12-12 18:05:39.864742,Right,45.52299308279453,-3.466086224130777,8.748686609335323,11.008877087067276,6.105848329258151,7.067121751273589,10.711123701215229,-4.578787029416162
2025-12-12 18:05:39.867742,Right,45.660343680822734,-26.992635819979114,-13.536516642102242,-15.79458183877341,6.657392333883763,-18.041523978283294,-13.492796287745477,-28.147827611584034
2025-12-12 18:05:39.871754,Right,-2.6419161379944853,17.990106142917284,29.22383071602235,7.960102879328929,7.218473799082858,-2.755268030883599,19.32885458608382,17.157561054990765
2025-12-12 18:05:39.875757,Right,-14.332218613521036,38.05724718287456,47.273004623721135,27.231723580689277,7.740797854094126,18.362768470364244,41.17808535244566,40.46270138231557
2025-12-12 18:05:39.879766,Right,31.369808309445943,-11.388442976787701,-0.6623003429822347,-1.0668330119372058,8.20922385278027,2.3074783888514503,5.292258672465863,-5.165159450514693
2025-12-12 18:05:39.883785,Right,51.10307637230562,-41.10015828751784,-28.55741824528741,-26.43586007116744,8.662246230360324,-20.948048580841714,-25.868293413079357,-34.62819617069454
2025-12-12 18:05:39.887802,Right,9.948080014280094,4.135900619394306,15.357264724518245,-1.0584397236098653,9.139477358341537,-6.086186877753789,2.6045357154492876,8.76946321882815
2025-12-12 18:05:39.892818,Right,-16.423153244975765,39.719827743096175,49.73217318559091,27.892257530803562,9.627966834981635,19.97010362331821,35.05299641910665,45.067839427247236
2025-12-12 18:05:39.895770,Right,16.06424983947909,-2.6477439307291206,10.388007306944019,4.811180888840738,10.080371564126835,6.8145933699161105,8.909831560511861,5.359188039662058
2025-12-12 18:05:39.898831,Right,39.5175465607299,-47.16755395975997,-29.991867893898416,-29.507751951069523,10.47938842540134,-24.066595274607607,-28.2198030271677,-39.29276627788204
2025-12-12 18:05:39.903836,Right,3.8816483499767855,-13.706821528507135,3.2806522803957705,-11.859183289371487,10.86036904291359,-16.83352445305718,-7.292094454612879,-9.039524163459191
2025-12-12 18:05:39.908860,Right,-28.048250029485644,34.15550338900175,48.187544917251216,26.52749013357091,11.262444629504898,15.863343265908043,32.92979123255964,37.2744126450948
2025-12-12 18:05:39.912798,Right,1.3588942370097357,8.055510198053526,21.5970844511603,17.464131539511115,11.67594650340834,15.625363703362382,17.839244822936507,12.715281087657786
2025-12-12 18:05:39.915873,Right,35.43386051591915,-41.81344677931702,-27.12733058064805,-19.34354814827239,12.05703263945361,-15.132056166612529,-24.49511817768507,-36.6764039362929
2025-12-12 18:05:39.919935,Right,8.620958946744395,-22.925450717276362,-10.326180286542694,-15.516456353051495,12.387581489932927,-19.838692373245067,-16.791231372354332,-20.247025595322157
2025-12-12 18:05:39.923829,Right,-29.994821726891132,26.553577152964863,34.70783912886145,18.605066055159256,12.69831216799048,7.361730622846153,23.719789233289703,27.731542570475312
2025-12-12 18:05:39.926854,Right,-6.834452798559141,12.05629410392612,18.94144323395085,16.735524704302463,13.025737695294083,14.684029558644397,20.097393007974915,14.937110127157439
2025-12-12 18:05:39.931936,Right,39.29748951532838,-37.906441229258235,-28.93154143690299,-16.284945420352813,13.363482826072868,-7.317407312819341,-18.667251562342244,-33.71471547821329
2025-12-12 18:05:39.935978,Right,28.80911503509833,-25.035394949392867,-15.981493596800647,-13.281102998404378,13.673112573026629,-9.020694970290606,-14.855586073188078,-22.31666764215788
2025-12-12 18:05:39.939939,Right,-11.956967378322588,32.77059421718968,38.91699311186494,27.278135173585497,13.93684946085068,21.467834400358697,30.714527509193886,34.75467590655512
2025-12-12 18:05:39.943979,Right,-1.9309629915451296,32.044632582969825,37.285969361086245,35.091366323135276,14.17981966268917,31.945337806460884,37.7744986670682,36.724072517330455
2025-12-12 18:05:39.947922,Right,43.103567444322834,-23.70955855988086,-15.926984460300446,-2.032261246659232,14.43430205663708,2.7105391524255538,-4.175065532400822,-16.394131843985974
2025-12-12 18:05:39.951977,Right,42.118071717550265,-28.83553708643558,-19.888233883641078,-14.057700070484884,14.697032555537817,-13.644738231360861,-15.002094460478475,-22.382493386392014
2025-12-12 18:05:39.954988,Right,2.0120562367519597,28.776331055169976,35.42160957072883,22.25180720020046,14.9362486105702,13.036133918007181,27.37252948278683,33.600383776773356
2025-12-12 18:05:39.958948,Right,3.8553714317595222,44.8534952254322,50.25140642267252,40.3595188457864,15.135463201852417,34.76612425228086,45.41325924648663,51.00857164460905
2025-12-12 18:05:39.964024,Right,48.53324786855592,-8.293881965772016,-0.36499804284903803,7.255821381650549,15.313741246373638,12.851788890775424,5.83159434436493,0.1111639445551873
2025-12-12 18:05:39.968013,Right,52.67659099574121,-32.105633095196936,-21.934323471161406,-16.46286259156534,15.498033848798059,-12.459673715574354,-19.038381375959943,-24.471723913531036
2025-12-12 18:05:39.971975,Right,4.266833004674481,13.20556521684557,22.31800031352941,9.164315380203448,15.687855499430498,1.8630083142338663,13.512179884975922,18.54114118112625
2025-12-12 18:05:39.976044,Right,-13.035951220465904,35.378803846935625,44.08491119352402,29.198715281908562,15.858779886002594,22.45024978112042,37.665390141898115,41.17737153964606
2025-12-12 18:05:39.980071,Right,26.01261308166704,-15.107316421899668,-2.6982040095263073,-1.9512469715411385,15.99632416050099,4.017415974127289,3.4340620635512096,-6.970499694614773
2025-12-12 18:05:39.983067,Right,42.42540871986057,-50.12915876147599,-33.92502457374576,-33.33170868364914,16.11345668671038,-24.42946962040969,-28.93207892969258,-42.60973059747403
2025-12-12 18:05:39.987062,Right,1.3159417958563608,-6.815201098536818,8.62150208095045,-10.54894308399821,16.231200825111955,-13.019077719170127,-0.7401003769050476,-3.3000527230317402
2025-12-12 18:05:39.992081,Right,-22.57445404245118,35.62842589778393,48.627022476121056,23.973561455253446,16.35141179211314,15.957868744485495,36.057238743799644,36.12182729840379
2025-12-12 18:05:39.996080,Right,15.061553793043913,2.9281568534379403,16.66939912658927,9.814242341441002,16.457128335285233,9.495994485112988,15.46803896862275,2.3790509004036267
2025-12-12 18:05:40.000119,Right,44.361704348516014,-37.45496941526744,-21.867065981299675,-20.425445887126045,16.536352163489028,-17.44637842457996,-20.544763442348085,-40.915189609223944
2025-12-12 18:05:40.003115,Right,10.642375526530941,-4.8316058725949915,9.050598562191226,-4.486481402125349,16.596279025983677,-11.02003732756748,-2.1158462151392996,-13.597503688185498
2025-12-12 18:05:40.007122,Right,-24.72948233967236,41.31705356715611,51.93000524752824,30.604343778724086,16.651846479026062,18.657696001385602,35.874223748480745,29.725943637661203
2025-12-12 18:05:40.011142,Right,0.4100671717849309,11.508164122103153,22.500981040073384,17.742589883602932,16.706750849394666,14.710626859254035,17.929386038375924,1.299624495822627
2025-12-12 18:05:40.015166,Right,33.71642998316088,-45.086482287804756,-31.27403544288063,-24.008740225567365,16.751175449939183,-19.785986075591495,-29.74403585296386,-54.350624933478684
2025-12-12 18:05:40.020157,Right,7.992676976111397,-30.479671275689725,-16.715128543768515,-23.55188959829636,16.775866157580822,-25.786264549769726,-26.28349974082448,-42.108090190412895
2025-12-12 18:05:40.024160,Right,-31.379551457610205,20.804857544037077,32.18661897331185,10.714329870085997,16.782847637759915,3.363398278084162,14.302709473427512,6.918809629506541
2025-12-12 18:05:40.028193,Right,-10.125763774386954,8.46120777251872,20.44193914117932,8.635278903399268,16.781187607934044,11.531659178043512,11.27143743089664,-4.703473739366473
2025-12-12 18:05:40.031186,Right,35.91897700763707,-44.53876118458993,-28.82755867200831,-28.397598484239268,16.775901813758537,-14.092093626879205,-30.33559367776661,-56.47751864085103
2025-12-12 18:05:40.035156,Right,26.002128942208515,-35.757827519882085,-18.301706996237044,-29.64112952472206,16.763644788597958,-19.96873364397004,-29.381470586413798,-47.657560821126026
2025-12-12 18:05:40.039234,Right,-17.174416342221093,22.68034458454349,39.324600984266,11.217229092126246,16.737968241741328,11.404806625562514,17.855538477067512,13.27101129759194
2025-12-12 18:05:40.043211,Right,-11.757534475554166,24.249474823889614,42.557550933277525,21.808774371808227,16.696521463516547,26.67330060106633,28.21159523597089,21.88779261474383
2025-12-12 18:05:40.047246,Right,30.027277408202963,-34.39393213593485,-11.133605164784967,-15.822773539561496,16.643014962141024,0.14296211255395974,-15.226368538499173,-30.104101267824262
2025-12-12 18:05:40.052270,Right,26.022098821575582,-46.68200646780224,-20.759583342187398,-32.022778184969866,16.583274333317604,-18.12704973220275,-32.318451488617484,-40.96862281554968
2025-12-12 18:05:40.056209,Right,-20.96508058044037,6.819169822855201,31.02941692326567,1.7997146504675356,16.51949900798536,5.101949932430216,5.2868722185348815,11.547461277930779
2025-12-12 18:05:40.059259,Right,-28.212254102701536,24.041269929175996,47.33211151822616,21.561782173740312,16.447940314119478,25.18092649351911,23.156648466149363,30.42409208242134
2025-12-12 18:05:40.063226,Right,12.065513281304447,-27.18356617902782,-1.021672486596799,-8.866448448300844,16.362781998217542,3.6664510532336863,-14.853689156740074,-17.580239076541147
2025-12-12 18:05:40.067292,Right,18.61066727983234,-49.59361669381133,-21.337159190203238,-30.539636433180505,16.263105858362906,-19.863785962874317,-38.35369753471241,-39.20357506929213
2025-12-12 18:05:40.071315,Right,-25.760265877433994,0.5835838813259215,26.458140409471525,-0.6058657873442428,16.15507753786369,-1.9651916676225483,-2.6640858202863456,10.372714476730835
2025-12-12 18:05:40.075316,Right,-40.92795191991263,30.787387138918803,53.64339064849992,26.869507095907736,16.045359030005784,23.61156858175991,26.297174701140193,42.55742000079317
2025-12-12 18:05:40.080309,Right,0.7971628300374505,-15.256701944881115,8.032271979853249,2.033194607644205,15.932661581333377,9.11759962731594,-5.870382832255473,0.07099982040199393
2025-12-12 18:05:40.084292,Right,21.67447400707897,-52.53367391840948,-28.54914650376304,-27.43322808302041,15.808654690277763,-18.392574799318027,-40.72076131898393,-36.541234497537516
2025-12-12 18:05:40.087297,Right,-17.75175939948349,-13.766255321999779,6.957884479579661,-5.937613033420469,15.668656775971613,-8.441370821768942,-15.811731073663395,0.23075814453295607
2025-12-12 18:05:40.091357,Right,-45.19458682405366,26.359471688729172,42.82693033955729,26.418959902340447,15.51876408489261,18.948752675935793,20.385849024374693,40.06460594174678
2025-12-12 18:05:40.095371,Right,-10.612411650327886,-6.7290727996669375,9.335891453538352,10.042798048398396,15.368951840264344,12.386288836863969,1.2891890619293918,8.832662110493402
2025-12-12 18:05:40.099384,Right,21.712069590880674,-46.95635105732845,-29.707653639612545,-21.91432261452188,15.220054068555328,-13.5066782193353,-32.516752119708144,-31.24580958578008
2025-12-12 18:05:40.103405,Right,-5.703884153602303,-11.839390355525325,2.9921177994147,-5.443345096357007,15.06215642610914,-5.343021541336384,-9.980162114660743,1.7687054330563114
2025-12-12 18:05:40.107350,Right,-37.03935335375718,40.397491769032854,50.85429956713051,33.02577595218227,14.887743025097734,27.046755586159634,34.862925451771844,53.51136370490349
2025-12-12 18:05:40.112415,Right,-10.348546974386409,16.30998553809262,25.938718634206452,23.406786854690523,14.70250516971646,25.56226210408022,23.415345967395297,31.290324024846996
2025-12-12 18:05:40.115366,Right,24.429202234929107,-38.610435479019486,-27.05656471975817,-17.863439335389288,14.51859233698633,-8.641357209744456,-21.502414671535917,-23.845255209409515
2025-12-12 18:05:40.119435,Right,-1.3429621110899461,-23.069876697657605,-12.222610729979351,-17.397459091943944,14.338562155044201,-15.355837042493476,-17.406090325372134,-12.433149799515377
2025-12-12 18:05:40.123452,Right,-45.666235073225835,32.51772916184768,40.32153462112183,19.516492314772265,14.151775707290653,14.65856515908672,24.981405821747103,39.714203880532295
2025-12-12 18:05:40.127452,Right,-33.50773973391733,23.25683314944763,31.223176046292792,19.679585192682225,13.948811591348203,23.450650866070646,22.687767461940894,31.200327497555918
2025-12-12 18:05:40.133487,Right,3.670982399225977,-35.10451762647517,-23.234800189136877,-21.27120794461635,13.734701427107211,-6.6545610682887855,-24.122807976799777,-25.312724389981668
2025-12-12 18:05:40.136435,Right,-11.629380600104923,-35.89891644579893,-21.8644746519858,-30.58123707520177,13.522703621016262,-21.32570622822095,-31.690141207310262,-26.555475439976362
2025-12-12 18:05:40.140435,Right,-55.477374415257145,20.911184581209454,33.77877489389721,7.105978333043524,13.316671057247731,4.5012008411858915,12.8624309368588,29.815982992291538
2025-12-12 18:05:40.143500,Right,-45.127433496109006,31.179844234741267,44.158553793789906,22.951603744782545,13.105991028205608,21.586041662262687,29.412709291137617,42.50504385611748
2025-12-12 18:05:40.147473,Right,6.468508243493488,-18.32463729525307,-2.4473803946602857,-7.320619280622395,12.880212247011514,-0.4913962002610788,-5.984542641965163,-4.429152789614818
2025-12-12 18:05:40.151550,Right,12.283801820731242,-28.30567554228128,-11.525242492152756,-21.18915972500176,12.643533710954216,-18.141275636762657,-20.34922356835432,-15.347895416893152
2025-12-12 18:05:40.155532,Right,-30.208986148161785,22.83878835630003,36.46713483871645,9.19268333371329,12.409379146505671,1.2072322373933275,14.916557687019122,33.47089867094837
2025-12-12 18:05:40.159552,Right,-36.73405273792741,37.153645859369135,48.454337083567225,23.242058982098712,12.18246811044446,16.694907049215544,29.525781718140024,48.27198008684354
2025-12-12 18:05:40.163552,Right,6.799113951396066,-16.61111095695196,-3.7021783734417113,-11.789424917756406,11.952831851114752,-7.190948571480476,-10.345004111615708,-3.3035803517414024
2025-12-12 18:05:40.167576,Right,19.912074702910104,-39.777618112421806,-25.57735463922654,-34.36732579029007,11.709770994388236,-30.159411065145832,-33.30621739993694,-26.683832567538047
2025-12-12 18:05:40.171636,Right,-20.174310142943796,14.928014269084088,26.31462363108949,0.21323109449235744,11.456556829518377,-8.53021667385292,7.073156597864909,25.562106236706313
2025-12-12 18:05:40.174632,Right,-35.76142121425073,53.78461766184137,61.74275315763225,35.57806852055916,11.205989241978386,22.488332686787544,43.61557395846012,62.90475189997778
2025-12-12 18:05:40.179639,Right,4.146111627072969,11.884045343084836,19.872649567780172,14.066518861825244,10.963249672455277,10.45892216042921,14.882047089221487,20.092837689457156
2025-12-12 18:05:40.184625,Right,24.268873439164963,-30.079681873082336,-21.621579257673147,-21.079835041731258,10.719485475441616,-19.78620138029146,-24.888077505883302,-25.127263628162837
2025-12-12 18:05:40.188646,Right,-15.89137357196887,2.869602126056634,7.969521892937337,-8.05834089856441,10.46440889000587,-12.666729341823157,-7.222053373429844,3.4008769379233854
2025-12-12 18:05:40.191640,Right,-44.977930284439935,42.47587735299658,43.30357027332502,20.546691170304598,10.200338442042266,16.519644414260256,26.248236989535144,42.09486190961434
2025-12-12 18:05:40.195652,Right,-11.250365180581866,9.446291718840257,9.988032569399365,3.933099247563632,9.938833663713012,13.201053618164224,6.661686179503704,11.646541945290664
2025-12-12 18:05:40.199659,Right,22.51670457500404,-34.723416447115596,-32.7285193581738,-28.83637729411504,9.685175504513609,-13.166765314977965,-30.653145879664407,-31.99115125159915
2025-12-12 18:05:40.202672,Right,-3.452490485733506,-3.1045164744837166,-3.006131897931482,-12.977922084368572,9.431952036222356,-8.644377056943995,-14.019594375433371,-3.712002361236955
2025-12-12 18:05:40.207690,Right,-35.90864603098635,51.29208891700546,47.84211370657067,27.740842882223035,9.169808311515226,21.637918455542604,27.089933959847258,48.46923253832756
2025-12-12 18:05:40.211720,Right,-10.59751637464251,31.97532187285651,28.627677982860405,21.740404919651326,8.900144494771666,22.077239148389708,15.457621043892686,31.253200157352694
2025-12-12 18:05:40.216704,Right,25.684363788379414,-22.18790296039333,-22.897063224894737,-18.831962525803192,8.632841058904887,-8.6220068915718,-28.610857895100708,-19.892497925098723
2025-12-12 18:05:40.220725,Right,2.328857273249014,-9.731913751200409,-10.945346187427276,-20.76889871964903,8.372971580771264,-13.657332368589778,-23.288006311514437,-6.873526069553918
2025-12-12 18:05:40.223730,Right,-41.30164649238213,45.03327801235719,40.265546869444734,15.262459259333127,8.114748856307415,16.414004783393466,22.716193748831756,47.61092937221474
2025-12-12 18:05:40.226725,Right,-26.590842545421765,39.018163137667216,33.25649285751388,18.21480690259466,7.85012778541568,25.846853436036326,25.52365889637622,42.248808483485845
2025-12-12 18:05:40.230700,Right,19.585537235328957,-16.490704396715955,-19.860426849707437,-19.393386034691105,7.579671796829643,-2.6826574767346756,-19.00674268657349,-13.83903570970324
