timestamp,label,FC3,C3,CP3,Cz,FCz,FC4,C4,CP4
2025-12-12 18:00:58.325576,Right,2073.2340996774346,2382.1203538353243,2387.2379764329703,2352.8258014068724,1555.45427248475,2224.22754034979,2233.2965455267563,2463.0667395681353
2025-12-12 18:00:58.342663,Right,11168.017284764439,12833.020202468,12860.53381083312,12674.985384584801,8369.043762290186,11982.66817110017,12030.978907540288,13268.97762038621
2025-12-12 18:00:58.345683,Right,25610.328116387194,29430.983179349354,29493.642894346474,29067.956091435306,19136.460967866333,27482.48612832428,27590.960903878804,30429.564361293404
2025-12-12 18:00:58.349688,Right,32099.13046892362,36888.23362691124,36964.677584358295,36432.93655529789,23832.248719785355,34451.478404382906,34581.685764154405,38135.676694852744
2025-12-12 18:00:58.352639,Right,21887.765298428363,25144.063349186712,25189.802520477388,24836.054760175335,16015.493983624561,23493.6564111771,23572.782217372987,25987.44546624695
2025-12-12 18:00:58.356653,Right,2718.884029394758,3098.971332413348,3090.014172277937,3068.951551454258,1750.1245266987244,2911.263458284724,2906.650980652339,3196.454462216003
2025-12-12 18:00:58.360725,Right,-11855.947588459734,-13653.627176111186,-13702.304115085019,-13472.346659408504,-8816.255057984934,-12739.259318830882,-12801.477337726392,-14112.615315444651
2025-12-12 18:00:58.364747,Right,-15623.236228841415,-17967.435875406372,-18022.089412196947,-17734.60905666265,-11426.154325578507,-16775.595100250328,-16849.754656450124,-18563.966682350845
2025-12-12 18:00:58.368744,Right,-11165.814194089384,-12833.014614142245,-12870.827805436507,-12668.303847247618,-8233.38598020887,-11980.40389989526,-12035.843744515732,-13259.750340252533
2025-12-12 18:00:58.372758,Right,-4747.62486686284,-5463.448017596966,-5483.802582595381,-5391.07551690063,-3623.040886600269,-5093.803305092792,-5122.762148660899,-5648.894678004552
2025-12-12 18:00:58.375774,Right,-1317.3421556411777,-1529.1145993756363,-1542.9600884126266,-1503.6771401965525,-996.7903730235412,-1420.5381314890692,-1433.5046778200194,-1581.7252882352332
2025-12-12 18:00:58.380768,Right,-2106.2219182881527,-2429.145880498225,-2445.0162582902703,-2392.9199348326074,-1461.8680558130145,-2265.127027522656,-2281.12848449999,-2509.1995269878535
2025-12-12 18:00:58.384780,Right,-4956.225394965499,-5696.9480129063595,-5717.561175875482,-5622.454381429357,-3672.4615581972175,-5316.078694493393,-5346.836444065324,-5891.39426431118
2025-12-12 18:00:58.388787,Right,-6722.38869988895,-7733.927168681752,-7758.3639173239935,-7633.642820086796,-5114.095442010846,-7214.962747934507,-7254.378920221468,-8003.302032401902
2025-12-12 18:00:58.392811,Right,-6005.706409125822,-6919.432492637308,-6943.382129321923,-6826.667838509427,-4480.1565140119055,-6456.658204257139,-6489.746277830796,-7158.68898197962
2025-12-12 18:00:58.396911,Right,-4015.4401166536845,-4625.685213348828,-4643.6044210162945,-4562.464497752488,-2841.316270554322,-4320.699517036905,-4342.161086192937,-4780.54477737681
2025-12-12 18:00:58.400830,Right,-2918.797029745765,-3354.693660232704,-3366.29255703534,-3312.164642759599,-2112.02722893958,-3134.1099349482683,-3152.087153362925,-3467.6644422105746
2025-12-12 18:00:58.403839,Right,-3475.9981838938547,-3999.5568358674645,-4011.145117414533,-3951.432725778315,-2711.8871834467864,-3731.4291202151217,-3753.4988434156403,-4140.3492145937635
2025-12-12 18:00:58.408792,Right,-4457.210445632227,-5137.533119255211,-5153.184150645975,-5073.369028680609,-3382.430147634819,-4794.044864440919,-4817.6765066776425,-5314.639295376372
2025-12-12 18:00:58.412866,Right,-4346.809457932133,-5005.3599586763885,-5020.504826849909,-4942.182534003048,-3094.1460395767353,-4676.496784094139,-4695.878448548494,-5169.259545346606
2025-12-12 18:00:58.416870,Right,-3221.7968075762037,-3698.17208085896,-3706.8106617011363,-3654.2666481971974,-2278.2279158338206,-3457.672581370338,-3472.8864494577283,-3817.05966967775
2025-12-12 18:00:58.420841,Right,-2502.9159517987864,-2872.2713443654357,-2876.8051185943186,-2840.2260782020167,-1956.8868345797528,-2681.6304506544257,-2696.5854764583055,-2971.536577102728
2025-12-12 18:00:58.423915,Right,-2963.6979155002628,-3414.2820627995534,-3421.649688518839,-3372.8089709681226,-2321.2730833943933,-3186.1065169787034,-3201.985837391345,-3534.7771672941744
2025-12-12 18:00:58.427851,Right,-3684.8592208293267,-4243.98016352288,-4254.4618553565815,-4190.35055449116,-2655.8896788072307,-3966.7320163951954,-3981.8602152026724,-4386.006563318893
2025-12-12 18:00:58.432922,Right,-3389.9438362503424,-3892.8732552787988,-3900.2861030014465,-3846.514529764885,-2386.3825048879953,-3643.074788487749,-3656.399914825801,-4020.26332966052
2025-12-12 18:00:58.436947,Right,-2278.583990656887,-2613.2251169965602,-2615.697726355982,-2585.9384559803875,-1752.5210117007373,-2444.604875388788,-2455.8755451472243,-2703.915215312969
2025-12-12 18:00:58.439952,Right,-1731.6697545961943,-1996.1897618040675,-1999.0689580288017,-1975.3549809537362,-1427.4150044391863,-1864.803129786509,-1873.711330996477,-2069.6092302661855
2025-12-12 18:00:58.443944,Right,-2316.5669059397187,-2671.108864402864,-2677.752937070676,-2639.816049216548,-1689.0702526120003,-2498.2599510824075,-2506.089995774906,-2760.7957953326404
2025-12-12 18:00:58.447931,Right,-2993.5901153252926,-3435.48650730995,-3442.095566992415,-3396.4539564049337,-2085.968923617038,-3215.7203669010196,-3224.990143435891,-3545.728449506918
2025-12-12 18:00:58.452923,Right,-2643.179710797267,-3024.538415077841,-3026.973169528297,-2992.894752703025,-1970.4575101417722,-2828.841136974399,-2838.880412467057,-3126.0943308621645
2025-12-12 18:00:58.456992,Right,-1639.0975679754047,-1879.5845639753388,-1879.632023066515,-1859.6428753134096,-1337.0386327554006,-1755.2901484339964,-1761.889863361488,-1949.0358501070878
2025-12-12 18:00:58.461009,Right,-1225.269814937259,-1411.549110416323,-1412.9368938887492,-1392.8706252502743,-900.6921392292716,-1320.6067758676363,-1322.868199128192,-1463.4874778524972
2025-12-12 18:00:58.465011,Right,-1731.5842659175396,-1985.9562485668575,-1988.6527591989143,-1959.8544297349872,-1157.9958434439031,-1861.7035312063526,-1864.7560545790475,-2054.541855702526
2025-12-12 18:00:58.468960,Right,-2221.29283299332,-2541.8940135682933,-2543.9331763871014,-2511.642573321704,-1640.5082714236341,-2379.3794119019294,-2386.4152387370123,-2634.268479476683
2025-12-12 18:00:58.471975,Right,-1896.1290868023643,-2175.576005627867,-2176.884810607182,-2149.650498113013,-1527.4070383707294,-2032.7424830185482,-2038.922685533762,-2260.6598445405252
2025-12-12 18:00:58.476040,Right,-1128.9426454079803,-1300.808132302598,-1301.6843826017575,-1282.7815444773296,-847.1297389630927,-1216.7466789798345,-1216.2562427147059,-1351.2649869585875
2025-12-12 18:00:58.480057,Right,-811.1481791064143,-927.4315776156727,-926.3341960689286,-913.8103383384878,-466.66744556929916,-872.5574907516129,-867.927941996837,-957.1789256505435
2025-12-12 18:00:58.485055,Right,-1144.8944693061057,-1301.9195037942845,-1298.2839179059956,-1286.3673668035772,-809.2450094021624,-1222.379486035672,-1220.4195996281924,-1345.6916414670413
2025-12-12 18:00:58.489068,Right,-1504.992810119642,-1722.7142928417306,-1719.0505534256808,-1702.514229164808,-1233.1547555762809,-1612.5763245115522,-1613.458866455243,-1786.9292848604964
2025-12-12 18:00:58.493088,Right,-1328.8453539162874,-1530.6935804584064,-1528.427558086696,-1510.970919792424,-1022.9306721283356,-1435.363537378842,-1432.9469634803245,-1586.2036575954407
2025-12-12 18:00:58.496093,Right,-774.8794795981376,-888.4576724288054,-884.8545483824564,-877.4668806166155,-441.74099186382955,-840.6084344681585,-832.9131030768622,-913.5760704709683
2025-12-12 18:00:58.500098,Right,-440.65825429570395,-492.4951955038123,-485.49865007272456,-490.22317627549637,-255.14832836558344,-469.29130866786,-461.2900647710776,-501.95141580642667
2025-12-12 18:00:58.504111,Right,-614.8797613428906,-695.6189077580348,-688.3574045939604,-691.6397577731404,-569.6199600716936,-651.4102898297133,-646.4278358785668,-715.965017440496
2025-12-12 18:00:58.508141,Right,-951.5954088487197,-1093.3324234008323,-1089.2551236215513,-1080.6841312276665,-783.6004950130591,-1020.0577848986723,-1015.2512262091041,-1125.717009283253
2025-12-12 18:00:58.513093,Right,-912.484815170872,-1044.7119247681694,-1041.3256063455483,-1030.734801564482,-558.3128363478463,-979.4729989184998,-972.0630002273247,-1068.7058851389447
2025-12-12 18:00:58.517174,Right,-453.77385483816033,-503.3209716323763,-496.12366712023504,-499.311150647467,-220.75355595111614,-476.847839652386,-468.7585208597593,-509.3095507331891
2025-12-12 18:00:58.520346,Right,-96.03922500420595,-90.64739502675366,-80.94524138863198,-94.96379296225496,-150.30290283390786,-88.28811823105207,-81.51815081614768,-90.68834237527335
2025-12-12 18:00:58.524180,Right,-227.7306648006779,-253.16147272434318,-245.98677923349896,-254.41805789724458,-274.868556757865,-238.49038372311043,-231.02518596925074,-260.48182096134406
2025-12-12 18:00:58.528181,Right,-555.2714777541696,-631.2054080621456,-626.8116393044475,-626.2894119819975,-331.91017803852446,-595.6661559057538,-585.49049780122,-643.3305445699953
2025-12-12 18:00:58.532207,Right,-511.6237613967969,-570.6072677023476,-564.4209343754919,-568.2794183442602,-252.07649394849432,-541.1714230906218,-530.0780664115446,-576.7072188971797
2025-12-12 18:00:58.536220,Right,-74.21617900556885,-66.99129860487301,-57.81524420832284,-72.40163661900442,-110.10826379965874,-66.22778111015214,-56.14814881730126,-62.79892094770912
2025-12-12 18:00:58.541168,Right,215.9116826542886,253.50838453654433,261.73451344756177,246.88045638485346,30.288848766271258,236.5603978948202,247.09529729693895,262.84707311092643
2025-12-12 18:00:58.545238,Right,64.31562788086012,74.53367943572812,80.06509140180424,73.39355999990948,87.26133950529038,65.69309907811112,77.73543214949314,81.48797563515836
2025-12-12 18:00:58.548280,Right,-172.68501619659946,-186.74796530409367,-180.65615600254387,-185.6995198915538,7.516469054797199,-181.8533282406861,-171.18243551679188,-185.34425190964248
2025-12-12 18:00:58.552261,Right,-70.82495082094101,-64.22169284813572,-55.736027428501984,-67.04993948357878,-72.59770217070763,-63.105895865825005,-56.09482531200047,-64.37095629112446
2025-12-12 18:00:58.556273,Right,247.79599780531134,290.37460188928526,298.2464463263459,284.837354796211,47.36345551692648,274.20813352047116,280.40103629739315,296.55809347794275
2025-12-12 18:00:58.560268,Right,384.4108039761777,438.21263353765244,443.27832543115073,434.23214032112446,285.995094403901,411.31192697701044,420.1653391893924,453.28786285313254
2025-12-12 18:00:58.564236,Right,281.6091452038818,327.86403164974763,332.6127634562654,324.3706551651485,340.44016629872203,303.8881576112399,313.68485497129586,344.5206104510071
2025-12-12 18:00:58.569293,Right,211.95710338762547,256.3156003166914,262.95072458425193,249.81141487115565,168.80010860615948,237.9036394636605,245.27085479904963,266.7093274500712
2025-12-12 18:00:58.573334,Right,296.9083598156285,347.27454106285586,353.58482521775295,338.9540001302994,90.08086174685013,326.4817973445861,332.89323507025983,354.81487837769237
2025-12-12 18:00:58.576322,Right,397.38742465934774,454.692877548252,458.5928972917609,447.72153536717815,271.4833468644065,425.3206043948594,434.52571053216525,469.72054654933163
2025-12-12 18:00:58.580322,Right,431.72190290382423,501.16311626677634,505.14755811444775,494.21941826844704,455.2397698646819,464.4220579353714,475.4868624241353,525.9014283143624
2025-12-12 18:00:58.584345,Right,474.78759198321495,560.1712164347991,566.9863377310976,550.4680523455318,400.45954640576383,520.6852154722146,529.5707125925401,586.2514447059075
2025-12-12 18:00:58.588337,Right,535.0483196062851,623.4175379402295,630.9279642307083,613.2462266484508,273.62601869327773,584.5203658025712,591.4373824161885,645.1583916533855
2025-12-12 18:00:58.592311,Right,522.8280351318826,598.7025381931162,603.7076821849332,591.8887438826787,326.4416911333392,560.766649901052,569.7380479803833,619.8776443358511
2025-12-12 18:00:58.596439,Right,474.0464727388462,547.130500334024,551.1203037315863,541.205935643753,466.9612196642847,507.1903078966134,518.5013135031913,571.7770516778692
2025-12-12 18:00:58.601393,Right,540.6616851550934,634.8309424110339,640.8968787208432,624.1357232391019,475.0760824121826,588.408652048849,597.8865578206023,660.1046206519823
2025-12-12 18:00:58.604474,Right,706.069481495826,821.2798429713002,827.976667933166,806.4340348668047,414.8063617392618,767.0338454727316,773.6093904360896,843.9402833190397
2025-12-12 18:00:58.607433,Right,762.740471183497,873.5468148754444,877.3162500996841,860.2821297594346,475.258973760152,815.4912860051263,823.2333632442169,895.8953899304615
2025-12-12 18:00:58.612361,Right,650.3853577491827,745.0243189302855,746.7980474458891,734.2867608563974,579.9071477012476,687.9401593102375,698.9411324672983,769.1506070287433
2025-12-12 18:00:58.616429,Right,574.691402686527,670.348293269577,674.1094166458934,657.3002717731288,534.3143833805807,613.646853422455,624.6807546225027,693.3611709082033
2025-12-12 18:00:58.620464,Right,680.663092687435,793.8573257192038,799.7865496848244,776.9343789048144,432.3561598446686,732.4997703606496,741.0217378775706,814.5703648399794
2025-12-12 18:00:58.624477,Right,828.9889466736931,954.0357139949338,958.6508472746937,937.2934897824889,513.7801066514803,885.7343090259237,893.7552321640542,977.6422183731338
2025-12-12 18:00:58.628471,Right,836.9271962058265,961.8325832651462,964.4573779372731,947.1141990233446,698.1711372719146,891.1315679607214,900.2275816675392,991.001854160917
2025-12-12 18:00:58.632425,Right,753.7377977102296,876.6845338437706,880.1999434082536,860.816695760237,684.7150274541345,810.3674325544853,818.1028892758768,904.2006977102719
2025-12-12 18:00:58.635485,Right,737.5144429795328,859.3639186095679,864.3113165878458,841.0281302200165,493.9137221092242,798.222796721966,803.3579256562516,878.2098042930011
2025-12-12 18:00:58.640441,Right,806.6993331470294,926.704214816913,930.2874455370475,909.1020118740853,468.56860052613774,863.5152198176365,870.037141798297,942.7619668430416
2025-12-12 18:00:58.644508,Right,872.4513980246847,998.7366381700849,1000.6351002480369,983.1105893265922,684.8538990846719,926.2636569235474,937.5875610881485,1023.5538919005776
2025-12-12 18:00:58.648515,Right,898.4445346773136,1041.8374624727294,1045.3678467391292,1025.2765057355864,804.4063818341237,962.960244578775,975.9497271201108,1075.6459331820952
2025-12-12 18:00:58.652548,Right,887.7650117017329,1037.7765055940254,1043.6006404686486,1020.2879818283254,644.9740675480571,964.659663182334,974.3471882560989,1070.4667415366275
2025-12-12 18:00:58.656501,Right,826.5883964049863,957.9531034418615,962.1254362743348,944.5752058346989,482.29349143453874,898.277738261153,905.2917344238376,986.1020589794498
2025-12-12 18:00:58.660603,Right,765.3408320561284,879.031463385094,879.680390910944,870.9700494813733,574.943180182192,825.4084165937966,833.4344637502218,910.6992421534378
2025-12-12 18:00:58.663562,Right,820.9630327281775,950.5711369100027,951.3220727028092,941.1309195411159,752.5053385845385,888.9174902945524,897.5224149524001,990.9993057625834
2025-12-12 18:00:58.668605,Right,968.9991873750696,1128.8002428184263,1132.5214817574015,1113.3151547663147,742.2558912403183,1056.8405316425487,1062.7240763854934,1171.4676522633526
2025-12-12 18:00:58.672633,Right,995.1754959061509,1151.260581114213,1155.2485600387445,1134.7026575270575,609.3387927449076,1081.638028244255,1085.27062280674,1187.7837644187966
2025-12-12 18:00:58.676613,Right,819.4516707413131,939.7190384721616,940.8110460554017,928.0418526042486,578.2280807755888,881.7286842749454,886.6701639998937,970.9669887186028
2025-12-12 18:00:58.680634,Right,691.8829708893318,798.8666590314824,798.887999020284,788.6047273528529,646.5462788080331,744.3576174894115,750.7495635640807,831.0246543552494
2025-12-12 18:00:58.683643,Right,836.3489230028354,973.634012337192,975.2912858031923,958.0847934462363,670.9781694542617,908.4628822873347,913.0005901813274,1008.893039258779
2025-12-12 18:00:58.687584,Right,1058.9498233983759,1222.1776505688904,1223.4229844067013,1203.4488712388556,655.9511648729676,1147.4806392799364,1149.5465220472543,1258.2351491625886
2025-12-12 18:00:58.691646,Right,1014.2719846537802,1158.3099883284885,1155.9756726230262,1144.0493158210302,676.7459408582654,1090.3012790204957,1092.4156682492467,1192.8626698820153
2025-12-12 18:00:58.695601,Right,758.917383627384,868.5420337140094,864.5812301115366,859.1349594023777,673.0147189300042,816.2451218963834,818.3314697598107,900.214677761076
2025-12-12 18:00:58.700675,Right,679.6808086727979,789.8144879273605,788.4430463765748,778.1355053005973,587.191793894046,742.5296884910204,741.5125944138272,818.3100635369774
2025-12-12 18:00:58.704695,Right,884.0503886528313,1022.8456828306662,1023.6633557314053,1006.0716742719524,553.626053246553,965.0413536569104,960.9613193875412,1051.167038430227
2025-12-12 18:00:58.708689,Right,1041.2030890354654,1191.313249613857,1190.8322346707573,1174.1168581307866,674.7038103314117,1122.995608689147,1119.9708604061743,1223.3701701988466
2025-12-12 18:00:58.711701,Right,917.8681077528745,1049.912008381798,1048.3415993384551,1035.1950163184665,767.2347987092799,984.0059068376431,983.7138376059011,1083.2306991065852
2025-12-12 18:00:58.715665,Right,721.7404442126863,836.4598831466865,837.1775606526062,821.1549271009862,638.925476639648,778.9325422990369,778.4946352358675,863.2160065460484
2025-12-12 18:00:58.719729,Right,734.978516249219,852.6826567717362,855.67604891269,834.6273549434263,466.6588944970863,794.3387254022527,792.4800666932715,871.48661371239
2025-12-12 18:00:58.723743,Right,890.4628089419566,1019.4472311290447,1021.0277263587341,1001.0641372201499,541.7193359435769,949.3846429096302,949.1080614754464,1039.006673733471
2025-12-12 18:00:58.728694,Right,941.0396795955021,1074.6536466394318,1073.8270811521215,1057.3957200511359,754.83066633821,995.3792630105745,997.8342208469985,1100.6486815640237
2025-12-12 18:00:58.732762,Right,847.0540992448805,977.3736365445657,976.9795462362235,959.2558673345484,745.4605598160997,902.0013787590433,903.1685826218454,1003.3416374756489
2025-12-12 18:00:58.736798,Right,760.3795038198587,881.1428197565256,881.9507341983262,862.3561520836083,512.4399368414888,818.0264534257585,815.213975821156,899.9194402003195
2025-12-12 18:00:58.739776,Right,755.6763521843823,864.9631928901654,864.1241734887008,849.3427041013492,428.9559770958731,809.1963589987718,806.0865235200617,882.3789431841578
2025-12-12 18:00:58.743790,Right,786.7436871995451,896.0848291035509,892.789127716329,884.0665649714647,613.3918290156871,836.8456889771624,837.7504682681756,923.1499040927738
2025-12-12 18:00:58.747821,Right,818.928488790174,943.773330202559,941.1059255520813,930.3999600422103,738.6933641481446,877.8271639120067,880.8572708353167,979.3414761233144
2025-12-12 18:00:58.751823,Right,832.400438267854,965.51378917275,964.6796985415276,948.7877737802919,597.9660768829053,900.691660903045,901.3937047639629,997.9078511421103
2025-12-12 18:00:58.755830,Right,777.740786954877,892.5472716311924,890.2554638504516,877.2320349243237,433.57881850970443,837.0631703954423,835.6136782822432,917.2160867494531
2025-12-12 18:00:58.760847,Right,675.1354772130726,766.2093867307995,760.3931438431609,755.3983652699972,491.3351470193593,717.4337178147398,716.9709087929223,790.7467213445343
2025-12-12 18:00:58.764862,Right,656.9618735773256,753.0665440629236,746.4415150608402,742.5803926389199,619.8044460450765,700.8692233829061,701.1268523749895,783.4031237331219
2025-12-12 18:00:58.767858,Right,764.4668515683152,884.3955833921209,879.0930952401832,870.6320696104085,583.5850139963441,825.1017919403967,823.3723507461837,916.2787768382113
2025-12-12 18:00:58.771870,Right,824.0392370457994,944.3141396549763,937.5273481623735,931.4329044248443,467.54031092789955,885.8983146370156,882.8229564042995,972.0109347987454
2025-12-12 18:00:58.775893,Right,702.2759517531376,793.8555330885574,782.8644748190418,786.6487178411335,467.7789800906321,744.5344459868502,743.2155712927924,818.7271890474949
2025-12-12 18:00:58.779938,Right,555.1682133809663,630.9183811137918,618.4917628392577,625.7759157442488,526.9120489538182,587.4936918724561,587.6408360750647,656.7461445056833
2025-12-12 18:00:58.783908,Right,599.5114527281839,692.8295050192391,682.9651555193122,683.3726986356778,489.178682031692,645.7791735071223,644.3433946042787,719.2179639909882
2025-12-12 18:00:58.788925,Right,746.7790596371051,857.3733498376096,848.9266020776704,845.1265855652746,420.21105654665735,804.599412919837,801.9117676398018,882.4339300021529
2025-12-12 18:00:58.792936,Right,736.105463249376,833.5249420925975,823.2680371009046,824.7983932702336,459.27812432229985,782.1324001722969,781.8865779659245,858.0334719994571
2025-12-12 18:00:58.795986,Right,567.1848134723259,642.5009816075908,631.9196057650261,637.222720381571,518.026638909243,597.1138050960144,599.9246926667402,667.0291618916672
2025-12-12 18:00:58.800905,Right,496.7234795426484,573.673996853875,567.0098668304272,565.8923165115993,442.8552233632654,529.9140083186794,532.1616029188735,595.9414421770489
2025-12-12 18:00:58.803976,Right,604.2302210457856,696.5659716274822,693.8225859234808,684.9989690385992,336.2356708870502,648.5274185144808,648.5862914754543,715.8615949836094
2025-12-12 18:00:58.807921,Right,674.6104415555019,766.8953284958843,764.5715371264378,756.3844082143623,388.0229195948923,715.673265864607,716.1327893150738,786.766344872769
2025-12-12 18:00:58.811978,Right,578.6177735769888,657.8110183393583,655.5446229252266,650.0566813212354,504.2112602154957,608.8230108381249,610.8447121727513,679.9808239496779
2025-12-12 18:00:58.816003,Right,471.63286849530414,546.9972284747055,547.6769406403182,538.2572615151294,451.9610671858536,502.3198865313316,503.0957748555811,567.444142072578
2025-12-12 18:00:58.821023,Right,494.42340363399126,574.0001200264087,577.6501762702828,563.2858348443406,289.3434447658947,531.4924921755446,529.8042377133388,590.216520542861
2025-12-12 18:00:58.824018,Right,542.8408281517914,617.2194315105444,620.601100904867,608.6873639889527,280.01475266343914,575.4719680746784,574.5068676675437,634.4107064357959
2025-12-12 18:00:58.828034,Right,492.6462546143448,556.3929004409583,559.1001041278942,551.3112304848619,420.61334547947627,516.7772181816399,518.1477224634727,580.1207618602784
2025-12-12 18:00:58.831991,Right,425.15199910185765,490.44730577617884,495.76698743202724,484.36981890525203,441.22200947382953,454.753506241017,454.6358736488037,517.3322570695309
2025-12-12 18:00:58.836059,Right,446.8555977632059,520.2672431694809,528.9613503444707,511.2906205856707,289.4797938321717,489.11097275675274,484.26778383378405,543.3213069363264
2025-12-12 18:00:58.840069,Right,476.62572977296077,544.1980266136816,552.9352150605991,536.9388310238719,219.33066404087003,517.5830157535383,510.78667041659355,564.1467635205481
2025-12-12 18:00:58.844097,Right,410.9233436436625,463.24206617404707,470.7758169043809,460.74859642761294,326.73368999233935,440.4799297809368,435.43066297261976,486.34909226209857
2025-12-12 18:00:58.848092,Right,337.69677487772424,388.9763235793216,398.3560983298812,387.329734815401,385.3668558279751,368.3144105201354,363.14807635184843,415.7399175775936
2025-12-12 18:00:58.851135,Right,374.25830923207104,437.2511514336802,449.5919701115927,432.82689172646496,272.00714601262007,417.70302829204593,408.69597006228287,462.05203147546854
2025-12-12 18:00:58.855107,Right,432.1460226038471,493.4725940179778,504.88540033926256,489.3913105148822,185.5905889221467,476.6673441961175,465.104198126588,514.6308487311471
2025-12-12 18:00:58.860154,Right,368.36339850898366,411.02536357345525,418.8670690205181,411.00727871456183,264.31540863460395,399.0272839900572,388.8018503934145,432.4043406123528
2025-12-12 18:00:58.864143,Right,254.96204084006604,288.45487522357143,295.82825898134615,289.86339811212383,328.43496485077776,280.17126071604434,270.96932908555027,310.7280699244002
2025-12-12 18:00:58.870185,Right,259.6208877230529,302.9546820688993,313.2891536116367,302.06252834014595,227.71026307006832,295.1679906407371,283.70027169794776,321.9131015264429
2025-12-12 18:00:58.873106,Right,344.6935734244762,393.26783873385284,404.68271530931816,392.6104719666764,131.3863360643154,385.10190336883534,371.347617662861,408.3308265777305
2025-12-12 18:00:58.876171,Right,334.4547489233082,370.2115003231447,379.4833704055054,373.967953872052,208.45488204620779,364.08858707896434,350.47781228646636,386.2041455672588
2025-12-12 18:00:58.879174,Right,227.85836811515037,252.01342995243613,260.3679094807012,257.9199904082343,299.1368793695583,249.87679484160617,235.36474912625272,269.73759046627674
2025-12-12 18:00:58.883234,Right,189.6340994531056,217.91028441942763,228.08990517328493,220.8620272091357,205.80590027984,218.79278945131227,199.83793035661802,231.03587374766357
2025-12-12 18:00:58.888184,Right,250.18112045922317,282.4550299779512,293.21207475615665,283.3252973599592,69.39060638652882,284.3574562650174,261.72545105509926,287.85450453707017
2025-12-12 18:00:58.892161,Right,266.9850607768167,289.5461116200313,298.3479547739262,293.21496625768486,120.56386540079257,291.7390748357866,270.4218510618666,293.39650036161765
2025-12-12 18:00:58.896166,Right,195.92287115263753,209.91654969449155,218.68431185174268,216.55822763498873,253.10697966290172,212.93725788674783,194.50983485102188,218.37962364475243
2025-12-12 18:00:58.900240,Right,155.8563077938743,175.18921710527502,187.64173119189218,180.99510244384874,209.98543322377373,180.34048798447475,161.0653816217091,185.55847671080846
2025-12-12 18:00:58.904249,Right,185.91212725569494,208.13878332800232,223.01979970838875,213.54375756368972,48.466147843399085,217.15249831741676,195.13141679333057,215.42854593659285
2025-12-12 18:00:58.907255,Right,176.2983512681676,184.58649765932932,197.32112204132136,193.97338946606033,34.17161909426795,197.83187248918694,176.33514903555624,190.99844699038658
2025-12-12 18:00:58.911265,Right,100.68887844064739,96.55090626492165,106.63965068152174,109.80159771477338,162.10573153401492,111.37061291048303,92.68769714341033,106.85142742143944
2025-12-12 18:00:58.916267,Right,83.63261383154895,87.92731239122804,98.82319480588194,100.13702912640292,178.67375844559865,101.17909693607362,82.65824856492691,100.12533683318179
2025-12-12 18:00:58.920326,Right,153.5303553751437,169.34292599069886,181.43731467868201,179.91869945422513,47.12747282953933,182.15837903122883,161.64234428206692,178.2189002126688
2025-12-12 18:00:58.924296,Right,160.32119995931862,165.06706946645863,174.8795266696834,179.1243527448387,-2.678123294201214,181.9004762309487,162.14382234046934,171.65461865987163
2025-12-12 18:00:58.928322,Right,48.85047390294494,33.48737917840481,40.26532863074681,52.07662952627288,91.84550869418308,54.97753441374516,38.77393521985505,42.844110584584996
2025-12-12 18:00:58.931321,Right,-15.41495983232744,-29.11690328718396,-22.00725028186571,-12.261523110501003,124.76831620442681,-8.736704531882424,-23.378631156752817,-17.37590359459864
2025-12-12 18:00:58.935346,Right,64.99304261320503,68.24616046779556,76.64557337138103,79.636207334348,19.774820748891216,82.59398278122535,67.10779936081963,77.1913331807009
2025-12-12 18:00:58.939355,Right,128.36564667813946,130.73403121484444,136.84388060722267,141.1128385431948,-35.78411756065907,141.58101141965017,127.59855177591089,135.73135496728355
2025-12-12 18:00:58.943306,Right,30.275593096448574,12.095929949136917,14.353571694926359,25.63399533968186,39.85838511295151,25.109608283790294,15.699756787798833,16.817749827401713
2025-12-12 18:00:58.948377,Right,-93.03058253147174,-119.31259788369061,-117.20241443009581,-105.79484808101552,67.80192710045958,-103.71480864781188,-110.56715462036664,-113.68675971659832
2025-12-12 18:00:58.952373,Right,-55.900233119900804,-67.91495666495757,-63.181560715136584,-58.30050708685303,-37.300161373626906,-54.10637574933935,-62.15759570710361,-63.825046721613035
2025-12-12 18:00:58.956340,Right,52.61886318854522,49.92418025818188,54.61522092903033,58.3718025823473,-91.45868727363995,60.384389496641234,51.93413406715263,52.24544460256584
2025-12-12 18:00:58.959397,Right,27.084783445636276,13.553249726828653,15.325294928799849,24.643863396253437,5.359490115049994,24.135987358400598,18.253759944520425,16.07177936093649
2025-12-12 18:00:58.963418,Right,-98.34347651558346,-122.29825068317587,-121.26035014301306,-111.30145080131479,59.394746813573875,-109.06508325540926,-113.5330295554013,-121.32583323912695
2025-12-12 18:00:58.967415,Right,-124.34317163901869,-142.0304397373111,-138.56115173990838,-135.6710626310669,-60.73527100266074,-128.55452857518685,-135.01444713503588,-146.72307480010204
2025-12-12 18:00:58.971439,Right,-39.99401515556383,-49.80795630047214,-45.25308326195227,-46.23607306199847,-160.3258208578045,-39.645749295072164,-47.254290251556085,-58.61468666471774
2025-12-12 18:00:58.976442,Right,-23.524216980062192,-38.751639040594455,-35.84044148219982,-33.38140099449083,-65.84386181857553,-31.639231929555535,-36.72324115794618,-45.22567615043954
2025-12-12 18:00:58.980463,Right,-116.85381673934171,-139.30000989648397,-136.7976487299893,-133.31735660001868,43.15636034542695,-132.02632943552453,-135.10181052965345,-142.58078233667766
2025-12-12 18:00:58.984410,Right,-170.1491627957148,-189.90306421753485,-185.19844174338505,-187.7180650368391,-51.064792238597875,-180.5607586959086,-185.59035094245337,-196.58281863227603
2025-12-12 18:00:58.987425,Right,-125.21774405383621,-143.4740275358199,-137.76736238889862,-144.23321190392016,-202.4008243051794,-133.22225726395845,-139.91800959091051,-156.14764978329185
2025-12-12 18:00:58.992502,Right,-99.43701649383001,-126.06048854492838,-121.82924385994556,-125.30988104327116,-155.6053574050893,-117.64328932849457,-120.95109609290375,-138.07739644375397
2025-12-12 18:00:58.996576,Right,-146.22952034500486,-176.40327207789232,-171.86281683115521,-174.52888148072816,-5.843450204876717,-171.8313136712968,-169.9512945766619,-182.5023392612202
2025-12-12 18:00:58.999485,Right,-170.17336962145055,-189.39038044276822,-181.01140831419616,-190.69349009083817,-28.181485361797968,-188.0020333622815,-184.8210440234834,-194.08948898701055
2025-12-12 18:00:59.004544,Right,-138.861782487249,-151.10603106090275,-140.21746297751088,-155.2474294123822,-187.04461710105534,-149.54676445326186,-147.55688834593457,-160.60239339740656
2025-12-12 18:00:59.008573,Right,-153.47513430450635,-177.63322011622222,-168.78424755892047,-179.82257447078882,-212.68997542176658,-173.33440081322624,-169.919304799987,-189.66474525905505
2025-12-12 18:00:59.012604,Right,-233.77079263099586,-269.79378017714043,-263.25229035539087,-269.6812998553287,-90.12552392426733,-264.42504778581497,-257.57602454305015,-278.5391923327188
2025-12-12 18:00:59.015607,Right,-250.80685169100252,-277.56488109105703,-269.27466098701916,-279.9433547802146,-66.79790007439442,-274.5740900365163,-266.95229143849065,-283.6658006360958
2025-12-12 18:00:59.019617,Right,-169.23441094111513,-181.7942334082145,-170.76332455897682,-187.20590854696275,-189.58279642354682,-180.52107619692674,-174.49043844901598,-189.71131692414292
2025-12-12 18:00:59.023593,Right,-142.45571062328236,-162.494230479193,-152.2772141100213,-165.22693151863314,-234.93618792451161,-158.154332584254,-151.43536817260792,-171.4001230380345
2025-12-12 18:00:59.027601,Right,-244.49872499012417,-282.90650168560387,-275.0483190227096,-280.829991359642,-138.28254784728415,-273.4885251610758,-263.72454099509196,-288.5054090402191
2025-12-12 18:00:59.031593,Right,-318.67545675142173,-356.1234290123466,-348.1134572747105,-354.76788152836525,-105.74775553818108,-345.77965407340525,-335.2781119161955,-359.5258093516604
2025-12-12 18:00:59.036637,Right,-247.2113481261258,-267.9719500568026,-259.1544562826457,-271.216211390245,-213.28780223697686,-261.1343287428026,-252.5809271408216,-274.510877034656
2025-12-12 18:00:59.039636,Right,-167.90717842211598,-187.02792472088186,-180.72491505893413,-190.93090537539683,-263.6320953818795,-182.00586358514556,-173.3006657740916,-197.3432052773569
2025-12-12 18:00:59.043638,Right,-233.73634213922196,-269.7521057970007,-267.2554563744925,-270.1269524222298,-168.27269474379136,-261.552425195463,-249.95572866227303,-280.08507875887153
2025-12-12 18:00:59.047636,Right,-340.274120452581,-383.21147065379773,-380.90523797812057,-382.5844838646444,-121.49734059847833,-370.6933567068627,-358.68215598106326,-393.75066099880496
2025-12-12 18:00:59.051678,Right,-313.43249655481486,-344.29804563493235,-339.53036104282364,-345.8760297053377,-230.01152982667554,-330.57251854159404,-322.0763246876595,-358.99553073596326
2025-12-12 18:00:59.055685,Right,-218.79531021162984,-242.81120386067778,-237.88110319440602,-243.64736829698086,-301.4386593217496,-229.76125592185417,-223.26564021312515,-260.98266935523134
2025-12-12 18:00:59.059696,Right,-237.1986310078064,-271.11096219331375,-268.1496551754244,-267.74009709607344,-203.70973790151766,-257.9064567628084,-248.88725706079276,-287.4028806191345
2025-12-12 18:00:59.064693,Right,-339.86729509945144,-379.97566292464035,-376.3213913324871,-375.85438446400804,-122.86451464022684,-366.9714784572134,-355.13555040906067,-393.51355152312317
2025-12-12 18:00:59.067695,Right,-350.4680632186355,-381.043472554069,-373.76428371600923,-381.4166964094038,-221.89937990774342,-370.98417517959024,-359.328871972888,-396.6287907479564
2025-12-12 18:00:59.070656,Right,-266.0710570133233,-290.02695385488914,-281.1708207053598,-293.2390971452405,-329.9453593885992,-284.25198557108524,-272.36648004341987,-308.6065114993835
2025-12-12 18:00:59.075723,Right,-248.42307515387074,-281.61290101570194,-274.2907209684199,-282.6167573839484,-251.57149160309928,-278.1125791152299,-262.5865975606139,-297.5460654903436
2025-12-12 18:00:59.079759,Right,-321.1787536201882,-362.1390717435861,-354.66577773337485,-361.5799580720777,-131.15402806014754,-358.63985929384944,-339.74411154707195,-372.7977220333996
2025-12-12 18:00:59.083743,Right,-340.801332426141,-374.0571201845887,-363.24873203522293,-376.4174222340225,-191.7526471518213,-370.57785660846275,-352.4809065388981,-384.684418474033
2025-12-12 18:00:59.087696,Right,-278.3376060495211,-304.7934185321792,-292.51725063298363,-309.6865781034576,-325.59597514246707,-301.96673025074415,-285.8565030893078,-319.93276387045626
2025-12-12 18:00:59.091761,Right,-270.7214744556404,-306.57154840248404,-297.337837627274,-309.6347875131178,-293.87989153768285,-303.83816831046715,-286.6223373315297,-323.412362109113
2025-12-12 18:00:59.095785,Right,-350.3343612998142,-395.66540292388527,-389.500856278406,-396.86583087348845,-165.90068956813775,-392.54183577606454,-373.37999485159526,-410.5219213233213
2025-12-12 18:00:59.098792,Right,-375.4401424925891,-412.40014036063803,-405.87652034207713,-415.5534458656912,-185.27965804529958,-409.33954736444866,-391.58824724081205,-427.5118817220791
2025-12-12 18:00:59.103805,Right,-299.22087303642184,-324.84792288328754,-317.9421756559168,-329.17649993119994,-316.7687426332268,-321.3003957545734,-306.1549676734139,-342.98649460298475
2025-12-12 18:00:59.107822,Right,-265.4628440570086,-298.0812896763091,-294.0405783081078,-298.2981032477692,-316.288749059604,-291.7756342999055,-275.8167272557039,-315.8233050763374
2025-12-12 18:00:59.112827,Right,-341.4027803360368,-387.6466656573466,-386.5572389070294,-383.386668039544,-187.49272833616124,-377.5656592002488,-359.3607695606188,-400.8963681489695
2025-12-12 18:00:59.116829,Right,-387.79833093762863,-430.96158931811806,-429.5423885185155,-428.31484362727497,-171.53518228195026,-419.1063562752097,-402.7684751119232,-442.92150999821024
2025-12-12 18:00:59.119857,Right,-316.29717767826514,-347.63548209902365,-345.75594558764715,-349.3116959701292,-294.19028636303847,-335.94743526750244,-324.6479267247487,-363.8754141331301
2025-12-12 18:00:59.123862,Right,-256.9112519446062,-291.8596637658775,-293.25197368033696,-293.3343610474258,-320.03825028589927,-279.3180942883482,-270.1718975326512,-310.86236361123156
2025-12-12 18:00:59.126859,Right,-320.0200937425834,-369.449434281094,-374.7737512499443,-367.63706452952465,-197.00870934830164,-354.329714321706,-343.6582237332477,-385.7352428107406
2025-12-12 18:00:59.130880,Right,-392.3850840796367,-442.5639458812657,-447.5638309031492,-440.92558816238306,-155.4838460328756,-425.7141445594607,-414.9322088107001,-456.45703082642285
2025-12-12 18:00:59.138841,Right,-346.21179519657744,-384.4394713124493,-386.9143177996739,-385.71321073628496,-275.1524273894611,-367.9222552368301,-359.68386634567287,-400.6505150218145
2025-12-12 18:00:59.141864,Right,-273.14635585126234,-310.70536766631994,-313.7665541434544,-311.49426544306334,-332.5345293061109,-294.6651996047003,-287.0744587488589,-328.9843139553559
2025-12-12 18:00:59.144926,Right,-310.40534756175475,-360.15684792096727,-366.0394866754068,-357.53288528032135,-217.9784361681668,-343.51666478818515,-333.43372804194223,-375.80561023933114
2025-12-12 18:00:59.147947,Right,-385.7830938558327,-437.1932990520145,-443.2822495921864,-434.644235836342,-142.72355443559354,-420.480176117504,-409.5538437876967,-450.46899046615
2025-12-12 18:00:59.151882,Right,-355.28250680392375,-394.3582538822666,-398.60339976032265,-395.646655355813,-245.8335043109255,-379.2864302934031,-371.0708094208385,-410.84167792485096
2025-12-12 18:00:59.154946,Right,-272.32676624972373,-309.0043779370026,-314.17163150705164,-311.2247207243927,-333.15705640567467,-295.717931386258,-289.0536806603195,-329.6510134640848
2025-12-12 18:00:59.158969,Right,-284.9823508571135,-335.63627601473127,-344.2122392122401,-334.4342398341978,-236.9884439726011,-322.9213166957488,-313.96807997167343,-354.7634385782876
2025-12-12 18:00:59.163974,Right,-357.8667817101814,-414.76429836981697,-424.04730319726514,-412.0760639193468,-127.81060639716452,-402.6629244823125,-391.89119620155543,-429.8546071211458
2025-12-12 18:00:59.167989,Right,-342.97670818149345,-387.96219410869526,-394.6309062780929,-387.9460838949308,-198.53018776339013,-377.47240643110126,-368.5694130700431,-403.38053761271294
2025-12-12 18:00:59.172002,Right,-263.5467210135539,-300.9459580637631,-306.8229095295537,-302.00032652687514,-309.59342368139187,-291.4905387031613,-284.0744222054491,-319.1832592799328
2025-12-12 18:00:59.176019,Right,-272.4313538362039,-319.9065163281048,-328.46602857182734,-318.03425275953487,-252.4806220975588,-310.05585727863945,-299.8396925833076,-337.07890832668636
2025-12-12 18:00:59.179040,Right,-360.04536515375366,-414.5584288149257,-424.82808448770083,-411.6723981323303,-135.92055517382687,-405.0941616205382,-391.6403932842659,-428.51053733413573
2025-12-12 18:00:59.183051,Right,-363.6670113519067,-406.62885908730095,-415.7369915547315,-407.6379572409787,-176.69915762386518,-399.627808572317,-387.64956588624045,-422.0408335754182
2025-12-12 18:00:59.187071,Right,-270.74721823306754,-303.60230413789395,-312.88841329992283,-307.1893329390441,-293.39339532423764,-298.0710656896117,-289.88312043983024,-323.958634531009
2025-12-12 18:00:59.191111,Right,-250.3999277705443,-294.27530890959315,-307.18921090313233,-294.68752471124753,-263.9571565227816,-286.05266637942987,-278.8775786043843,-315.37398442986887
2025-12-12 18:00:59.196133,Right,-342.9636180762318,-401.60149015753996,-417.1991108879447,-398.67200103367213,-144.92645934096072,-388.64800353435567,-381.15993880544556,-418.74187334021553
2025-12-12 18:00:59.200078,Right,-380.1653390125721,-433.48233794013504,-447.83866335731,-432.6095709488727,-162.2273498698487,-418.1336676464416,-413.5380990919657,-449.13400289136916
2025-12-12 18:00:59.204118,Right,-290.3955233088345,-330.25588233489543,-343.3287676409818,-332.2915862649679,-281.88616874604486,-314.88615825766465,-314.74103168048896,-348.4043314275332
2025-12-12 18:00:59.207102,Right,-228.6207500374294,-271.5925548700616,-286.76740800740663,-271.01352055056486,-271.903251228563,-255.17350909434026,-255.67291981651215,-289.870986785274
2025-12-12 18:00:59.211114,Right,-291.83617226971546,-347.13338318641763,-364.36190674547106,-341.5877122991951,-141.15943288704148,-328.12016012740787,-325.8931364500313,-361.4583332448965
2025-12-12 18:00:59.215136,Right,-345.78543983289273,-398.6438270804938,-414.0813657917315,-392.4484134471277,-127.71389748435467,-378.64061069930904,-375.3554714858765,-411.2530406478327
2025-12-12 18:00:59.220152,Right,-278.6184814539156,-318.65166246541776,-331.500810006517,-314.572582730907,-252.5786742985365,-300.5606858334504,-298.1948972143582,-334.1376528062392
2025-12-12 18:00:59.224155,Right,-207.40172185876872,-247.5559063812252,-261.36999722383916,-242.64781931054313,-276.3000089894631,-231.75510815740563,-228.09280965011567,-264.3132982212119
2025-12-12 18:00:59.228196,Right,-258.8573114242172,-309.99247657344677,-326.0331680790987,-302.7528221727116,-146.74990739673376,-294.837842213572,-288.0704387718579,-323.39303557306994
2025-12-12 18:00:59.231173,Right,-337.27647308650194,-387.3909691396402,-402.3565930016339,-381.89035044575576,-102.06783208157867,-372.1772477631457,-365.7636164028663,-398.8282232042402
2025-12-12 18:00:59.235187,Right,-305.69248822319787,-343.0291203124216,-355.2738614040427,-341.7606240750756,-229.2803035810939,-328.1226876708679,-325.8979797017528,-357.5035091305617
2025-12-12 18:00:59.239182,Right,-233.99408530816436,-269.66416478401516,-282.2913019458065,-268.6995604194235,-297.9713715596008,-254.849515547161,-254.62588890374172,-286.03291533887386
2025-12-12 18:00:59.243144,Right,-255.9381814719527,-302.7949101391714,-317.95378576312214,-298.85630732483696,-183.50328665104462,-287.68918991182,-285.0848823012784,-315.0200331414817
2025-12-12 18:00:59.247212,Right,-315.4495025453507,-363.31131243589334,-378.4241936454782,-359.8269030074589,-96.80019450915279,-348.51010808337014,-344.2491586758988,-370.89528579986654
2025-12-12 18:00:59.252206,Right,-280.70623675041134,-315.5242496547289,-328.4290273950901,-316.20387901715003,-193.68283051165054,-301.2074275474297,-299.0021179878386,-324.10704330564477
2025-12-12 18:00:59.256188,Right,-202.91231495456304,-234.1692614952335,-247.38729143352248,-235.80196690908633,-288.8092913517612,-218.3980275951326,-217.9498128099367,-245.14102933381218
2025-12-12 18:00:59.259248,Right,-223.45299874752527,-267.32742489269003,-283.3788692241069,-265.2005387231475,-202.88411813182756,-248.2020598568488,-246.28276794054545,-275.45812504540663
2025-12-12 18:00:59.263260,Right,-303.5415035201586,-352.457100644242,-369.1900359102292,-348.5866696962621,-94.66119017219171,-331.389187419205,-328.50374368031044,-355.8744518933818
2025-12-12 18:00:59.267300,Right,-293.3199269314646,-329.54652629897464,-344.5324341057567,-328.67578983225394,-163.24044033582322,-309.65897149103694,-309.5459306986304,-333.90098861639854
2025-12-12 18:00:59.271280,Right,-215.76627232832834,-244.74043420981616,-260.48189287271816,-245.61859917943366,-279.7107824080158,-226.43642067466862,-229.2615084061399,-254.11084732355084
2025-12-12 18:00:59.275294,Right,-226.895002463134,-267.7859507933026,-287.5346647237893,-265.85465754033066,-231.69572018936742,-248.85651301097823,-250.84165493759792,-278.7216317283455
2025-12-12 18:00:59.280300,Right,-318.57711343088886,-368.58079477306455,-390.06288042862434,-364.82246696425136,-117.77997561299708,-348.5603644408402,-348.74900671624346,-377.3042292743921
2025-12-12 18:00:59.284260,Right,-322.1185055769165,-360.5942518902011,-379.284046061337,-359.7832709598588,-155.6950968618621,-341.73885970795527,-343.1879945822293,-369.37471686676145
2025-12-12 18:00:59.287276,Right,-217.62491647544084,-243.1802338034613,-259.5595558133209,-244.712177587091,-270.50678386708023,-226.47773691650946,-229.7422178442357,-254.50692508660723
2025-12-12 18:00:59.291351,Right,-176.98434418532997,-209.6684671191033,-227.69382281973958,-208.16769878345076,-237.3938587969169,-193.05554087698692,-194.5537434486905,-220.3095556453336
2025-12-12 18:00:59.295353,Right,-252.19308601866942,-296.9349151025526,-316.9254444000544,-291.67644446343184,-107.62079149717465,-278.81502800044836,-277.53806142986286,-303.7797562337946
2025-12-12 18:00:59.299357,Right,-281.23684724699706,-319.6160288571846,-338.5332304153126,-315.4649206340546,-113.91709996492136,-301.2895359984832,-301.30994173011277,-326.06527740880847
2025-12-12 18:00:59.305377,Right,-188.35915158566786,-213.05158557661343,-230.9367288426729,-211.43370484781917,-232.13368868397083,-195.90835798793705,-199.57654303696472,-223.09661817748565
2025-12-12 18:00:59.308384,Right,-125.85823724418879,-153.65122296637855,-173.53646067820955,-150.39823596610222,-225.66513168538222,-136.5217950855731,-140.5094756631297,-164.19268464902416
2025-12-12 18:00:59.312408,Right,-195.33555544284172,-235.36484453524463,-256.6791846799897,-229.10294520563912,-93.09000431071036,-216.8997660180903,-218.1029910427169,-241.27361492044292
2025-12-12 18:00:59.315463,Right,-263.5096657348331,-300.42045398347545,-318.68154865293764,-295.3492036379175,-76.96401415904984,-282.1213203505031,-282.3988200123422,-303.2820435765898
2025-12-12 18:00:59.318431,Right,-208.68350841361098,-231.50221986928955,-245.56322917481884,-229.2430438066367,-210.0866747368127,-215.85602904326515,-217.2129677659832,-236.0392497368157
2025-12-12 18:00:59.323417,Right,-136.63349949091207,-158.82307927164948,-172.6391016751295,-154.9905291168834,-247.29567156301346,-145.75578404264525,-145.73500394669827,-163.91709071246441
2025-12-12 18:00:59.327376,Right,-172.4743564167875,-206.14568798756227,-221.85412158165127,-198.55080334475497,-117.38200710254023,-193.82370729220565,-190.29323579539778,-207.38915143418126
2025-12-12 18:00:59.331444,Right,-226.81095009821001,-260.16131466126535,-275.046961547574,-253.43768562423065,-55.55454846553039,-248.17259311082307,-244.51265361276455,-259.1156553243636
2025-12-12 18:00:59.335426,Right,-171.12085522903362,-191.36130317946663,-203.84714650228852,-189.10311592218932,-166.47147832112387,-180.47193735453766,-180.79834734089673,-193.84009174798848
2025-12-12 18:00:59.339472,Right,-85.99480353662511,-103.96153034869349,-117.06223524163943,-102.66631487157429,-230.13539307471365,-93.75934061128646,-96.18974050728139,-109.94593498943141
2025-12-12 18:00:59.343476,Right,-114.03714147146093,-143.59210013912525,-159.25260243978119,-139.4698964606505,-113.37964574532816,-133.2292746162857,-133.16969906078884,-147.09059269336285
2025-12-12 18:00:59.347501,Right,-193.94962326454697,-224.97555762098636,-240.02507358550793,-220.86339434236288,-20.18417609669268,-215.46663645427907,-213.03211439651204,-224.13807911030017
2025-12-12 18:00:59.351501,Right,-174.5366343650967,-191.1507755178609,-202.83314607781358,-190.75073361134855,-113.1148691783892,-184.0261812575045,-182.7969369670027,-190.57088357454631
2025-12-12 18:00:59.356537,Right,-94.27972561999923,-104.90916637104237,-115.98792619683081,-105.33342018409166,-211.1123159902054,-99.05596866598353,-99.43581278575584,-106.67894100322155
2025-12-12 18:00:59.360597,Right,-102.70281858416274,-125.48544607911026,-139.40112394222524,-122.18640206294367,-126.1765974861919,-118.07815871888306,-117.65748948865803,-125.81907905609114
2025-12-12 18:00:59.363585,Right,-174.71382453734986,-204.72380984359188,-219.66102860093815,-199.64858342928346,-10.223861211561598,-194.96859131805832,-194.43017065362073,-201.84554164111614
2025-12-12 18:00:59.367617,Right,-158.60218342026928,-177.60064888146007,-190.25802710122662,-175.2774222108419,-67.84146173595218,-166.80349062290043,-169.4439149373793,-175.3234140915447
2025-12-12 18:00:59.371585,Right,-67.50031536346069,-77.87953186302911,-89.65505525795743,-76.64061645360198,-175.32105460809544,-66.01785469811875,-71.38379114144482,-77.83797815389698
2025-12-12 18:00:59.374592,Right,-61.536130165390205,-81.22601468412904,-95.31691307481378,-75.94968942418927,-116.50765664613573,-66.53925936348969,-70.47049829841126,-78.80086192593444
2025-12-12 18:00:59.379582,Right,-147.8642924746382,-176.13681980373804,-191.3007418178604,-167.48061071545817,10.348615425638855,-158.54500781575916,-160.33651868678862,-168.56371936388314
2025-12-12 18:00:59.383613,Right,-160.16513312287861,-178.67912110086763,-191.5899706510245,-171.7816075120354,-22.223338987329043,-160.68784999474883,-164.42879213998094,-170.74843770987354
2025-12-12 18:00:59.387602,Right,-62.36594629852334,-69.68299198639579,-81.40312647121027,-65.03021479351446,-142.19668013346381,-52.97594327450497,-60.4099932416575,-66.29027023527306
2025-12-12 18:00:59.391623,Right,-15.489712880458683,-30.428460907714907,-44.58715387573466,-23.947751124796923,-111.27582395615173,-14.154180789773818,-21.87814705312485,-29.080061823653523
2025-12-12 18:00:59.395613,Right,-82.9650515106623,-110.14611910411622,-125.99493310617981,-101.97749768901849,27.709591559221735,-93.72265470825369,-99.41883072187193,-106.46704955713358
2025-12-12 18:00:59.399642,Right,-119.33594602131052,-140.8586166627938,-154.14641252259025,-135.9124454857665,27.996521672292147,-125.87135524506448,-131.83587762521347,-136.5099933783058
2025-12-12 18:00:59.403648,Right,-45.15944847330684,-53.76781167025911,-64.0216088987072,-52.65590432973113,-101.07755611580797,-41.350647549610585,-49.18503451743163,-52.38390917208744
2025-12-12 18:00:59.407680,Right,7.137469417066313,-4.799503807560541,-15.79849034169456,-2.032647179265041,-110.74779930483783,6.521284034708515,-0.3741825705510564,-4.256979747849982
2025-12-12 18:00:59.411680,Right,-53.74581152375322,-77.74969399662223,-90.54699493519729,-70.94309339852771,24.028932381566847,-66.04983017034829,-69.8126645036973,-73.82033986679744
2025-12-12 18:00:59.415681,Right,-104.53455713705625,-125.41127019247506,-136.8150272849016,-118.93425035005203,59.15543954833993,-114.51908546558116,-117.86300749785732,-119.98426578572253
2025-12-12 18:00:59.419638,Right,-39.5692975265556,-47.057164968398865,-56.01392031769501,-43.81617159402231,-62.50619445886696,-38.55516160116531,-44.343962474376895,-45.04070321330801
2025-12-12 18:00:59.422686,Right,28.965517135569826,20.591802896815352,10.989424972853158,23.83494129846804,-105.58254678899539,27.698764903005213,21.594490583403967,20.36547074612463
2025-12-12 18:00:59.426724,Right,-19.29770845058374,-40.42179616302019,-51.73929378576577,-34.91977996646892,17.078560576366726,-32.93489551136736,-36.322509462654125,-37.464256702631246
2025-12-12 18:00:59.430662,Right,-86.21726976468926,-106.44827128160978,-115.98478037689347,-102.32721786206821,81.9477810683602,-99.13738361658761,-101.56921210465953,-100.22631709155394
2025-12-12 18:00:59.434744,Right,-37.86167378054233,-42.62444320967188,-48.56401228328468,-42.52982460067142,-26.620964138768613,-37.05501202377491,-41.71483934856951,-38.40960701351287
2025-12-12 18:00:59.439747,Right,44.54813445257605,43.79473177617183,37.99754820304224,43.91019686945947,-100.30955145170446,48.28950557013741,42.805112297530286,44.60228982305853
2025-12-12 18:00:59.443764,Right,15.14333925198298,1.8387400169158354,-6.64439432421932,6.146549121942371,3.064563746913336,7.3877210626378655,4.283951934950892,3.277140927442815
2025-12-12 18:00:59.447720,Right,-63.42151392166852,-80.6353996413527,-89.32383341848617,-74.86025798425544,94.38004131789785,-73.71053574033431,-75.8877625921159,-77.34392896119971
2025-12-12 18:00:59.450722,Right,-33.49562919023447,-37.1612367121852,-43.265752164879814,-34.168003876227885,9.66332164107007,-29.997859819501173,-35.389387322822586,-35.68236567848362
2025-12-12 18:00:59.454778,Right,64.94609733604011,68.45667023921851,62.83559365797555,70.69550364036695,-81.06314698513597,76.50405653959024,67.96562813047785,67.6085328704794
2025-12-12 18:00:59.458789,Right,66.53680035643629,58.5513163159776,50.72285263903905,64.26217048606486,7.093654646945652,69.60539388903999,61.44830481725512,60.411810116667766
2025-12-12 18:00:59.462814,Right,-15.174126638128655,-31.67793571233051,-39.4632608461834,-24.234839859767817,124.74169929884374,-17.903586396743776,-25.37912366760429,-25.282739409332862
2025-12-12 18:00:59.467822,Right,-16.392259630258195,-23.31972634009435,-27.779962302127387,-18.896010960132116,64.98086194426287,-10.131180777971167,-19.914247794717085,-17.789573278743774
2025-12-12 18:00:59.471781,Right,71.1347267132951,73.04795561463106,70.03471561858896,75.06894947169349,-50.25772626756225,83.39955825012294,71.4078893273545,73.6466384025698
2025-12-12 18:00:59.475851,Right,86.60179638737463,80.04269973098417,74.63855412154226,83.7507796708087,1.8935301020392217,88.50579575629672,77.92820199907874,78.97496755921748
2025-12-12 18:00:59.478801,Right,1.4301258883206174,-13.90547507230076,-20.637712382740574,-9.301330094982404,128.01331516934442,-5.933171630604193,-14.4319831255998,-12.896535596024478
2025-12-12 18:00:59.482858,Right,-26.463463150081225,-32.46465092781,-36.54697068803944,-31.353969858726487,93.16588879706978,-25.279270907252794,-35.072971486340975,-31.528179162967717
2025-12-12 18:00:59.486881,Right,55.5848684211669,61.8156788177439,60.34304663067451,60.27088555286173,-37.63215687821503,68.24868007260375,56.33869152626721,60.627467645157594
2025-12-12 18:00:59.490881,Right,102.06508335121907,102.76613022756646,100.75314996289671,104.22882797280909,-17.419979152677115,110.30435922034667,100.02132320936653,103.94460684224032
2025-12-12 18:00:59.494908,Right,43.65561216461356,33.604231190663995,31.394696333212778,38.953415796073386,123.27537155318714,43.343932739197044,36.45515192562016,41.804796697048005
2025-12-12 18:00:59.499911,Right,10.749400420550955,6.786287251889007,7.841206240089377,10.720016510837013,132.08561929252755,17.156895952910418,10.19633179914672,18.595379618374864
2025-12-12 18:00:59.503947,Right,78.59982863740879,87.54421815217938,91.7448556330055,87.89520977201755,1.9075069568352774,96.86114473742782,87.12288456215174,96.64703680732055
2025-12-12 18:00:59.506932,Right,119.83712810568977,125.2316224326205,128.54656242503552,125.77491805073805,-20.298916881205514,133.7988387917867,123.80949540113215,131.84550875227433
2025-12-12 18:00:59.510957,Right,45.3356410946144,38.33131185686216,39.80297332486953,40.30480599476141,103.84062694685417,45.991241001713206,38.66230334105785,46.230359918263275
2025-12-12 18:00:59.514971,Right,-19.394610567149357,-22.66347533723456,-19.38985163148027,-23.947173101303633,135.38619584335538,-18.557445810569334,-24.913712928944733,-14.922803731344175
2025-12-12 18:00:59.518961,Right,40.0984814423864,52.61394828767516,59.13344279548619,45.889065382274566,9.064010612855782,51.17735699801415,43.37058106610493,55.89001436528633
2025-12-12 18:00:59.522919,Right,116.2417474626127,130.77892179352057,137.13110507381498,123.60898307901516,-42.06765280519903,125.84462237542903,118.39756305966876,131.15370505729516
2025-12-12 18:00:59.526989,Right,79.51041860449186,82.58070723777928,86.73431395422085,79.09853690851014,78.67746591461764,77.65037703736743,73.0960841159249,85.5288518522575
2025-12-12 18:00:59.532001,Right,18.06352578307269,21.624486793210963,26.322448772974894,18.830741285375552,151.39763925318402,17.26694574789144,13.566265856090467,26.972430479334434
2025-12-12 18:00:59.535011,Right,68.85545740678208,87.3875248303084,94.41651490400545,81.88842044035846,50.289826518070186,82.4203560288588,76.06516900721181,89.67191705711593
2025-12-12 18:00:59.539003,Right,156.1754524129501,178.42312728734396,184.6665360154875,173.3288843219343,-23.699928901078238,173.88029762332735,165.84816320308892,176.6092218595295
2025-12-12 18:00:59.543063,Right,127.98084759025369,136.38244432027568,139.2724556565954,135.573701208079,77.56379278317763,134.74071325355908,128.28223242340027,135.36605425675225
2025-12-12 18:00:59.547055,Right,37.895773254065716,39.85700880346121,42.11947245616466,40.68061189370928,170.09033602925047,41.202650272294704,35.5409747507656,41.43017572441022
2025-12-12 18:00:59.550998,Right,47.44202072283224,60.58917352401477,65.2848216019629,58.816885467254906,82.61656604724703,62.93897463857866,54.62534097766911,60.78193123327219
2025-12-12 18:00:59.557029,Right,129.4819909965954,148.82251216701115,153.79125555075007,146.49907150900253,-20.85018878280971,151.8286938733654,141.17199768625142,146.14559562445356
2025-12-12 18:00:59.560092,Right,124.26449265453266,132.41434397682315,134.37046185001964,133.70621835083148,53.51860299857799,137.36024743921007,127.83275691101153,130.9261105877813
2025-12-12 18:00:59.563092,Right,41.62598291761242,42.368536312744254,42.91150909438875,45.04536119264958,167.09658448203118,48.2793388625214,40.106861588777974,43.506911363649124
2025-12-12 18:00:59.567094,Right,43.37020728177231,55.361218721969635,57.91413377187564,54.07137799014163,108.76975448159646,58.62601532640474,48.7654718306876,54.29978457841935
2025-12-12 18:00:59.571097,Right,138.70158874342815,161.01130415155058,164.8788854078557,156.80360892953104,-9.070587553578662,159.9223625462946,148.5744217019601,155.36120645202027
2025-12-12 18:00:59.575075,Right,163.34353482289953,177.3473168977871,180.0925505356754,176.06022865756313,39.217551463163545,173.98850403503457,165.29225181002403,172.48641546439467
2025-12-12 18:00:59.579130,Right,82.84381995174954,86.96053801612652,90.18733729300766,89.36875795239393,168.64413246444929,83.55519088047595,78.71462292543401,87.64824510575636
2025-12-12 18:00:59.583154,Right,54.39171723970594,66.70617625537125,73.8017151713957,68.24831411227751,140.39211448953847,63.15637631481377,58.5152237075672,69.87832279748909
2025-12-12 18:00:59.588157,Right,133.28300631377664,157.28157421822652,166.94255204921888,157.1723289821564,8.17645198201626,153.52762411351432,147.24713815720952,158.82524544555508
2025-12-12 18:00:59.591191,Right,173.3439957464634,191.1491810817406,198.84133810529602,193.47217913270651,19.759441451916473,188.70254789499086,183.7784439432453,193.61265283253374
2025-12-12 18:00:59.594187,Right,104.24723806844304,110.15138199167268,115.28818161522395,115.13370733780721,155.74580813863122,109.36527268495774,107.49992126267534,117.10131665378685
2025-12-12 18:00:59.599176,Right,62.85935823169166,74.238636212036,80.31982449678617,76.61781714209064,165.841934895976,72.84416705463809,70.62496931336682,82.26789271811322
2025-12-12 18:00:59.603214,Right,133.22251098420747,158.20955902527567,166.00513637881159,156.1219874788767,34.63366632322868,154.72278651534725,149.12158025380268,161.86865491941353
2025-12-12 18:00:59.607195,Right,185.78961649170378,208.07188433658666,214.54634592585353,205.94033391092307,8.002345950302697,204.2746930096764,197.3039884243517,208.752891598946
2025-12-12 18:00:59.611250,Right,119.41449214359454,128.45266879761402,133.17897173789243,128.62253826171946,133.09076253936655,126.22959861029813,120.65416325165643,130.98181001847115
2025-12-12 18:00:59.615231,Right,52.543455026476295,62.701711868387065,69.41971364944038,61.609142527289805,172.01423619678462,60.68392665688589,55.39419825130608,66.39833629344503
2025-12-12 18:00:59.618243,Right,104.80589497897017,127.90527799296251,138.007862454906,123.8698752624041,48.8209786222651,124.06030092349101,117.60976544693403,129.02236956859997
2025-12-12 18:00:59.622239,Right,176.40934031944926,199.3382002785729,209.33638703428005,197.13290154369315,-7.318753620598727,195.02249432015378,189.79815055440122,200.0479334744523
2025-12-12 18:00:59.627259,Right,135.1350306727909,144.45129485876532,152.11907839597552,147.60875822481466,109.29982969625053,142.6439063333819,140.8646266000942,150.73406086506293
2025-12-12 18:00:59.631262,Right,61.06889698964369,68.45492693665437,76.11577874541399,73.11083046915883,182.5351897228611,69.28540052686003,68.03470048851159,79.85844933465705
2025-12-12 18:00:59.635291,Right,94.19835563880042,114.93918210091215,123.95149244085769,116.58209646414616,77.79302681614354,116.23201019104454,111.61241702280677,124.95556353882421
2025-12-12 18:00:59.639289,Right,171.04923944270558,195.56691217265325,202.87414686521515,196.5479389459215,-7.481665815932502,196.76455798941606,190.59107730192773,202.3800577672955
2025-12-12 18:00:59.642294,Right,143.58439757441374,155.31235896379803,158.98994348761335,159.62798082451627,85.73460131176398,157.4698888031271,154.34513284701097,163.6475100239477
2025-12-12 18:00:59.646330,Right,59.00322480752948,65.47241863395902,68.999915326669,70.80654996380326,181.04664030433923,67.94990994982072,67.50219874260074,76.65871680245618
2025-12-12 18:00:59.652321,Right,75.40777079389954,94.51522601309989,101.45692883340234,96.30148877993634,98.66307229341328,95.12860072325566,93.04850136020104,103.43266709006275
2025-12-12 18:00:59.655336,Right,166.8218464714737,193.68220509347157,202.11668446086696,193.3004460363445,-6.881175271490065,192.2300972850062,187.87817197122786,198.10470269303187
2025-12-12 18:00:59.659346,Right,168.23004587454489,184.30093402865168,190.99403847652138,186.0324763219396,63.19058504910936,182.69909171601466,179.5698226527893,188.97623113136797
2025-12-12 18:00:59.663365,Right,79.65735420260171,86.98525603619055,93.5016237035743,89.79613364920078,177.58024641688826,85.46170066014747,84.41577823799162,94.74144578735286
2025-12-12 18:00:59.667354,Right,63.227966422229656,79.9117271775176,89.47191447185469,79.83441022012266,118.75821799054393,76.34582059146487,74.47474661265733,86.4194415081729
2025-12-12 18:00:59.670415,Right,140.72572960112302,166.55821418705455,177.7986777001206,165.1212928630266,-9.763537302838813,160.4832116220059,157.22760581417242,168.63026683568023
2025-12-12 18:00:59.674389,Right,158.31216516924906,175.3473447431752,184.82960462938354,177.67032477242174,25.425427918482455,169.37444263386715,167.8452747251431,177.37172723174444
2025-12-12 18:00:59.678403,Right,80.70204297220334,87.61037475911144,96.43777820350078,93.14831395095098,153.99891890185245,83.49571899638977,84.3790277432854,94.14291198558931
2025-12-12 18:00:59.682468,Right,58.27657112581073,73.65394590620417,85.79989051328448,76.80652155884309,134.59476143924257,69.86959197638498,69.66608286912378,81.8947349187365
2025-12-12 18:00:59.687386,Right,139.87621155995294,167.84293886483647,183.1271736912895,167.5515573451994,4.506540788490383,162.5412364994554,159.8561398419988,173.4616099051491
2025-12-12 18:00:59.691435,Right,173.6798201692436,196.0507960667892,210.64480201833067,196.84735067580186,6.282158483722014,189.63664673607855,187.8050466503919,200.73305859607353
2025-12-12 18:00:59.695473,Right,87.6116028065153,97.45394279064203,110.88727248524083,100.35255965247052,130.77026433975698,90.47666249707981,91.28668426357035,104.02260991682124
2025-12-12 18:00:59.698467,Right,27.500761384450016,41.521314272482414,57.10198435554048,41.8002953021205,133.58622077926702,32.63118712285359,32.62449710801593,46.43203047690622
2025-12-12 18:00:59.702495,Right,92.67716836552427,119.30994147936872,137.26975662758923,115.25313320524583,-4.566860158491181,107.77214915388322,104.10320474131731,117.5609048170445
2025-12-12 18:00:59.706529,Right,156.3472630478791,179.03959747233603,195.47375976858893,175.45782062437502,-37.117963418437284,167.58285907474055,162.67034252377925,173.2744112444925
2025-12-12 18:00:59.710595,Right,102.4031221592304,109.36439534748206,123.13425484803156,109.4776989602251,88.93310488907446,101.89325326142716,98.35173496541393,106.31139737859485
2025-12-12 18:00:59.714606,Right,38.906578871101374,44.09952512689051,58.75672409401159,44.84408096727566,132.60618525381142,41.5459579678718,37.00860598240979,44.047574878146406
2025-12-12 18:00:59.719584,Right,92.54828154356801,109.19925216020783,126.23780739115318,108.28608029932366,9.13224624353461,109.90335850627162,101.43966697322321,106.88297286568559
2025-12-12 18:00:59.723586,Right,169.92320009609102,186.40541608602507,202.47282200015616,187.29151850342168,-50.063557326371665,189.32367604138562,179.22220792091684,181.09543154013227
2025-12-12 18:00:59.726602,Right,131.93390272997203,134.95913133595604,148.35472112632124,140.1390324376116,70.7552505563508,139.83902811538428,131.89774985500844,131.40375687828055
2025-12-12 18:00:59.730597,Right,52.255866537598195,53.32294125953922,67.67187712766463,58.899859228899004,153.45097789257125,58.98751235267264,51.88945686435909,52.77079056663206
2025-12-12 18:00:59.734590,Right,76.20878624517354,91.09572545066476,109.14448677524342,93.50151336725685,50.281162328625214,96.70049278624356,86.47484103756142,89.84006841073278
2025-12-12 18:00:59.738624,Right,149.01932709071843,168.31721707136603,187.13260966321104,171.0369420328061,-42.52746125268459,175.62404400884407,162.63830210719607,166.30074090420385
2025-12-12 18:00:59.742632,Right,123.64479606223176,129.47906043659896,145.8504773132736,137.14782701572403,48.313699297606945,141.0031221161771,128.820234241226,132.0326184022124
2025-12-12 18:00:59.747587,Right,42.88388774335908,40.89438777981559,56.93695452809334,51.36509355599992,151.3537532115879,56.17583190469304,44.77214672672562,49.581880375160836
2025-12-12 18:00:59.751656,Right,63.29053754512279,70.61594902156503,89.3379295427585,79.28562865874846,73.98391150370298,86.91467940402799,72.89299573781318,80.061489011714
2025-12-12 18:00:59.754648,Right,158.59195735518006,170.82639825268416,190.10805875368533,178.82223642480676,-36.00269122081227,187.127800576156,170.13194417447085,177.64112026101793
2025-12-12 18:00:59.758700,Right,158.85581902858394,158.07482054276625,174.2289671995968,169.03546299925074,31.244437109067803,175.46636060002493,158.58379416979733,165.49683751387056
2025-12-12 18:00:59.762689,Right,60.87362168406253,49.74165340838954,63.81601749637048,61.538072664116044,151.37822437359137,67.8046390201489,51.452094747975934,59.648507194098784
2025-12-12 18:00:59.766700,Right,34.81543996959226,32.68102241982706,47.76504374030628,40.09431662410498,96.1402247176884,48.85900703180232,30.04828205879312,40.32502162453602
2025-12-12 18:00:59.770702,Right,114.14999005568097,122.03831697860733,136.8462866062182,125.93606242327951,-38.280182904796675,135.36176632228307,113.98284915552358,123.7446603817516
2025-12-12 18:00:59.774680,Right,143.96588535097544,143.64566638378892,154.56585461751092,149.75601575372275,-6.311145573243266,156.05426197173074,136.21861749631353,143.33359852517606
2025-12-12 18:00:59.779746,Right,74.85865703586023,63.505531067290576,71.3738276285876,72.86430778351496,132.53205369380885,76.49450337764574,59.90915055832011,65.94040567814955
2025-12-12 18:00:59.782735,Right,48.60320241385489,44.29961857479066,53.20670095269452,52.629608019953594,125.71304032581975,56.96517122298246,40.45776956802001,47.55296963325236
2025-12-12 18:00:59.786756,Right,123.01375434731017,131.22007848465,141.38386066944804,137.7676674433169,-3.920358570670942,142.67458835066645,124.66278832798707,131.9442150760151
2025-12-12 18:00:59.790772,Right,158.89526840040344,162.8256110851653,170.56981670006644,171.79442183091305,-6.0786495179490885,173.93568882840918,157.88114043549285,163.77914625883568
2025-12-12 18:00:59.794791,Right,83.0034034549899,75.71276550571201,80.44045788527,87.73779424343957,126.7150482404686,86.9231846332259,75.17531232681358,80.92235144009464
2025-12-12 18:00:59.798796,Right,32.455354799720226,30.324925592023646,35.47380642025382,40.43360709105036,147.43847781077784,40.062866829975974,29.415166756953113,36.851089864212554
2025-12-12 18:00:59.803820,Right,102.78469883245998,114.96206679142779,121.25290312524885,121.2909094945644,20.03062064338883,122.15204477967927,109.36188611044781,117.10534802632174
2025-12-12 18:00:59.806760,Right,166.31400474961265,177.2751062194584,181.1096118519199,184.32582789318985,-12.473358832648955,183.4090707122523,170.60708733310457,176.0938382302702
2025-12-12 18:00:59.809831,Right,104.1778256764228,102.27223695398425,102.56700215872843,112.42731852849829,115.32262324460316,108.7913352639589,99.12632840097649,103.22618239643634
2025-12-12 18:00:59.814829,Right,24.346504901957815,23.271141159551917,23.975155437452486,32.20349274299224,166.60315345329582,28.748112425382715,20.58914012197056,26.487792398722377
2025-12-12 18:00:59.818860,Right,61.82269226317294,75.17146129815956,78.51439747109544,79.74119412063737,45.12281716975849,77.57622819699463,67.86389366007643,76.12388411932625
2025-12-12 18:00:59.822871,Right,132.779090121825,149.21520315727685,151.94855897768866,153.38737804855919,-23.297359044852783,149.52829752434627,139.66770956487744,148.03789082355797
2025-12-12 18:00:59.826805,Right,96.61210580675106,101.5955541941803,100.8894280276727,109.44100906714448,87.9340217053832,102.34124384727329,95.57283394318074,103.29646861515357
2025-12-12 18:00:59.830885,Right,19.21037713091937,22.14305731881177,20.154237668815767,30.73458253967692,169.0453488689236,23.30989160563331,18.806883679470047,27.313761179393623
2025-12-12 18:00:59.834886,Right,45.19547191556194,61.143029940431006,60.282515251339646,66.22910993153346,64.77300882719283,60.7206827000191,55.700264176441124,64.8276935685135
2025-12-12 18:00:59.837896,Right,122.38161756658519,143.02740913888556,141.3500311350217,146.59592606927617,-36.57749268118641,140.87167018515174,136.5468752180459,144.02928537651314
2025-12-12 18:00:59.841911,Right,98.88807073209318,107.61350185648189,103.0805940949358,113.25137426084257,45.36319821176585,105.28470330341952,105.02540110994596,110.69101110723568
2025-12-12 18:00:59.846923,Right,10.80590146384202,13.804472923075082,9.054211095237406,18.930469868006185,148.64237275609048,10.866121575265424,13.743440573452972,20.45927101257257
2025-12-12 18:00:59.850930,Right,18.39134820907202,33.31035546428757,31.474448125140043,33.311978630168596,74.8684576973028,27.175263014942175,29.283555445203092,38.3473186098563
2025-12-12 18:00:59.854948,Right,107.31086318922462,130.29668407712597,129.51634284705506,127.15982379048364,-39.18651955881796,119.92169675198966,121.59037662862102,130.75262432344607
2025-12-12 18:00:59.858948,Right,112.84685614911723,125.5286259847635,122.5843693750794,124.74767138774041,20.187978382280562,112.40861088605016,117.94787929058657,125.6090442436689
2025-12-12 18:00:59.862973,Right,23.789115550694987,27.36800597552792,23.79121619273792,28.56730981799774,140.40040590307035,12.771748128405306,22.68734839584795,30.47076339373598
2025-12-12 18:00:59.865963,Right,0.98244450634229,13.95782344636973,13.203374414122663,12.434910545765888,91.19797141189338,-1.8419580285844859,7.687284107378218,16.810960505448747
2025-12-12 18:00:59.870012,Right,77.1178854565369,100.9955574432388,101.87257256460725,97.04564897486125,-44.03054432757199,85.51783720418462,92.20671036941349,100.74658316440764
2025-12-12 18:00:59.875003,Right,98.40068695339141,115.39209753557225,114.02129967004294,113.84836042410461,-22.09891069678997,102.66367457355955,109.75631441405858,116.09265788592165
2025-12-12 18:00:59.879012,Right,15.271043205590104,21.998919581907103,18.748188739060424,22.958921334997285,107.08239228039747,11.750735582143534,21.999514036957407,27.994062935584225
2025-12-12 18:00:59.883023,Right,-23.633782793418504,-9.762739104771754,-11.285503506369423,-11.467774073855253,94.6082236480579,-20.834643005407997,-9.363437105290359,-1.5872844386904035
2025-12-12 18:00:59.887045,Right,49.549462512659375,75.80074482480995,75.74068919246201,70.36059406455024,-42.46387311756553,61.996471155260224,72.87660880733165,80.8503875413735
2025-12-12 18:00:59.890046,Right,93.29059187087114,114.5554539077275,111.93407012129319,110.31459805916529,-54.029355269041844,99.74008302185393,112.15912781658699,117.48453413293464
2025-12-12 18:00:59.894049,Right,20.895970124256564,29.101584032876417,23.294737152347807,27.949092160211876,75.30123471179104,15.07599591788312,30.442072110250592,33.47783746794448
2025-12-12 18:00:59.898011,Right,-35.93732923649077,-24.820091669505928,-30.25501199660357,-27.353156724668224,98.95179178242688,-39.421966196081485,-24.325240921098157,-21.39769747055834
2025-12-12 18:00:59.902087,Right,28.750746729492676,52.8748135183414,48.5366880359652,46.43061644786212,-28.694975852340576,35.589825170638505,47.531398355946294,50.18720396232675
2025-12-12 18:00:59.907099,Right,97.95909308899718,120.62860516854562,113.72356596033205,114.0838635108812,-66.61149726549047,101.36388204561081,112.55158640578156,113.51047218765598
2025-12-12 18:00:59.911046,Right,48.837813673046185,58.34528282098472,47.908056482556276,54.46906071194098,60.840041543408006,39.20676290449046,52.93337105363025,53.651136356726056
2025-12-12 18:00:59.915110,Right,-21.586002510623075,-12.10693298318074,-21.505116702028317,-16.592024928468163,120.36259369995241,-30.94519649016729,-16.22698680513713,-12.456989224563586
2025-12-12 18:00:59.918121,Right,17.976842997479253,40.997797729825834,36.08340164134279,33.38724764624203,3.84502707565116,21.3821749677154,34.226563648786396,41.36953281870228
2025-12-12 18:00:59.922123,Right,86.32650143142382,111.67511498721433,109.35485567036085,104.65277685159526,-71.17367546472815,91.63588996350882,104.37379644610337,112.32981430971995
2025-12-12 18:00:59.926136,Right,44.72102530801203,57.42441361473175,55.716966948704794,54.14834850230545,31.17556328592036,37.81069024246244,53.81728626928816,61.92696361274284
2025-12-12 18:00:59.930149,Right,-38.71280303943786,-29.504164740501437,-28.529935659491457,-33.094279298209585,112.11491052676865,-50.10684589005541,-32.244470043704496,-22.026992489772965
2025-12-12 18:00:59.935158,Right,-13.898878400097601,7.761009087975253,12.693820311164018,-1.1361694361112313,11.767349507004838,-16.096083895739866,-0.25391908196615987,12.20269513502717
2025-12-12 18:00:59.939113,Right,69.04041567233799,95.92781420618121,101.1088434913836,84.03118286091194,-90.78808259619109,69.6138887010311,83.93681099607784,95.81315661671397
2025-12-12 18:00:59.943187,Right,50.54302999150241,65.92505689691461,67.87457399530103,56.071613525637076,-12.260657231425284,40.323550905814045,56.77039477195649,66.61083742949995
2025-12-12 18:00:59.946196,Right,-41.2663817449793,-31.776484498681384,-30.79483090422582,-40.52568871714175,92.48181481341453,-55.84749312946224,-37.24112736387178,-27.798147927765967
2025-12-12 18:00:59.950210,Right,-41.32280329057539,-19.477740719274152,-15.972822182899108,-31.04837285805843,21.504198756359983,-44.39832087927789,-26.87480844600941,-16.947153917048126
2025-12-12 18:00:59.954223,Right,47.36325840254722,78.92735754531168,83.06475438308553,66.11473696581379,-94.78899310967245,51.91387929368648,68.22040341392858,76.79142045971821
2025-12-12 18:00:59.958234,Right,61.70247035000648,84.39787905328558,85.01195298541279,75.12969849500223,-36.81834284407523,57.14635373055353,75.27313503465848,81.45758065662812
2025-12-12 18:00:59.963240,Right,-17.428182654766715,-4.26586425313144,-6.64878414478153,-10.729184730880661,92.88630397301313,-30.095949569207733,-10.399366737983655,-4.759459023218369
2025-12-12 18:00:59.967247,Right,-33.409104098027456,-12.88861632347107,-14.806457334663719,-21.430210941645782,59.71188963781606,-38.09553647595749,-20.84502479470393,-14.699277509789681
2025-12-12 18:00:59.971270,Right,48.7272243430416,77.8457016133325,76.11616182811849,67.07815816841321,-66.82924921861559,52.356990353539004,66.34134016181633,70.64516164067027
2025-12-12 18:00:59.974270,Right,75.19864818398491,95.36014792980859,90.80995252881257,86.71631467966654,-45.44637082855479,70.55285350464692,85.24177069414873,85.7478154279379
2025-12-12 18:00:59.978283,Right,-6.938822543619608,1.008452048554318,-5.5712872908770805,-5.423529858482652,85.09372571860149,-22.433611635075067,-5.175277220449061,-6.3294684170832625
2025-12-12 18:00:59.982291,Right,-47.81161933279509,-33.96161539692548,-38.530482999995,-43.159073953691404,79.84113369428815,-57.57473158259381,-40.77333514603379,-40.42982241944992
2025-12-12 18:00:59.986311,Right,25.49748880678817,51.8868478461809,49.89194583988865,38.71772628190229,-52.777664890112646,26.644172295003955,41.35931340305251,43.029948223775136
2025-12-12 18:00:59.990302,Right,70.49318739813316,92.73785689478973,90.1317093198013,80.29874912663945,-66.92399366572499,66.9704855124146,82.83280978999392,84.16456011529954
2025-12-12 18:00:59.995353,Right,-6.583178270899225,2.7606943718128605,-0.7916834768548142,-7.017208533536177,59.46618080561166,-21.869862248160644,-2.7095209292310756,-0.9540072138479445
2025-12-12 18:00:59.999368,Right,-75.61248181563133,-63.81814118703187,-64.84211036701163,-75.1857493200805,82.61579615834489,-88.00528989948361,-68.72100957737712,-64.82990655266622
2025-12-12 18:01:00.002477,Right,-22.819942334943335,1.9953007747972151,4.235354530610493,-13.114060592495662,-50.2983818303037,-23.214226140189567,-6.81400643773668,-1.9616342174558667
2025-12-12 18:01:00.006391,Right,41.17137405786343,64.78718040697277,66.54245309077669,50.37626811516384,-100.34011012508927,39.40670159736328,55.16434582461079,58.38308128199424
2025-12-12 18:01:00.010321,Right,-8.919242935313378,0.5283161167026265,0.09234213606396224,-9.906572651052556,18.278092075495806,-23.138741363720328,-5.1936216129834065,-3.146125991930603
2025-12-12 18:01:00.014406,Right,-79.43315304072166,-72.54459082773246,-72.02992762699432,-82.47023325687769,78.74550481632832,-94.81219323179539,-76.84698906690028,-73.24202935150242
2025-12-12 18:01:00.018396,Right,-36.26336414466641,-18.40058585659426,-15.019522203525412,-31.133283456831123,-34.57683886466475,-40.93531196087133,-26.08056334029243,-20.757620622447575
2025-12-12 18:01:00.023368,Right,40.699884192501486,59.392260610417,62.74383616716659,47.133440813697234,-111.29281135089695,36.71944120169064,50.65056939970964,55.14016717954655
2025-12-12 18:01:00.026417,Right,5.103341166839527,10.520622957556043,11.721864081497188,2.655490085038764,-9.660932709713961,-10.74379069022325,6.376401443128998,9.399687931174412
2025-12-12 18:01:00.029431,Right,-81.8612406637294,-79.86606104729435,-77.98248041432817,-85.92193603498163,78.09006592624428,-99.58629261903116,-80.64133290789323,-77.02347707872104
2025-12-12 18:01:00.034447,Right,-63.771770342205855,-48.17102135351888,-43.113053167428006,-56.54565050625388,-14.157099174790346,-67.52373370508212,-51.6458863426451,-46.930113585913205
2025-12-12 18:01:00.038450,Right,21.224363851131784,43.77481186523073,49.182411674337345,34.95725575551478,-115.13930787298887,24.733457187725435,37.142850826458016,40.85459217825701
2025-12-12 18:01:00.042409,Right,12.9061361739914,24.465123796500848,26.94534115573333,18.927122750617855,-36.49246142693664,6.603367018888093,19.614398414691095,21.630980871152133
2025-12-12 18:01:00.046475,Right,-72.0005003244587,-67.96394354174117,-66.23597007729404,-72.64073600645497,74.9513992149623,-85.3059582877977,-70.57521096571872,-68.34641201163322
2025-12-12 18:01:00.050490,Right,-71.70179295397975,-57.94401735649444,-53.331178186577745,-66.87092172698976,12.428687375680965,-76.59984466498645,-63.11013397296483,-60.21133002364513
2025-12-12 18:01:00.054446,Right,18.31798383599198,39.54044674411125,45.63682436761155,27.40487286005009,-103.36568708100731,19.78220435312869,31.42229637330456,32.3795250298208
2025-12-12 18:01:00.057574,Right,37.181891222096965,47.687040266428085,51.769379999932426,37.48233164859994,-50.2530410625277,29.4889806934043,42.14427470383089,39.60368070039112
2025-12-12 18:01:00.062563,Right,-41.11095318652224,-41.5003019302967,-38.3064895059797,-49.743324394170486,78.85333684161378,-56.78505757331186,-43.03374263687874,-46.91050686995004
2025-12-12 18:01:00.066571,Right,-61.31827872703434,-53.886133640531625,-47.84894839289336,-64.64213994129386,48.46133859808833,-68.1054869156651,-57.015273796558176,-59.79304327142745
2025-12-12 18:01:00.070577,Right,18.96531601670722,37.84964878881874,46.19060544264357,24.587001824504114,-80.6716043498036,22.754763220214045,30.482013026692584,28.183604139456293
2025-12-12 18:01:00.074577,Right,47.254108135522074,60.50842471385113,67.45164602887235,49.47678342447398,-66.94991999249282,45.04859133326681,53.83276619788376,50.865085949972126
2025-12-12 18:01:00.078567,Right,-37.736096709828416,-35.13266662742535,-29.46231357166107,-43.433951760438504,59.63376410401486,-50.08214859530335,-37.81636882161911,-39.86859592502151
2025-12-12 18:01:00.082523,Right,-88.53022295322307,-80.1339964965482,-72.05235647107475,-90.55453825543918,54.73001207429388,-95.31301988318796,-82.93178294897734,-82.09422608068417
2025-12-12 18:01:00.085533,Right,-22.69253770667538,-2.088825175549573,8.496208578901133,-15.819034322250445,-81.68685305337249,-17.9013397905494,-8.33463109216973,-5.925623168332095
2025-12-12 18:01:00.090591,Right,24.48679143132813,40.81305323847846,49.7243365027025,28.48507300318215,-103.82753198560113,25.80972314053588,35.0709501999263,36.27095791171814
2025-12-12 18:01:00.094615,Right,-45.6766686417418,-42.792384756659885,-36.70912451398908,-51.85548106622173,21.32791470322718,-56.10251022917328,-44.122084270198684,-44.26597734176539
2025-12-12 18:01:00.098620,Right,-110.10231779071637,-105.70993999135317,-98.58521328707138,-115.83119775375371,52.98173367913023,-118.87606532443624,-105.99120839994976,-105.71287087582823
2025-12-12 18:01:00.102577,Right,-53.5970156239282,-36.704716635180375,-26.441102896125813,-49.978295885612965,-72.69670430192673,-51.14568751568186,-39.98965002680234,-39.26818600796469
2025-12-12 18:01:00.106627,Right,15.714330679780687,31.60440673845369,42.294494963985926,19.80299680491339,-123.25129806899713,17.312676751487743,28.603933531063376,28.41932496542904
2025-12-12 18:01:00.110664,Right,-32.547646720850025,-30.326866311266713,-20.832220356205653,-37.292190986233436,-5.402307183516314,-42.276242503734466,-28.289077935766727,-28.850516766226065
2025-12-12 18:01:00.113668,Right,-108.44630087926998,-107.85784551348843,-96.82157671042296,-113.78290424227725,59.6814835944424,-117.91806544596875,-103.68310255758843,-102.95791462296984
2025-12-12 18:01:00.117675,Right,-70.43056293064183,-57.073549617180106,-43.00169848049336,-65.97456219236301,-50.592924957103605,-67.25128049914747,-56.63563262793741,-55.56564999108741
2025-12-12 18:01:00.122625,Right,10.47539785328263,26.419294883887233,40.16957570998056,17.19566164189382,-131.52849341632464,16.015095963048225,24.381874821636302,23.033988234764365
2025-12-12 18:01:00.126686,Right,-15.447619818100065,-12.787086974738031,-1.9947422760196787,-18.698240695177446,-34.33529871281462,-22.04895123206734,-11.743524271562109,-15.477091007244098
2025-12-12 18:01:00.130740,Right,-96.52643320006246,-99.17011955928194,-88.74280142652788,-104.35136595173572,55.83603417125778,-107.62226216025374,-95.32508299058873,-98.5441746968329
2025-12-12 18:01:00.134718,Right,-77.50188043858725,-68.56666143268421,-55.72400118391488,-76.86571200015896,-32.75744371734618,-77.84792690919858,-66.60139711224201,-68.44065044689432
2025-12-12 18:01:00.137731,Right,8.827880391956569,23.7300631154676,36.53784370594258,14.805729534386046,-135.9484205744884,14.100748357428529,24.518677075724554,21.60963322725911
2025-12-12 18:01:00.141740,Right,2.347931124313618,5.853670179807523,15.027835629511173,0.776131023932976,-60.1930670845868,-1.703631151936861,10.739119685537844,5.442898208570114
2025-12-12 18:01:00.145764,Right,-84.9583279205508,-89.44510226338298,-82.69664994930463,-92.58509632539426,54.94989767503648,-94.52224126178771,-80.88764318224821,-86.59450936797657
2025-12-12 18:01:00.150756,Right,-91.58081427300203,-86.51117332497779,-79.1602324280093,-92.6222173518363,-3.364719954355678,-91.42391237778065,-80.71623235725929,-85.29167613516438
2025-12-12 18:01:00.154779,Right,-8.834320842757734,4.269771357738136,11.149375231661907,-3.6460392529879755,-124.70650292916253,-1.6892939300523722,5.791155362549034,0.8995194721101143
2025-12-12 18:01:00.158797,Right,3.201935914134083,6.220174865662557,9.833477973278491,1.6574345859444293,-82.86241479070304,0.611888298401027,9.208897588827313,2.843804827274653
2025-12-12 18:01:00.162822,Right,-84.05711168322523,-92.26393605539124,-90.40495920807007,-93.84077566452106,41.50803517971144,-96.62288031434218,-85.32637131748015,-91.13250649963084
2025-12-12 18:01:00.165824,Right,-113.16357310192325,-114.78178677990581,-110.84587783264624,-118.64539968386089,13.231809415829048,-119.03618734923657,-108.70201471688051,-111.68320296446473
2025-12-12 18:01:00.169825,Right,-33.64805925443579,-25.13448552336922,-19.574771071230316,-31.919446360348957,-116.26235268564051,-29.808781027866644,-22.645147652121523,-23.64280871351366
2025-12-12 18:01:00.173773,Right,4.361704620900127,5.902651984761178,9.411380605058184,1.0025142040321953,-105.19583963699188,2.2089947632848634,8.964747236990661,8.321383331596735
2025-12-12 18:01:00.177838,Right,-69.66883317549946,-80.57362426210966,-79.19064529625939,-82.55072447563725,25.36087983768084,-82.90596938912495,-74.52341851244273,-74.01300074435494
2025-12-12 18:01:00.182855,Right,-114.40494473160652,-121.03433922773911,-118.3300856997812,-124.78356125977734,30.72344114313819,-124.309146093874,-116.72077114824424,-114.03394183071214
2025-12-12 18:01:00.186818,Right,-39.734047240221116,-34.262935139631736,-29.910256817676782,-41.314426777862536,-98.54532797003412,-40.062940053750935,-34.86478748300942,-32.036529324701405
2025-12-12 18:01:00.189874,Right,24.112705566963996,25.944319025074947,28.558277985999666,20.290796109242365,-117.73755723360227,19.480149903261918,25.494069370641228,25.8105147418064
2025-12-12 18:01:00.193845,Right,-32.079477371247776,-43.633179668180674,-43.23450670579405,-45.58732212223549,14.531228924981406,-48.72423208926193,-39.06855148624527,-40.33806233592259
2025-12-12 18:01:00.197922,Right,-95.52480184879823,-105.56254510641884,-103.51122328537167,-108.15238375524495,57.80610790308128,-110.72076928609022,-99.8524395036111,-99.94280822433211
2025-12-12 18:01:00.201909,Right,-46.25031332135404,-42.662174890410824,-37.37911408446962,-48.70912456480437,-62.93135654684738,-50.12426950465306,-41.31206685779762,-40.37272922856573
2025-12-12 18:01:00.205993,Right,17.626739246828947,21.70481475028646,26.91007028124295,16.242758019739995,-119.45740758338434,13.224447491651517,21.439970931194694,20.883791648237093
2025-12-12 18:01:00.210944,Right,-33.032617185643176,-42.397662977760774,-39.224186878931505,-43.754532146354904,-7.820958760425128,-48.62179652987106,-38.35171671479111,-40.74045006349479
2025-12-12 18:01:00.214964,Right,-112.44653928734624,-124.25945581528504,-120.13763654524519,-124.77330318373424,58.8253647232159,-127.29076708088542,-117.1539035907299,-119.13549793509446
2025-12-12 18:01:00.217968,Right,-77.26142163404438,-76.30218780936411,-69.05570245650597,-79.62093935762095,-48.319170464619674,-77.35709990926262,-71.47866435646574,-72.42044581571099
2025-12-12 18:01:00.222032,Right,8.081091950291011,13.188923992405762,20.564805188263563,9.830274513988115,-130.20932639639432,13.923234149544442,16.156520260679827,14.290186128266214
2025-12-12 18:01:00.225935,Right,-6.4686051312455675,-12.97937474934588,-8.387022881175653,-12.746875117634772,-30.987401040416444,-9.765416634523717,-7.616177955205785,-11.114209538871364
2025-12-12 18:01:00.229939,Right,-77.17182010293618,-88.71105538575648,-84.5679116160718,-87.63371854397701,70.01350739119152,-83.92468179124262,-81.98886375479196,-85.19540935180703
2025-12-12 18:01:00.234009,Right,-52.48391109047952,-53.22852004946617,-46.50651294720228,-55.53576351222728,-8.114787143753347,-48.586625495998305,-49.72487471261411,-51.66355302894226
2025-12-12 18:01:00.239014,Right,37.21809504331031,41.45645929427701,48.72143737108854,38.016890219376364,-112.0711577898146,46.36542918681516,42.92375369816,40.6614141960672
2025-12-12 18:01:00.244036,Right,30.493304061470553,22.083781269662722,26.531576228764607,22.201277378750092,-43.69997978102765,29.111807302229863,27.045473849015252,23.741119595280907
2025-12-12 18:01:00.248000,Right,-64.96605753718177,-82.76174046385131,-79.68259027854947,-80.72387676772632,68.18700379092479,-73.87511906596774,-74.77497662933456,-77.11797418211063
2025-12-12 18:01:00.251000,Right,-83.27849761397374,-92.0247594577013,-86.95636696035945,-93.17718593242898,9.838715918995149,-83.60140159523144,-87.37229569275223,-87.63998523809278
2025-12-12 18:01:00.254073,Right,-5.108871457588975,-5.178598641155986,0.8246543751956779,-8.817912500730017,-115.34775285446813,2.3504623119952157,-4.802936508851417,-5.2928385986888316
2025-12-12 18:01:00.258062,Right,9.923551047424553,0.43325776819256134,4.10352873060765,-0.5967428144940641,-78.56241847909769,9.483488766483788,3.2435339008734445,0.2485763569784467
2025-12-12 18:01:00.262082,Right,-76.73679991428071,-97.21079064126388,-94.81055169670435,-95.48128283722326,47.15417640059968,-85.22752318043058,-88.70745406066999,-93.15169961061474
2025-12-12 18:01:00.266089,Right,-109.36590709752636,-122.32412140951783,-117.3537383335497,-122.65186295998865,24.184467504455824,-109.08294719718106,-113.13212436584581,-117.07363914034795
2025-12-12 18:01:00.271127,Right,-28.148314571641095,-28.899256180266093,-21.64504021313769,-32.20397704341303,-104.46755555601703,-16.26267807988188,-22.966231434911606,-26.7825254568088
2025-12-12 18:01:00.274112,Right,19.631903379791765,13.752598591949209,19.472030125616584,11.472507040933124,-95.28724668546056,26.039457270388084,19.485856635779783,14.920019585035334
2025-12-12 18:01:00.278123,Right,-45.85486548297922,-63.75886616043863,-59.99675922899041,-64.40332832949207,39.764008675669174,-51.48939353887545,-55.65429357265384,-59.57392769003491
2025-12-12 18:01:00.282124,Right,-91.90803312448406,-105.9029751062626,-100.80523527866171,-109.20354820539069,53.94179920761235,-94.90220182112535,-99.05245537975861,-100.91352301121515
2025-12-12 18:01:00.286150,Right,-26.34120706046815,-28.104746924655046,-21.426449308193696,-34.81731544568174,-75.05284206644865,-18.845646703164675,-25.12558031194203,-26.831069590261905
2025-12-12 18:01:00.290158,Right,29.05015731271851,24.35963832325797,28.82708354749775,19.538716724586266,-104.75929964960596,34.03262900703703,28.05319524146762,23.706869926776562
2025-12-12 18:01:00.294163,Right,-30.593046603193216,-48.352529989759205,-47.07313559299655,-48.4750335315548,19.24933896384755,-36.16773314271268,-39.367076154696406,-45.5252117335549
2025-12-12 18:01:00.299128,Right,-93.22238584629667,-109.86587955670257,-107.97498465185345,-109.13444724080182,63.994915739000135,-95.98084376465704,-98.72315746072127,-103.69408516649128
2025-12-12 18:01:00.302127,Right,-38.137744318533805,-41.44538148918946,-37.0603484405583,-42.628415866296564,-52.969853129787225,-27.694409430412634,-32.959507017316355,-36.56834759740741
2025-12-12 18:01:00.305203,Right,37.01500048951857,34.476785338709306,38.193079681819654,34.80371641360398,-108.87249466288267,48.29620534549031,42.287252326874295,37.50740368288825
2025-12-12 18:01:00.310243,Right,-3.128262833924964,-18.90447509923979,-18.146852769430552,-14.435717913147528,6.587179765901965,-3.9409774221639964,-7.94319156306301,-14.605401529013761
2025-12-12 18:01:00.314232,Right,-78.89474160630925,-97.48909939634177,-97.33072268791148,-92.89361193040531,83.67143899451185,-82.23896642613545,-86.71714655001415,-93.57754922728054
2025-12-12 18:01:00.318243,Right,-43.102568646245345,-49.70619214791077,-48.31375897702674,-49.07050471341063,-15.579756735849514,-35.83366775966715,-45.337785871910455,-52.277276830944174
2025-12-12 18:01:00.322254,Right,44.42046384765126,40.590236892829125,40.488918117909634,40.18007094027416,-99.50906756382392,53.62141303784301,39.7700240207123,30.7799152929947
2025-12-12 18:01:00.326257,Right,28.07743985891284,10.474917510029627,6.543321564109647,13.293367291480536,-5.919028850261384,24.275117731558566,10.54921338463464,-0.445404086036433
2025-12-12 18:01:00.330255,Right,-53.676018446050875,-77.98842596101167,-82.96337914485048,-74.33450121405622,93.94034355924668,-64.16668990313337,-76.71663209146936,-86.91905361859972
2025-12-12 18:01:00.333273,Right,-42.42519658769743,-55.335457929511904,-57.94636588473077,-55.407196230116824,15.258242899351899,-43.667838558903895,-57.33701708460285,-65.58794387538364
2025-12-12 18:01:00.338276,Right,42.09543018676777,37.094160917455156,35.31972340626089,35.216984309765394,-94.96777335516163,47.009398643291206,32.974063899338944,24.833286831162695
2025-12-12 18:01:00.342328,Right,39.621161885188485,25.322487690827984,21.43708921331563,26.70828466535022,-32.68162929920072,36.30960067538399,25.59529963449313,16.917911583921523
2025-12-12 18:01:00.346310,Right,-49.00464798582834,-70.48229367260501,-75.10869939386612,-66.6827829565591,82.44325696242231,-57.51089051229064,-65.03058337704715,-71.812310371075
2025-12-12 18:01:00.350263,Right,-62.204259341422585,-73.37020761817985,-75.89049457445071,-71.88159219996305,31.90837262228888,-60.550530863023596,-69.2601941608882,-72.62340317405324
2025-12-12 18:01:00.354277,Right,21.18490614100301,19.73105571992346,17.735066582928994,19.393666712923732,-92.39045611767142,31.006414041898097,19.71190008935082,17.63390463151154
2025-12-12 18:01:00.358340,Right,43.1165511290601,32.66596150810801,27.58628066125675,35.227650672139134,-60.18041313182766,43.654646591814526,33.35113436199026,30.066005735869112
2025-12-12 18:01:00.361351,Right,-38.102763489150675,-60.30848461652204,-67.54722712525108,-54.941119194634666,66.29301970173401,-48.63608301147178,-55.94871367385349,-59.89147920736286
2025-12-12 18:01:00.366351,Right,-70.27036181979929,-86.13514483354811,-91.48649163781374,-82.89378753563506,49.05680949721136,-75.01502785761113,-81.84256353131786,-85.099109125018
2025-12-12 18:01:00.370383,Right,6.623541603679769,2.625362704748113,-0.6340247976258979,3.0388716985980864,-80.08504507450198,12.210315693715529,4.408509826847876,0.8415239205642138
2025-12-12 18:01:00.374383,Right,46.43495286243706,37.77009086919861,33.07353780851554,39.913301562970446,-79.49865303769548,46.769257109721366,40.59335929475492,35.48782906860288
2025-12-12 18:01:00.378399,Right,-28.756713866401697,-48.88270949260186,-55.54980867894483,-44.29939438668953,49.684600339580356,-40.07818694224261,-43.403290543850744,-48.3182756894239
2025-12-12 18:01:00.382402,Right,-79.56214056222962,-95.05311212872039,-100.46684739417833,-93.34525779035903,65.82195897441488,-88.21697786320146,-92.34596949157276,-94.79101073111087
2025-12-12 18:01:00.385429,Right,-7.641301029223541,-9.682984324230347,-13.301581345396698,-13.01653149266349,-60.67227961730532,-5.689676019377657,-13.55629052824952,-14.846355106536066
2025-12-12 18:01:00.389434,Right,60.60428884689463,56.782547724105825,51.48663805000979,53.311524956749054,-91.31146874306432,60.47735846661453,51.44440064445371,48.26033739953709
2025-12-12 18:01:00.393445,Right,8.18526056241899,-8.479928208071215,-16.550350453777355,-8.436554556807096,34.80512289311446,-2.02719325722137,-9.1666117247878,-14.221377916408528
2025-12-12 18:01:00.398437,Right,-58.434605172431475,-74.48619319835416,-81.91770756965707,-73.67132760964887,86.47483389900663,-65.27002912313765,-72.81910330575192,-77.4284461950374
2025-12-12 18:01:00.402483,Right,-12.969162878351199,-16.188705840861076,-21.228544285644602,-16.635825152741745,-28.866490245753084,-5.497825998638291,-17.12161433142319,-21.271969121509755
2025-12-12 18:01:00.406508,Right,53.68492355292619,50.519857789251546,44.90938816106063,52.81229919727048,-93.90291837182122,63.533161613926495,49.17510664657311,43.29688379068102
2025-12-12 18:01:00.409483,Right,7.072397795931465,-10.876641289862164,-19.12527721146762,-2.871568097412819,11.257988222043423,6.045549038546596,-7.652965250956186,-15.449043488144525
2025-12-12 18:01:00.413572,Right,-72.94609929849321,-95.3589655425676,-103.75992932139343,-86.16686034780287,86.09408295227695,-75.89077980024013,-89.82451532417326,-97.55968244253745
2025-12-12 18:01:00.417555,Right,-35.741267049153976,-46.2105980785127,-52.81597600936948,-41.248112166518695,-12.240190642949528,-27.615168658969196,-44.56473419260874,-52.087585297565965
2025-12-12 18:01:00.421518,Right,58.85227829368523,53.036266854462156,45.63185077268281,55.61562977642461,-99.246569604049,69.37425301097028,51.336264240737364,42.098340360265865
2025-12-12 18:01:00.425560,Right,46.09219609752472,28.762410886418365,18.357309691280534,33.3923455257609,-8.54973562511259,43.82598608569606,29.451717559350072,18.748707348109747
2025-12-12 18:01:00.430550,Right,-43.95189297268371,-66.61334151156188,-77.16347013807535,-61.13600949555257,94.06884720161906,-52.63983445940903,-63.14886701767682,-72.14993387024151
2025-12-12 18:01:00.434546,Right,-46.31188927973926,-56.940382502565626,-64.43749733998993,-54.01316775086161,18.004733697407573,-44.913236306667386,-55.488433505663124,-61.30866889174649
2025-12-12 18:01:00.437563,Right,34.22830090564457,31.453210913161456,24.797793607365747,34.0652388354938,-96.36626918374168,42.498956866078515,31.054964936163742,26.317111566328094
2025-12-12 18:01:00.441572,Right,39.71829091401014,26.243676738587965,16.580663809058024,33.15966798368754,-38.91148327267729,38.89148934058176,29.717749441304477,24.532951730070636
2025-12-12 18:01:00.445574,Right,-41.49736689776182,-64.62793753490405,-76.32988511389703,-54.815665425456245,79.18962832411307,-49.849091873209545,-56.23521126387641,-60.2779308157842
2025-12-12 18:01:00.449609,Right,-55.85301332603194,-70.38379260210058,-80.82350661406963,-62.50680253288738,34.4630652021533,-55.57487629064417,-62.43992516720755,-64.25686489890359
2025-12-12 18:01:00.453622,Right,22.26554379330264,17.8639270073254,7.872262366210634,24.810762391833123,-91.06358678418655,31.82290981909682,23.832930626718735,21.990410349535523
2025-12-12 18:01:00.458612,Right,40.14392714060159,28.66022413214523,15.861353648302611,40.124873138731346,-63.69392319807503,43.598477156650915,37.8929338751841,33.851428673398914
2025-12-12 18:01:00.462583,Right,-43.971206012043694,-65.19117889296467,-79.89984860373806,-49.29095582058653,65.31745518061962,-48.30084052297752,-51.00885734979238,-55.90515908777161
2025-12-12 18:01:00.465588,Right,-76.97053151752334,-90.2716999186814,-102.7147219233957,-76.02794659064239,56.52161129913202,-73.53169373030687,-77.47404130234645,-81.10691319985926
2025-12-12 18:01:00.469650,Right,4.871540385625849,4.461270660700393,-5.1481956432326115,14.737519762289594,-70.21126629183618,18.891692395125574,11.51099452249764,8.282141813637281
2025-12-12 18:01:00.473660,Right,53.44855754288437,48.15155273070559,38.10491178421216,58.257802855427144,-74.96132525368739,60.80113441268986,53.43027554861328,48.79111297316558
2025-12-12 18:01:00.477691,Right,-19.948119474178384,-38.59511708732316,-49.57067768283741,-27.3320905947985,51.06869993564851,-26.654266665365867,-31.28784209114019,-36.367795993661275
2025-12-12 18:01:00.481697,Right,-81.57867877557874,-97.87834375435341,-106.70333906060114,-89.47665856867025,68.575599974959,-87.52135304014155,-92.09703419979269,-95.60601481025515
2025-12-12 18:01:00.485657,Right,-22.3554115371262,-26.170197738341813,-32.69728907394892,-21.787475989942322,-59.961842437381165,-18.14112152326561,-25.38748636181117,-28.294509347826533
2025-12-12 18:01:00.490729,Right,44.61988620903503,39.13968933758588,30.90000300756219,44.63864123006351,-96.5111522137704,46.76223643895719,39.22511336432581,34.38500421941717
2025-12-12 18:01:00.493728,Right,1.0069658366810472,-17.63350829223782,-28.93862417908531,-8.098855496667966,29.96234829021148,-8.223607558327785,-13.080233345732267,-19.37806305330014
2025-12-12 18:01:00.497737,Right,-55.9313733267918,-74.85305323751527,-85.49863844236825,-65.55604978791234,90.76701301295792,-64.57463786342123,-68.69128471783188,-73.44442233085283
2025-12-12 18:01:00.501746,Right,-2.427630300526289,-8.709844287346641,-16.39188576608285,-3.1739539974732907,-17.51634719292599,0.22613797805752256,-6.216951196536684,-8.493918174513965
2025-12-12 18:01:00.505783,Right,72.61916578399905,67.45384778652806,60.13460247267358,72.85501897947688,-83.41066260572688,75.37363520016333,68.27767901009429,66.89218308637646
2025-12-12 18:01:00.509770,Right,31.173210882232524,12.885276201472152,4.279936974060547,22.23213534833485,21.518217411668502,21.758846307884596,17.2870134964287,16.70050743369211
2025-12-12 18:01:00.513731,Right,-52.694840623416894,-73.5399847797089,-80.03547826951399,-62.90498829473654,102.82798549239351,-63.72942417247759,-67.0479044495587,-64.94094618034433
2025-12-12 18:01:00.517821,Right,-24.492161413689246,-30.98069814011251,-32.49636437551817,-23.06143935887667,9.767414595043192,-21.892141818407254,-27.923251825588522,-23.286570301403117
2025-12-12 18:01:00.521812,Right,66.69920980138886,67.23239742196893,67.88367901775928,74.50159480595539,-79.96579557894711,75.63964785406097,67.45622617585104,71.62931245264917
2025-12-12 18:01:00.525832,Right,59.07019950323411,48.95935653215929,47.99371007316222,59.16164719468725,7.53041877807118,58.24519670676273,51.69051339113139,53.80653279226317
2025-12-12 18:01:00.530835,Right,-23.960476184280196,-40.24164845087216,-41.65806887645158,-29.569175887583697,114.9464228521465,-30.251039663756274,-34.98060518060811,-33.509809553288505
2025-12-12 18:01:00.533833,Right,-22.74235795898676,-27.681677566215512,-26.929236549913185,-20.821886453271873,45.47674340318554,-18.651172088337262,-24.82569041147508,-23.20767091469679
2025-12-12 18:01:00.537835,Right,56.52589957011878,60.40221611882953,61.675023232237436,65.76317644188748,-70.72890974442544,69.04308551708436,61.04070684940598,61.198742254757235
2025-12-12 18:01:00.541861,Right,54.39592519113103,49.41347149170906,48.46434133578441,58.84361654194436,-19.950258408727677,60.759209692432705,53.77120765779546,51.73946264708138
2025-12-12 18:01:00.545885,Right,-37.97214641539631,-51.421777249088336,-52.592177081038244,-38.54926402394085,97.42842138570268,-35.8982056356308,-42.12666180904853,-44.43798159997459
2025-12-12 18:01:00.549875,Right,-55.67740906065592,-60.386515007576236,-58.16006418885809,-49.34005229551076,57.633597466907304,-42.42379044533209,-51.91832475454794,-53.44026905255669
2025-12-12 18:01:00.553906,Right,34.90609244153438,39.357128765816014,43.399857123462425,48.30083220791312,-66.13408757720754,58.187803250825255,44.55664930053172,41.70617840394698
2025-12-12 18:01:00.558918,Right,71.40221002272574,66.05811926186288,67.1867745937052,77.68152947460658,-41.0800884818982,86.43688152843697,72.74895174685662,66.69795564460583
2025-12-12 18:01:00.561925,Right,-6.170931954104162,-25.482338229077868,-27.698859455376805,-10.701135411360156,87.80124267048814,-3.177637882173258,-15.087136556005134,-22.762321617174166
2025-12-12 18:01:00.564873,Right,-47.91869935027489,-63.05062780658409,-65.11014985247311,-50.1631892720452,80.23255084516859,-40.59929745701811,-54.5744521653578,-61.59798399614374
2025-12-12 18:01:00.569928,Right,23.950883510182848,20.17125117890464,18.713400106295012,29.764306404165836,-50.35942149197763,41.46598267913532,22.43093019322623,15.399778348943073
2025-12-12 18:01:00.573943,Right,71.11085198540741,62.53321662243252,58.61040069378214,73.50551502705093,-61.6318543909656,84.11845873558354,62.60453325378148,53.95853495657502
2025-12-12 18:01:00.577913,Right,1.2954777974468925,-20.3267899145103,-26.590009075414855,-5.962903912384718,64.89249576318798,3.1362137224978994,-17.768719659879935,-26.876256711926544
2025-12-12 18:01:00.581976,Right,-55.294799888603166,-74.0620017506335,-78.47336559538962,-60.384196229058034,90.08937575424352,-49.976047621456644,-71.44762858184731,-78.74512215852155
2025-12-12 18:01:00.585986,Right,12.295736137235053,7.284237113814015,5.9514612847415265,18.254285958912988,-34.44956465825817,30.08337623425348,6.719916271882539,0.5453732681780821
2025-12-12 18:01:00.589987,Right,86.30896723183889,80.7712614667289,78.77152478737116,93.15336131629283,-75.53298253619505,103.10268947349573,80.69692484096231,73.10892282287023
2025-12-12 18:01:00.593000,Right,35.995775761642136,16.817249858060677,12.237275334682636,33.02930337149701,44.49439049715511,40.52146691406938,21.887501977776992,12.876314506349445
2025-12-12 18:01:00.598031,Right,-41.60221348609821,-62.6532540158405,-66.77811130407645,-46.74273264484418,100.89534376377196,-38.22069422257255,-55.22753538107827,-63.43099329400866
2025-12-12 18:01:00.602026,Right,-2.7768634596660604,-11.840988963176642,-13.584923134396377,0.7219697831533267,-13.680670042394922,11.484469849579,-7.124274703808624,-14.154102828102623
2025-12-12 18:01:00.606076,Right,78.1651179263556,70.91143506050321,68.7259474815146,84.09358418730108,-87.0687740896592,93.53692693501716,74.84379040625754,67.42680056393874
2025-12-12 18:01:00.610056,Right,50.67250940766894,30.628023998213393,26.025082639032917,48.239588924899635,17.45264334730018,54.057254098975136,38.6291517691061,31.298181120082518
2025-12-12 18:01:00.614074,Right,-32.08593390090982,-55.53968994301067,-59.52487932960503,-37.120968309656746,106.08364607502153,-32.302050134042474,-45.55601817868774,-50.205580503330566
2025-12-12 18:01:00.618057,Right,-16.645849060265846,-26.510326181931305,-27.155792244368058,-12.269965362500216,16.074798725239816,-6.071220703078325,-20.554406970109994,-22.257168280639235
2025-12-12 18:01:00.621107,Right,61.71904768492732,59.30409264753507,59.29350627876556,71.40201225377427,-81.55750836724474,76.72091383464203,61.99459643388764,60.417342378861576
2025-12-12 18:01:00.625083,Right,47.761671087892864,35.79461321537201,32.86459915390151,50.4022242546539,-2.949137026153039,52.407937335202405,41.38970077246722,38.68856194641921
2025-12-12 18:01:00.630102,Right,-38.116819442526776,-55.322015477449895,-59.610057094487274,-39.625612897845144,105.24312004618696,-38.57765048941292,-46.26317913520961,-47.9881782193479
2025-12-12 18:01:00.634109,Right,-34.92793401599101,-39.86783155035846,-42.17984871285444,-27.589607654249335,41.77094485578709,-24.201255568270426,-32.95261150438364,-32.42028957088041
2025-12-12 18:01:00.638132,Right,56.798138780051886,61.754735835527754,60.40526789092837,71.67344900707326,-71.52927902079318,76.07893446902199,65.32229344022653,66.1573977635835
2025-12-12 18:01:00.642154,Right,71.59058368762362,68.13329335226081,64.79150569894045,80.33579601358542,-17.98575882588557,82.75379201879423,73.58263490232639,73.09252385352556
2025-12-12 18:01:00.645160,Right,-15.912638760724803,-28.37090506446566,-32.61157492615166,-14.407099299700121,106.98462043171457,-12.984020105920536,-19.373021420925397,-19.737778525972317
2025-12-12 18:01:00.649157,Right,-44.36580900444187,-48.04686608398879,-50.05362988750494,-36.986879750076696,72.93133846893033,-33.93244947237963,-40.59643249385999,-39.37372072937251
2025-12-12 18:01:00.653121,Right,34.813590989707336,42.5267651740387,41.66367605801133,50.766801321767616,-55.02969403919633,53.8851015499813,46.06611467110952,47.37190822829871
2025-12-12 18:01:00.658175,Right,69.44796405594934,70.86268502079383,67.3489783217301,81.04029733423795,-37.77474656786944,80.54061886887303,75.10023177463972,74.68879846058735
2025-12-12 18:01:00.662184,Right,-7.294780968032683,-17.459016274710848,-23.333989343675057,-5.065093620058633,91.1484682306691,-8.50009713133295,-10.054152935634193,-11.04497839486703
2025-12-12 18:01:00.666211,Right,-52.78674738996233,-57.95985237840978,-62.387009929581836,-48.7097303739838,88.86969612619578,-51.2250676182357,-52.45660277303023,-52.27468028715157
2025-12-12 18:01:00.670228,Right,16.39583544115885,23.442847377769795,20.810790388812165,27.67053849171316,-42.34128922965829,26.378236849215682,23.038176368058203,23.232101711726955
2025-12-12 18:01:00.673226,Right,68.32028827569502,72.37130368214775,67.97705685870096,75.70681353180225,-59.289964239633264,72.47706827161437,69.8333967184227,68.00872595769351
2025-12-12 18:01:00.677223,Right,4.673401147961158,-2.468363014012084,-9.173024266943685,1.6788883266863195,67.8731961533449,-3.726541258832185,-3.0682830261321214,-5.8633657867321745
2025-12-12 18:01:00.681185,Right,-53.992379068453374,-57.173840218585156,-62.36730268696556,-56.15103104405898,100.65339756406684,-60.466902823505734,-58.88912409759803,-60.05903538301186
2025-12-12 18:01:00.685264,Right,4.698896429501474,16.012892447972717,13.775817632957114,12.460585615970558,-21.801431731022603,9.768109110690602,9.607433629943863,10.008379285805177
2025-12-12 18:01:00.690261,Right,72.66943670092132,84.33469243066054,81.79655305308552,81.22758127549332,-69.98778018390658,76.68996933462313,77.15376029995576,77.28836319593051
2025-12-12 18:01:00.694273,Right,22.409880623245044,21.232766930070852,16.746216439476484,21.946690413336,45.31345765132937,14.331968103105282,18.644257021636577,18.9241522504267
2025-12-12 18:01:00.698302,Right,-55.48402124722543,-58.01738138937753,-61.42496401302196,-57.292410408552314,105.09829366871418,-64.63878733619549,-58.41715409427866,-55.95421046695043
2025-12-12 18:01:00.701251,Right,-21.85024387803969,-11.798503712054298,-12.335594081687304,-14.857857341434283,-8.444290996361815,-19.846522470761556,-15.557563666865235,-11.330797859308177
2025-12-12 18:01:00.705307,Right,52.20643493072021,64.79245016338609,63.94245760605918,60.92015711595559,-90.65973365150057,55.83176653277587,59.05203224412594,62.513777292274426
2025-12-12 18:01:00.709304,Right,21.24071157281469,21.13116362810115,17.3023826164208,20.305076501099393,4.927994022749772,13.266984754593068,18.87771373986061,21.1556991238499
2025-12-12 18:01:00.713342,Right,-58.934919028812146,-63.35522972088256,-67.90364078270977,-63.67560441070691,95.59669999886682,-70.12875429109226,-62.822008897991964,-59.88423153955546
2025-12-12 18:01:00.718334,Right,-33.84905135392546,-25.85030515383596,-28.806026626871244,-29.69194922511997,13.248086996842176,-33.493760751913214,-27.989493987859078,-24.439373809039807
2025-12-12 18:01:00.722306,Right,59.48486414599938,74.01732187731704,70.24518045323384,68.8961491550699,-81.70354725383731,64.9313653129966,69.34347442014541,71.06486241644234
2025-12-12 18:01:00.725304,Right,57.64090850608409,61.29746252632958,54.08626525456566,59.32613911150838,-3.6225220190463006,52.171071938296336,59.7566635642047,59.23347180806377
2025-12-12 18:01:00.729366,Right,-29.157219161499597,-32.92889332745108,-41.01686106226043,-33.436947514758685,106.92501131134486,-41.5886889616213,-30.4529110295407,-30.326997527385174
2025-12-12 18:01:00.733324,Right,-39.996406824544465,-33.66504447208354,-38.883454421444185,-37.40714754614601,43.63737037586179,-43.02668876521557,-32.41786250695441,-30.02001128585198
2025-12-12 18:01:00.737407,Right,35.575245482195896,50.46736945119301,46.801179418091124,44.55893047693735,-79.23591652342293,40.18715271173687,48.92286650317601,51.403782442731426
2025-12-12 18:01:00.741419,Right,42.29613565417276,47.78596938441842,42.26031626571148,44.53228752879477,-38.06323067151607,37.993159696863586,47.83613849340236,48.33441947462052
2025-12-12 18:01:00.745379,Right,-42.77826496969283,-47.419626179174884,-53.608600514764476,-48.54241239483599,85.22226355426028,-56.635144263865186,-44.83985936875615,-44.88914255965301
2025-12-12 18:01:00.750433,Right,-61.53399397989597,-58.17250378166045,-61.14792044360365,-62.14600759633504,58.73014432063792,-68.9594362363614,-58.469290079402526,-56.86027232899596
2025-12-12 18:01:00.753440,Right,29.36393311990105,44.180369960893586,43.971375049705784,37.17541297232856,-65.80220506382466,30.738675814594444,38.73401697736517,41.832585491651116
2025-12-12 18:01:00.757462,Right,71.62793313103975,80.62590676020045,79.16854368510485,75.46913404290899,-52.3557773534194,66.22502739766833,75.02542813417313,79.04104337910394
2025-12-12 18:01:00.761478,Right,-7.0544519532832055,-9.370854343427709,-12.693246357684075,-11.953887786750784,74.63471577870587,-23.231735784444027,-11.970556049616789,-5.760202952425971
2025-12-12 18:01:00.765565,Right,-63.99776960748568,-61.32554164564135,-63.4171742647427,-66.11965281807716,74.10886667501109,-75.51488742301399,-65.06106120201821,-56.20674422259253
2025-12-12 18:01:00.769559,Right,-7.502291857910677,7.141242707424681,6.514285888415998,-1.0475144086140062,-60.084556255333155,-8.181899893764694,-0.8247102688828818,7.581678073342118
2025-12-12 18:01:00.773538,Right,40.240618822808756,50.78409848071715,48.11593355575769,44.140816851451746,-84.72676860052525,35.71246653973458,42.92895934196258,47.579639240526376
2025-12-12 18:01:00.778550,Right,-18.165758243436358,-21.12657859907449,-26.567965239494924,-24.13904647365598,41.45477131464577,-34.8224554339904,-24.859543301934536,-22.829503813461997
2025-12-12 18:01:00.781555,Right,-68.82442277342852,-70.12073915965993,-74.69879481465955,-74.28608120307217,82.60339281339111,-84.26889156375728,-73.76065043195831,-70.62753664770753
2025-12-12 18:01:00.785567,Right,-3.210198569599015,9.495478026679848,7.339850322873417,0.8821394259048247,-33.69623522871916,-7.58867700845758,0.6491713538944168,5.891554191704927
2025-12-12 18:01:00.789560,Right,69.45056434574144,83.69720588696691,80.93100087088848,74.26577433270177,-83.8396801144263,64.36447500246004,72.28158488895042,77.83565219011325
2025-12-12 18:01:00.793512,Right,17.721259970803658,20.178569916160995,15.227932717595479,13.306050643333947,29.931731860891887,1.3372939416981353,11.878515067346598,17.34702755946637
2025-12-12 18:01:00.797580,Right,-67.49858252387457,-66.24314143899028,-70.30180218858118,-73.60369027851993,94.90731037852674,-83.64075906008156,-72.32670276055796,-65.58771679621896
2025-12-12 18:01:00.801606,Right,-37.40397481209038,-23.39585587305919,-24.61336370030517,-34.60327377262729,-13.212381722336431,-39.95527114703009,-31.435406386002796,-24.03826016966741
2025-12-12 18:01:00.806658,Right,43.48769709352018,60.57943205765878,59.036004396931276,48.37400249764505,-95.63935335307542,45.50795338113039,52.35042113500458,57.716545706107354
2025-12-12 18:01:00.809630,Right,22.636422402183598,26.94389964734728,22.224141812727794,17.484596299604164,-0.5794397011923138,14.467905862556563,23.348123738511276,26.24596774384554
2025-12-12 18:01:00.812629,Right,-54.93835295831013,-56.16186189395921,-61.56671029431391,-65.06254946974332,93.66498651120492,-67.4385588365285,-56.86278334090275,-53.69029740143196
2025-12-12 18:01:00.817566,Right,-34.460311669772636,-24.53393186231915,-27.367623130290212,-36.28630780055573,12.015397575702082,-37.568608466827754,-28.51160859914671,-23.509209644571456
2025-12-12 18:01:00.821670,Right,54.39122253435926,70.51018196262885,68.52616136634333,58.53893058484937,-91.06959442154039,54.99777374956375,63.00143981637848,68.26253703745351
2025-12-12 18:01:00.825659,Right,50.176615422489704,55.67322339241582,51.37024890146222,47.87055997374591,-21.99915564237017,39.321621396763476,49.672243749821064,54.091080112968484
2025-12-12 18:01:00.829669,Right,-38.53660752423275,-40.11581777233732,-45.362901480512846,-45.812861893178706,89.02768419376298,-56.855263594820826,-44.629480968045755,-39.64141303855649
2025-12-12 18:01:00.833666,Right,-48.23072890247022,-39.052709009414684,-42.06246504921364,-47.773416140467816,31.741794315075822,-57.41113892325666,-47.57717526906163,-41.378630954230175
2025-12-12 18:01:00.837679,Right,34.943541806804205,53.529038016629784,51.627521872254874,42.72860983307328,-90.12498262652662,34.104571116466104,40.699634078317104,45.98583438254718
2025-12-12 18:01:00.840707,Right,50.79001330412211,59.950067861056596,55.862983918424106,52.153852577979706,-52.008919842224714,42.38667366294612,49.53643009826919,52.55488322165911
2025-12-12 18:01:00.845708,Right,-33.0781955048551,-35.51036052643394,-40.92262907696568,-40.632688236120885,72.37868866492863,-50.07556150340315,-40.86239793142522,-37.98277370250071
2025-12-12 18:01:00.849667,Right,-57.187287941820614,-53.36703019604829,-56.68728750602895,-61.108667973949196,50.28137021794828,-67.42028828167531,-59.25909036119447,-54.114153994665685
2025-12-12 18:01:00.853731,Right,33.94215000142867,48.409511966652644,46.48466369059133,37.45335021370738,-73.49947267124298,32.64407043286883,38.277778252897406,44.77814591789138
2025-12-12 18:01:00.857734,Right,85.59169874027793,93.7541487408671,89.28351114104589,84.79179777669924,-60.637149373374996,77.2815653844209,83.58138122980381,89.330935619113
2025-12-12 18:01:00.861782,Right,15.96876468784285,11.614302424794005,4.451148763298988,6.335448755799007,73.15497153663819,-4.0028547348292705,5.0475912246238295,10.296856912573276
2025-12-12 18:01:00.865771,Right,-36.91347887643133,-37.39636099850031,-43.380005249984606,-43.3526016109372,85.32950281313606,-52.92105627146793,-43.844262593614985,-37.96825328149862
2025-12-12 18:01:00.868768,Right,23.988537144688962,36.00875200067094,32.158673307016215,27.45431814609583,-41.64257004799583,19.495292905041424,26.40280560812971,31.826664919215546
2025-12-12 18:01:00.872817,Right,76.70420400234434,86.65215079778864,81.78396140382029,79.32938035848747,-68.19000560791756,70.2727324948055,77.69101986105488,81.1874348236779
2025-12-12 18:01:00.877798,Right,15.296290695159769,13.568171376540704,6.9851574788172,9.18034452144093,55.084692714590346,-1.3126204117888847,9.215827983027339,12.362632229745941
2025-12-12 18:01:00.881750,Right,-47.68398576395521,-47.228661096778524,-51.99010207916763,-52.90997308521946,96.54891919414513,-61.61643875818481,-50.597645610559994,-45.1178717652183
2025-12-12 18:01:00.885842,Right,8.04527281643459,21.851707409910887,20.203489434064977,12.48726239098687,-21.98577375638706,6.466023222405056,14.514474252355285,21.670670433624764
2025-12-12 18:01:00.888831,Right,81.87792923683264,95.80381779021263,93.71144707593339,86.93214193822496,-78.87096163659044,80.40379846931592,87.15865836099692,93.12260070278717
2025-12-12 18:01:00.892845,Right,36.47229938895907,36.97556968455319,32.280123359450954,31.712070103601945,31.807121458114125,23.421259748243756,32.288381995074815,36.87388677610579
2025-12-12 18:01:00.896851,Right,-46.208634510301636,-47.43920040665762,-51.95084565412981,-53.07030230995588,101.34659344245665,-59.725242324307146,-50.016792139253084,-44.32607831293353
2025-12-12 18:01:00.900849,Right,-16.53473377154296,-3.5037976427629474,-5.659958225371156,-13.42204139686146,-2.854644227587414,-16.396643937528097,-9.265517760504736,-1.9176010110895731
2025-12-12 18:01:00.905876,Right,64.98272037459901,83.59926589437964,81.3779651659006,72.99662588267893,-88.39703893469232,70.32040039799358,75.99615882447688,82.91546817711424
2025-12-12 18:01:00.909887,Right,42.90710652785856,50.32125985887615,46.1596316474097,43.90407677702024,3.063867758064589,38.03758714119431,46.165886646345825,52.082355408107105
2025-12-12 18:01:00.913894,Right,-41.548451759897944,-39.32779689149902,-42.32404274518558,-44.29204674166431,100.09911477279093,-51.72399008011962,-41.482522384658296,-34.58598553753109
2025-12-12 18:01:00.916898,Right,-28.381744985472324,-14.724005847583612,-13.395801934819247,-23.896363811119954,22.008356128049854,-30.14619706609119,-21.569540319429507,-13.129917935602862
2025-12-12 18:01:00.920912,Right,60.93191620345897,81.43067845582482,84.8652516581351,69.11442855843597,-83.71214272191355,62.690436589289675,69.4890645459709,77.20987729540866
2025-12-12 18:01:00.924920,Right,62.38321788530811,72.15556646513869,74.1643954359206,61.86074288990494,-17.858245232955596,53.19445251748948,61.827348838971375,67.68439383274745
2025-12-12 18:01:00.928943,Right,-26.499655070470908,-25.31129616895487,-23.55601468903842,-33.56955524282239,97.14410293462606,-42.11438657862345,-31.283603191106522,-25.406409289342264
2025-12-12 18:01:00.932880,Right,-44.71509846988738,-34.54331624335464,-30.28642092645896,-44.643149320916564,45.530453367837254,-49.65517509923484,-40.36934867082164,-33.30716932312862
2025-12-12 18:01:00.937970,Right,31.313396167484825,50.18671601870301,55.13469139870358,38.95404891069484,-78.53676191518025,36.04054037955029,42.68963790331327,49.09907636167554
2025-12-12 18:01:00.941973,Right,46.96031130472693,56.609234125717194,58.54157332754403,48.64416386735684,-46.88358415552284,44.18640759270238,51.45717957519446,55.99678830193443
