timestamp,label,FC3,C3,CP3,Cz,FCz,FC4,C4,CP4
2025-12-12 18:23:06.149583,Right,2312.2882686637327,2741.135087564106,2727.0533313496494,2499.245667033103,1425.0257152566178,2335.841207393013,2568.315856671726,2814.686625289427
2025-12-12 18:23:06.166634,Right,12446.315525942431,14754.889626452907,14678.83623644013,13453.297514723039,7725.936881899329,12573.235849559895,13824.420679897717,15151.982612112417
2025-12-12 18:23:06.170638,Right,28501.19507471253,33790.33351171424,33614.94541307648,30810.188208979875,17857.618110204578,28793.875822658516,31658.71192714521,34703.3521435267
2025-12-12 18:23:06.173639,Right,35628.17533347964,42249.30810075425,42026.08175570762,38522.539782754844,22552.774890047338,36002.18754953871,39582.92392828941,43396.85798342092
2025-12-12 18:23:06.177608,Right,24165.227874703094,28672.8189394214,28511.773925370275,26141.323554207593,15367.500517853812,24436.413372970426,26863.063706637302,29457.77499487094
2025-12-12 18:23:06.181684,Right,2874.633593566541,3429.7098025690066,3390.335936684336,3126.7512862831645,1604.0796812450571,2934.594085578312,3215.813482564641,3531.598866057
2025-12-12 18:23:06.184631,Right,-13188.921682447515,-15637.680169976491,-15582.596633010195,-14248.268059811206,-8714.937148528348,-13304.01369751789,-14644.749616993882,-16049.740581170656
2025-12-12 18:23:06.189684,Right,-17313.201312277233,-20545.24229126313,-20461.79054559389,-18714.058823771367,-10938.369112433487,-17484.802357581968,-19242.58752502408,-21083.327259911457
2025-12-12 18:23:06.193699,Right,-12433.795516695478,-14751.856136835879,-14692.431224354834,-13436.6055959863,-7472.729221787071,-12555.20990777068,-13817.474938788393,-15131.94950277917
2025-12-12 18:23:06.197658,Right,-5349.019972551672,-6335.970378867933,-6316.920082118013,-5774.634899907745,-3212.5349225117825,-5389.1447636755765,-5933.399780776002,-6497.425679661566
2025-12-12 18:23:06.201723,Right,-1468.7715142521774,-1737.953219883144,-1742.5709080967354,-1584.188575253007,-1141.124653835257,-1469.875189871178,-1623.759526588372,-1782.3687403933145
2025-12-12 18:23:06.205751,Right,-2297.010524045909,-2731.2547423788346,-2730.2357113912003,-2483.4271126341773,-1532.4964595946367,-2315.2284019432263,-2554.2877428183565,-2799.58852332714
2025-12-12 18:23:06.209749,Right,-5528.187289410736,-6558.914233770571,-6536.737740421202,-5972.852689573076,-3236.7045111512416,-5580.843257928849,-6143.2995444478,-6727.702809878159
2025-12-12 18:23:06.212762,Right,-7539.78128969192,-8933.672962681158,-8899.28177981393,-8144.367202715832,-4639.167155488918,-7608.49104102375,-8370.670782469446,-9173.714901908766
2025-12-12 18:23:06.217759,Right,-6674.699576243642,-7913.364120408194,-7885.366688103415,-7214.884504787624,-4447.462796784937,-6738.984184922301,-7415.544778843294,-8134.551302502514
2025-12-12 18:23:06.221775,Right,-4399.860318795545,-5229.438162181992,-5214.736019991455,-4762.503070634208,-2891.1139420922846,-4452.466955536162,-4903.145856132265,-5377.259930934873
2025-12-12 18:23:06.225736,Right,-3242.990713554318,-3853.7015792591264,-3844.1684040148975,-3509.5536262873793,-1758.6307991185458,-3285.372383416514,-3618.3828373468714,-3960.4465107917786
2025-12-12 18:23:06.231828,Right,-3933.0134084424935,-4655.818262369372,-4641.996695318958,-4250.011186361546,-2260.792581163463,-3973.318881959538,-4371.76696487295,-4788.5669272542
2025-12-12 18:23:06.234821,Right,-4961.426712512737,-5875.14232967468,-5856.525502442615,-5364.198883769917,-3343.0503736492246,-5010.248536191764,-5511.667024364113,-6047.680087702582
2025-12-12 18:23:06.237835,Right,-4745.192009797669,-5633.683437472675,-5615.512545466889,-5136.183657366317,-3212.718853053986,-4800.513998305425,-5282.544679500395,-5796.486987191718
2025-12-12 18:23:06.240774,Right,-3536.4659323000815,-4201.432768626604,-4186.495775403455,-3826.7331036728574,-2014.4468006710522,-3581.0483349111164,-3940.4436112951953,-4316.154178157914
2025-12-12 18:23:06.245841,Right,-2841.6964244036935,-3360.9722431486007,-3346.5931043738965,-3067.6740813800134,-1505.884169257246,-2867.4778833830496,-3152.4273686136585,-3450.715685953619
2025-12-12 18:23:06.249805,Right,-3341.1083709474187,-3947.868739980273,-3929.1532084832434,-3607.3585081428755,-2253.479711665539,-3364.931369105354,-3698.336172674317,-4056.7990202081855
2025-12-12 18:23:06.253880,Right,-4053.366349957534,-4807.142717619892,-4782.566272642463,-4384.095075700665,-2843.3449308838462,-4092.2540934171993,-4499.383842378622,-4935.886682484066
2025-12-12 18:23:06.257902,Right,-3739.210028814967,-4441.889775964897,-4416.05940787564,-4045.2211229710374,-2232.918267442379,-3781.6213388821343,-4157.374501504004,-4552.071037871996
2025-12-12 18:23:06.261917,Right,-2603.5576926224167,-3082.217607202241,-3061.435458702501,-2811.066919842502,-1306.348722287803,-2627.329512236407,-2885.85989873996,-3155.4841068054084
2025-12-12 18:23:06.264920,Right,-1998.5896293122787,-2356.717728757765,-2340.934334449237,-2156.206427176716,-1294.788231672952,-2009.0899945854908,-2206.374215624295,-2419.412686565658
2025-12-12 18:23:06.268928,Right,-2542.51446143433,-3015.0284236844163,-2997.3731234502047,-2752.2507615117356,-1904.604052742594,-2566.027394308825,-2822.207807975821,-3099.128794987686
2025-12-12 18:23:06.272950,Right,-3257.603152384283,-3875.3004535445943,-3851.8333901141305,-3529.9665747690015,-2048.504743810394,-3299.044262784533,-3629.677572945133,-3976.725475973217
2025-12-12 18:23:06.277046,Right,-2942.3521791920066,-3492.596515448997,-3468.6338402631227,-3184.7175673883175,-1565.3653503209352,-2977.90875272674,-3274.0381313792896,-3581.3797746798955
2025-12-12 18:23:06.281996,Right,-1853.9147954020882,-2189.731740035815,-2172.082012966275,-2004.5635219261749,-1149.127697481541,-1869.9568355382653,-2053.9180661318824,-2250.750334212091
2025-12-12 18:23:06.285999,Right,-1320.9180798854213,-1563.481526870979,-1549.6611296483316,-1432.1729905549437,-1121.0214741324307,-1333.3980918736197,-1465.9581710846396,-1613.3145774910226
2025-12-12 18:23:06.290014,Right,-1859.5130707739154,-2211.946005436359,-2193.6913172735367,-2017.2138561314205,-1227.2852713188622,-1884.8100472291699,-2074.602792236954,-2276.1481487050187
2025-12-12 18:23:06.293039,Right,-2491.9105870286003,-2955.2391580315307,-2931.529489405453,-2696.9913623668253,-1292.6243671242846,-2522.040732954396,-2774.32609654672,-3037.2670833282173
2025-12-12 18:23:06.297009,Right,-2180.9421550023835,-2576.407437857124,-2555.433893344947,-2358.813351231045,-1281.1392772434046,-2202.1396400770172,-2420.6555756430607,-2653.943219142733
2025-12-12 18:23:06.301038,Right,-1255.4367771225516,-1486.8136746922974,-1473.68501080852,-1364.2832917615306,-1031.9256885780487,-1272.0130438565975,-1398.114910639939,-1539.0160531067522
2025-12-12 18:23:06.307037,Right,-843.5467537032673,-1012.3393672393868,-1001.9176320924889,-923.79976223025,-609.7776444873889,-866.2673075804487,-952.5885336875217,-1046.113892767462
2025-12-12 18:23:06.310053,Right,-1271.6301636211574,-1515.8457004230004,-1501.159940143465,-1381.8339741439559,-528.1421306505217,-1297.0551218870096,-1425.2604387613246,-1557.3037537235068
2025-12-12 18:23:06.314069,Right,-1723.5428985689068,-2038.061947291717,-2020.0532995206304,-1864.0473177991807,-956.4319799051736,-1742.0149794854224,-1914.3916818456491,-2097.291993235005
2025-12-12 18:23:06.318058,Right,-1463.9314673898043,-1732.2667687734356,-1716.4379533368628,-1585.216966441134,-1187.9353876896785,-1476.8974934414728,-1625.8156023900956,-1788.5509697109228
2025-12-12 18:23:06.321070,Right,-781.5357447081478,-935.5983200342162,-923.0306875809329,-851.3274846846471,-672.9560125504504,-795.3232261526864,-878.7094374486478,-966.4287010004045
2025-12-12 18:23:06.325077,Right,-465.3565552413929,-558.1828979022102,-545.2273024788592,-505.527444461477,-62.72545145516051,-477.7295344186714,-526.8926077560754,-572.0484337487724
2025-12-12 18:23:06.329110,Right,-734.5066554771038,-862.9973065162776,-847.6865837392397,-790.4188355705701,-260.03824838163564,-742.4359640780604,-812.9645542394137,-886.8895201024134
2025-12-12 18:23:06.333103,Right,-1059.5884421692463,-1249.1630022304598,-1232.9644592886325,-1144.712502646842,-878.9848445228417,-1070.705419259728,-1171.9054657141678,-1288.5372609996703
2025-12-12 18:23:06.338118,Right,-923.0786055156495,-1103.0161259891465,-1087.2685140169924,-1004.319733286975,-814.991998343321,-943.5366771082627,-1032.427681081579,-1134.6934296591207
2025-12-12 18:23:06.342144,Right,-435.7177877660142,-527.6246692927089,-512.3992438889109,-476.45761983981356,-86.35048978583654,-455.6096206729417,-494.23030080238823,-535.6563737280667
2025-12-12 18:23:06.346146,Right,-121.61034503119299,-139.7035632734187,-125.48549948097207,-129.86632095789537,198.70534778333968,-129.3151747744414,-132.35204261855688,-138.26388069114182
2025-12-12 18:23:06.349137,Right,-249.91597689961782,-286.13720627577277,-273.17588010255713,-268.00068545585964,-288.1368899475783,-252.72920187743148,-268.184330736578,-296.2098762553651
2025-12-12 18:23:06.353104,Right,-529.5498538549873,-631.1487768950756,-618.0519971580361,-576.190465507796,-604.4383362875669,-541.7579631892149,-589.0602489514858,-650.5027661414933
2025-12-12 18:23:06.357161,Right,-496.28103093785467,-598.7955980020924,-584.8569379516412,-541.2345471457811,-194.63753321848344,-513.8295563626452,-559.2035227635643,-610.3218250320642
2025-12-12 18:23:06.361175,Right,-107.31618374137906,-125.91161784139695,-113.44804333394859,-116.25763759680558,244.30668659412186,-115.05578772508306,-118.36896961153252,-125.406126357615
2025-12-12 18:23:06.366184,Right,209.5742982698721,256.92383556853747,265.83453564706724,225.14959183498286,79.53234013999463,209.82367436570348,239.91930376802338,257.842666045588
2025-12-12 18:23:06.370200,Right,135.02352505747695,156.3855607645237,163.94801595417084,136.82100852683652,-219.24990357278148,126.45185221359134,146.54886013787473,150.2563640717417
2025-12-12 18:23:06.374164,Right,-110.58556898345705,-143.97272884193808,-134.3029091618664,-130.3826233719301,-58.8302787788416,-130.20668843688327,-136.06634036600008,-152.55946939680143
2025-12-12 18:23:06.378240,Right,-93.71413702811697,-112.04154250782449,-101.40977793626371,-104.16929089170299,234.0029229567008,-107.5575237099838,-108.77159585311892,-117.45396874120343
2025-12-12 18:23:06.381179,Right,215.8892090307927,268.1326440832054,275.6047161077149,235.88848800487176,154.3487724052975,215.35222011231235,246.99131875307648,266.0705277125817
2025-12-12 18:23:06.385253,Right,438.0510083107947,524.4987280212517,528.6418785333371,472.51556326613354,-9.522794450975198,438.567866374593,489.1068394265458,525.6627673456533
2025-12-12 18:23:06.389265,Right,362.5795492834659,423.89435959083494,428.82081094489695,388.6978114865851,189.67076889835153,356.390207786324,395.99696182089247,429.4052613511667
2025-12-12 18:23:06.393280,Right,219.84448813451144,261.81517983436544,269.0011649903272,240.31808218533934,436.3809963911708,217.01314660907337,244.3804576484498,269.57989193142066
2025-12-12 18:23:06.398284,Right,280.07692582849995,345.3824244583666,351.6011165640375,310.2140341097329,265.2879612678662,287.8578383288914,325.04650375697383,352.72877461383905
2025-12-12 18:23:06.402304,Right,468.65921842730313,562.9558153985417,566.3479229567602,510.2943415473128,16.09809578255954,477.13927092614176,533.163273023587,573.7163570652629
2025-12-12 18:23:06.405307,Right,560.776193344951,659.4736702706723,662.6441034534073,606.4408854873036,236.31384866194276,561.5051504792937,625.4541295931413,679.4992817245948
2025-12-12 18:23:06.409314,Right,540.5796636525192,641.5012819393014,646.5135285458236,590.2477432767628,616.7370118074468,542.3226661199587,606.7212246445706,667.2470132796443
2025-12-12 18:23:06.413345,Right,543.3451417190081,661.0207278956659,665.9915977263881,599.8220535064465,511.43331188798766,555.0413700621575,623.3780877047975,682.498294568737
2025-12-12 18:23:06.417348,Right,589.0935492500721,714.48073295434,717.8609624714009,646.372839600197,134.46127491010702,602.3020735587925,674.7226049435267,730.3396734616836
2025-12-12 18:23:06.421354,Right,607.167955721321,722.0362639051746,725.99633950711,659.6856295052567,196.18806344058248,611.5198761140928,683.2160864786711,741.3254650526796
2025-12-12 18:23:06.426369,Right,629.5428371085436,748.7158240967547,754.9507358856499,685.2556510503055,613.6560783619061,632.2904873229563,707.1936970071401,775.5953344791778
2025-12-12 18:23:06.429376,Right,728.8937074507121,880.0618864662247,885.9188398965052,796.9818231043173,669.5832959234249,741.089708396059,828.6444763971958,907.2287379583577
2025-12-12 18:23:06.433373,Right,825.3346587313572,994.4264308420825,996.9581692228094,897.4537963033654,323.5624965498282,839.8285705480375,935.5410129152588,1015.4345427132794
2025-12-12 18:23:06.437340,Right,785.0851807707804,930.8232561593177,931.6037636841647,846.0229547033668,256.3319404926442,787.9847623131936,875.2664599442505,949.0172030563117
2025-12-12 18:23:06.441408,Right,681.0045936988317,802.8078333823942,804.7524820153485,733.7807335500256,599.7315413344186,676.4965005691047,752.7882612334215,822.9845664469758
2025-12-12 18:23:06.445372,Right,720.0135352612706,862.1639954696875,864.3131152377464,782.6035371183534,728.0198139587883,723.2463957405416,806.7689778043423,882.5640753116459
2025-12-12 18:23:06.449439,Right,903.595782011631,1084.8034327971982,1084.7087361917365,981.671457856195,457.76912610512227,914.8827021673787,1017.0990704383003,1103.3786741680233
2025-12-12 18:23:06.453433,Right,996.7057631231146,1182.4946005899692,1181.6437735479558,1076.816844968358,370.3636587674846,1003.8879990821006,1111.0125202535419,1202.6196232297225
2025-12-12 18:23:06.457454,Right,889.9922260789899,1049.9168148916215,1051.8055079873884,961.6409468677593,670.154375543294,892.7021745223319,986.2164220643463,1073.1022783028893
2025-12-12 18:23:06.460482,Right,771.5251288734144,921.9677093659993,925.9090384774609,840.1783552464331,779.3427757901372,781.1790996538475,864.2682370377006,942.8999153354671
2025-12-12 18:23:06.465407,Right,834.6685319165699,1004.4123179862509,1006.306397527922,908.9378334528301,461.2651598896482,850.9578372944379,941.2867589314701,1020.7874412433011
2025-12-12 18:23:06.469539,Right,999.1232015326386,1186.9024245257024,1185.8300371823134,1078.4292852596845,321.8629252082901,1008.1271479600109,1112.7246518359752,1206.152545090532
2025-12-12 18:23:06.473518,Right,1057.912200467661,1245.8497701204615,1245.0420300180558,1137.3922049137764,676.3341368923429,1055.9469008239685,1165.786185155972,1273.0936023244867
2025-12-12 18:23:06.477563,Right,971.5841269742232,1152.8491121520055,1153.924890583381,1048.401542862528,899.7494062221376,970.5053872442804,1075.0809821735602,1180.0846747831674
2025-12-12 18:23:06.481538,Right,878.2870965484763,1052.4554341660114,1053.4402832485503,949.9950981732691,556.0310487176175,882.9156611179933,980.3202324539889,1070.934391003102
2025-12-12 18:23:06.485530,Right,890.0307507147081,1056.698656930006,1056.583716835943,957.1846043693367,250.54607085196767,890.596595816547,986.6660627952078,1073.5036269117845
2025-12-12 18:23:06.488540,Right,989.4373127393192,1161.7551815105835,1162.548397436738,1061.1604125601007,565.6451279914472,982.9239685386419,1086.8411793283885,1190.8097092878306
2025-12-12 18:23:06.492523,Right,1078.0364835537039,1274.0651369099505,1276.8775254859356,1162.371381369885,977.8933654004359,1076.7898224780802,1192.4444889095612,1314.528597310069
2025-12-12 18:23:06.497545,Right,1059.6811560640344,1265.8927956662374,1269.0627859719098,1147.3371591790346,768.5574045273243,1069.5318126691272,1186.7960749283666,1303.8473135033855
2025-12-12 18:23:06.501611,Right,935.97235085594,1114.0451443843776,1116.8588977083564,1009.590363228228,312.2371262947563,945.1066755366046,1048.4938415562501,1144.7498777568107
2025-12-12 18:23:06.505589,Right,852.0010608515004,1000.8904565664707,1005.1893923544558,914.721582522965,407.13818377489224,853.0712548223091,944.7044774182141,1034.6624490589602
2025-12-12 18:23:06.509619,Right,945.3609365356388,1115.8484594026813,1122.0249232950155,1021.0204834742472,859.5484009890351,950.1802957918262,1051.6380155457882,1159.5185028363485
2025-12-12 18:23:06.513559,Right,1119.317720694351,1337.221798658953,1342.6124398437096,1216.3698202674277,867.5374292740598,1137.5290438213851,1258.6123119997792,1383.3706383046228
2025-12-12 18:23:06.516628,Right,1122.0311516218353,1339.281795490766,1342.691370986402,1217.697601571912,457.5420456988504,1142.1776423256379,1261.9294204622274,1378.9264461649582
2025-12-12 18:23:06.520644,Right,920.0438896173146,1085.7946036343928,1089.6512068866286,994.4188664145768,372.5056353043765,928.4097895118175,1024.3694847802399,1120.656164572807
2025-12-12 18:23:06.525649,Right,798.2968964227475,941.8908467874862,947.4271458620206,865.4905095761642,707.0929619688541,801.9119231739314,886.4191060612211,977.903517231578
2025-12-12 18:23:06.529652,Right,947.9197338630911,1134.0136013033334,1138.2377377201337,1033.052205936634,810.8755949201295,960.4215191177791,1063.9984081747243,1171.3506426673848
2025-12-12 18:23:06.533669,Right,1148.902418055688,1373.9351416637655,1374.576098624384,1247.901563036372,531.855120671331,1165.784873703844,1289.9752241207752,1409.8336522458121
2025-12-12 18:23:06.537693,Right,1087.2736200343352,1286.026445739204,1285.9074440696277,1174.0195858972147,438.0250275027938,1095.56452758261,1209.5550032274332,1320.6422586920671
2025-12-12 18:23:06.540681,Right,842.711923933588,991.6251840884797,994.1463645158801,909.7217741450295,688.5305719104363,845.9482023128076,932.9031324211974,1025.1616773933638
2025-12-12 18:23:06.544747,Right,770.0375673290109,918.2803903941531,921.5228731161915,837.0260054799728,755.5773481564829,781.6545399645111,862.0210498245433,948.3144832460675
2025-12-12 18:23:06.548721,Right,954.26488054113,1141.096060763346,1141.0144147539977,1035.6276315914001,488.41010430268943,971.9789560886566,1070.0327509813942,1167.9737478992902
2025-12-12 18:23:06.552727,Right,1098.820300556603,1298.628099270165,1295.8599224998616,1184.9453664184548,423.29840090184007,1107.9756367787486,1217.13980885013,1327.1942362794653
2025-12-12 18:23:06.557739,Right,995.3324620223138,1168.3014982591849,1166.7142616352066,1071.762615607353,722.5937184126815,995.0732799229445,1092.7201949527953,1199.1659131925553
2025-12-12 18:23:06.561738,Right,812.9452733420767,963.3799258901272,963.1859722514637,880.1705945499707,807.3265287443064,817.0013241183478,898.5913169761188,989.7411823498551
2025-12-12 18:23:06.565766,Right,798.6520544711966,953.6865309146233,951.32438107091,865.1362272808328,455.5330711673014,810.1193638447439,890.5078475279734,973.0248340717517
2025-12-12 18:23:06.568770,Right,921.0801085081184,1086.3748872999568,1080.8782306329813,990.008269989863,287.3007576719392,928.0731782554649,1017.1189808559138,1107.3820056195837
2025-12-12 18:23:06.572779,Right,979.8801693563582,1145.0142825469375,1139.331583702471,1050.1081162239425,632.9595300399233,978.6753047787352,1071.9654199059587,1174.7473322090227
2025-12-12 18:23:06.576792,Right,912.1702604206512,1073.5567261260003,1069.103940477362,982.0188070808072,866.2344803638989,913.4309064486297,1003.587647252949,1105.217823976418
2025-12-12 18:23:06.580797,Right,819.3536555182654,973.7295579817146,968.4459457877092,884.3078943821602,519.272100760485,826.5102795509156,910.9078070917167,997.353407361079
2025-12-12 18:23:06.585817,Right,784.1785017541843,923.1131670288742,915.9740915121511,840.6538746636361,169.7939100258518,786.4019020113628,865.8640416259877,942.2659404992592
2025-12-12 18:23:06.589836,Right,803.8347231879598,934.7318809840363,927.7574156722985,858.4805588372983,423.4520855292212,797.8902419144288,876.8318588521797,960.5542333282065
2025-12-12 18:23:06.593831,Right,843.4126546396874,990.0287666048389,984.2961145825684,907.1422829858493,812.6001192367403,842.4348129966529,926.6544720025267,1022.4938516097609
2025-12-12 18:23:06.596852,Right,851.0860289589036,1013.5042136274278,1007.2458797506988,920.7369112111628,634.2315014397027,861.6938593366649,948.6876029996201,1041.973064419115
2025-12-12 18:23:06.600859,Right,781.3055104430532,925.3547473982908,917.8165302858688,841.1389029717539,212.17242305271793,790.949751716922,868.7814925611019,946.8024551456328
2025-12-12 18:23:06.604809,Right,682.2898380169645,792.6548387655057,785.9484431243036,728.773724781815,290.3141040568007,681.54042289278,745.8315279758535,815.7904594657011
2025-12-12 18:23:06.608888,Right,676.1579374712892,787.2624834566377,782.2558990505058,725.510058367392,686.9886268901173,675.725927885389,739.4611636488698,816.7213184020948
2025-12-12 18:23:06.612900,Right,771.9606052460149,914.2360657157842,908.3775586895645,834.3692557227332,663.2411226148251,782.840037287795,857.710885287961,943.271167135099
2025-12-12 18:23:06.617863,Right,809.9052556720562,957.2728833616711,949.0602409499697,872.3632653434761,279.9285521156853,822.870379572385,899.4685795428231,980.1911932984367
2025-12-12 18:23:06.622004,Right,697.7877435084665,809.7786254170351,801.7747781716753,745.6485377126373,240.3211771628121,699.9867392672459,761.8906395328231,830.5419569369406
2025-12-12 18:23:06.624995,Right,578.0329899225617,667.720828025369,662.0980740927625,619.1507271172013,568.3139389187563,576.0397838361096,626.7774585993029,690.691850470379
2025-12-12 18:23:06.628941,Right,612.1764831683831,723.0202902543824,717.4611362500582,662.5203291925136,598.6910054186592,619.1232232461916,676.5324531528167,744.8497538918164
2025-12-12 18:23:06.632984,Right,714.6672061042627,846.9013004256412,838.5267728797626,770.8859584099846,249.84042829857208,725.575188142946,792.4119591705967,863.9855731464922
2025-12-12 18:23:06.636984,Right,690.4285186227644,804.109588499181,794.6840345275123,736.2796189985238,165.27326040004846,691.2800871599466,751.6419495650334,819.7150625614449
2025-12-12 18:23:06.640986,Right,554.0702162253438,639.0148344011977,632.1743376585655,587.6649049840635,481.3707050678786,547.4182149352273,594.1224194344832,656.4056237719487
2025-12-12 18:23:06.646009,Right,493.2892938842997,581.8610541964881,577.362170313485,527.9451259920606,567.6448482717387,493.06044533872046,538.7934845016571,598.0179554901551
2025-12-12 18:23:06.650056,Right,552.1888947307598,658.8877597383689,653.9491648408584,592.8103604816133,229.99887123017106,558.1498743180418,613.1478627267061,671.8577568826731
2025-12-12 18:23:06.653049,Right,581.155585693079,681.2786949935835,675.856080065947,619.2311690165661,92.4124835638795,580.8230623748386,637.2427871152759,696.3370820933487
2025-12-12 18:23:06.656975,Right,510.671979859937,590.5799417456146,586.7183352258289,543.1074764734367,419.10001649777405,504.19558423920535,551.97325747367,611.4597001101356
2025-12-12 18:23:06.661058,Right,450.5823974853847,531.1618267880986,528.2912045674166,484.8843510656152,595.6589426524006,451.2717589462409,494.047589191352,551.955114785349
2025-12-12 18:23:06.665047,Right,468.9292514867848,561.8091095000273,557.354952536989,506.84291340608615,268.4555422218982,478.5460775929969,522.7366351914825,575.9640648236964
2025-12-12 18:23:06.669070,Right,478.89658079855144,563.2533139568986,557.4445531312376,512.1941296838922,16.809065298642963,484.31797650130466,525.85390679806,574.5876824228326
2025-12-12 18:23:06.673078,Right,422.76793464645743,487.15776931645814,482.6132382827345,449.7121282753069,284.2297254842706,420.3692859839648,454.63764953473583,502.86254762660246
2025-12-12 18:23:06.677031,Right,382.87020654114895,449.76876256708056,446.23335444845725,412.6226311423816,552.5912317269831,385.08707955502905,418.4683270667447,467.80080628499854
2025-12-12 18:23:06.681097,Right,411.8393551746849,495.18373576027807,489.32240872096736,446.8340854938142,303.1832694641198,423.7430768838385,462.2458549750736,508.7849403042346
2025-12-12 18:23:06.685143,Right,419.1584698985098,494.73178663570434,485.8745256130351,448.8350827820832,-23.187426598044112,429.00263274880126,465.3807871732861,505.46236770087853
2025-12-12 18:23:06.689117,Right,341.667705658474,389.39103074453305,380.97350636462215,361.2626363862073,147.28866136766737,343.33394334383775,368.99145256902557,404.67899720929563
2025-12-12 18:23:06.693139,Right,276.51602685649414,318.5654269295046,312.5527189716231,297.22207849263214,456.5952687599929,281.8550123266177,303.1235193781322,338.6344933458604
2025-12-12 18:23:06.697090,Right,311.46243848558515,374.465345145436,368.66628754348494,342.30735531798564,295.47780128981685,328.98091008816846,357.24319083138835,392.75397702364717
2025-12-12 18:23:06.701195,Right,356.57457966008224,425.16195088706445,417.8697503093863,389.578237026697,-55.264059825683944,375.8510314786108,407.91968175570946,440.65607272379566
2025-12-12 18:23:06.705158,Right,295.97877653315663,341.4208121020347,334.4562110338593,320.5097023140406,39.929239740013145,306.65151191025507,330.21889178280253,359.51494418352377
2025-12-12 18:23:06.708118,Right,194.14553679537494,224.84586188651156,219.50671343004797,214.00047981890384,373.1285977617372,203.9357885858044,218.40045692306012,245.7688082245877
2025-12-12 18:23:06.713177,Right,184.9086705429945,227.9169712656876,221.85598895209841,208.35313670919277,286.4247159785591,203.4626989000244,219.40013685566373,245.29477594676428
2025-12-12 18:23:06.718146,Right,242.20312853401992,293.11920028249733,284.3801218094304,265.4121672222391,-83.28695149807027,261.52154510177206,281.21403678983916,305.5854333868483
2025-12-12 18:23:06.721180,Right,236.65770318417344,270.1906278753886,260.9211714923149,251.16431883745827,-55.19651755975792,244.85448854020797,259.3648455051007,283.66078493057285
2025-12-12 18:23:06.725211,Right,161.295231062104,178.95300402736757,171.6735264880117,169.84009918593802,309.3967916762922,164.0076021954883,170.0753555841511,194.65535624022596
2025-12-12 18:23:06.729234,Right,123.19510702241678,148.0913791685598,141.34496384451631,133.95831235393416,305.9004412571667,132.76878029014915,137.41695168393198,159.12111821153667
2025-12-12 18:23:06.733229,Right,144.50633653090335,176.82931634038687,168.2345039275242,156.14187556609977,-94.86952736508101,157.31458811822813,163.797210863675,180.88015527196694
2025-12-12 18:23:06.736242,Right,144.7769244441297,164.61918587528635,155.57919563248288,151.45689478551503,-175.80401577596786,149.07402221439406,152.42655019357335,169.70198556012474
2025-12-12 18:23:06.740256,Right,106.17046380694956,115.97722736292053,109.39160660898779,111.69504352938384,196.211759704398,105.29687698488124,104.4785708875861,127.41750510595739
2025-12-12 18:23:06.745269,Right,90.95873620797647,112.10733306605835,107.49837210041005,102.54029308212921,313.1914088248741,97.62913991784444,98.38112629193347,123.35578611621168
2025-12-12 18:23:06.749229,Right,97.6534554118407,125.72141420643311,120.71738462126814,110.18316108867293,-65.62315852282336,109.80782558629289,111.93291197990766,129.60214387858286
2025-12-12 18:23:06.753304,Right,61.76018057967303,69.69356098829303,64.6616094011697,64.71376913815038,-264.83503779029706,65.86187144514406,61.561973391799256,70.37153669004329
2025-12-12 18:23:06.757305,Right,4.966249655582942,-5.582859943562653,-8.778519388230052,2.1002592339063995,59.93964443629375,1.209620189270936,-9.158510862849653,-0.695732630614657
2025-12-12 18:23:06.761348,Right,16.802070489968173,20.361133443191648,17.638901376514696,21.42449046188267,290.1978976375831,19.242175511084497,14.053260796004906,27.097266370314173
2025-12-12 18:23:06.764353,Right,72.48461918742396,95.44163893623045,89.77872184221633,84.00633028621087,-8.191202751215314,83.78021626343252,86.13891669822624,97.00402523495723
2025-12-12 18:23:06.768353,Right,46.35543731687358,53.18113681761315,44.653500210668426,50.31783068517689,-294.2729106871411,54.07850285602035,50.179135094746016,50.88933563604951
2025-12-12 18:23:06.773359,Right,-60.25409591186326,-84.72814651642693,-92.71358061843785,-66.75925633631414,-69.20032552987686,-59.17161145224236,-77.37835563672706,-83.90303088922519
2025-12-12 18:23:06.777367,Right,-93.34637429192662,-115.67625803028932,-122.19482088217046,-95.68331903585931,210.4722189156164,-86.06633759400574,-106.52879791060695,-111.48123508266872
2025-12-12 18:23:06.781372,Right,-9.077993876649998,-5.0021863098372705,-12.674115344823804,-0.19876754196593538,7.757512959942687,9.081088854407426,-1.4560834275907837,-3.1150055997422896
2025-12-12 18:23:06.785395,Right,32.15002658992307,35.06942087423522,25.54164334613597,39.19480561465025,-295.46393229428213,47.79400837927824,38.714840767963324,34.00825179897947
2025-12-12 18:23:06.788415,Right,-67.85296000773087,-97.30175351892831,-105.62932560476474,-73.90554007340688,-137.12444048080943,-62.95022337336559,-85.05800995527534,-97.00676533469232
2025-12-12 18:23:06.792446,Right,-171.51417449177825,-214.92422561603598,-220.36735985655105,-182.29735101747792,162.98829785583075,-166.44388562010136,-197.42274255451048,-213.6467656872701
2025-12-12 18:23:06.796428,Right,-135.5978930547135,-159.13449657987803,-163.9218273475708,-139.0145014791924,17.76719457685249,-120.86188269796548,-145.63285069080302,-161.11384957301198
2025-12-12 18:23:06.800379,Right,-51.074700772354845,-62.92523760322365,-68.59295227154507,-51.019896362762665,-309.7806655427121,-35.170027103769826,-53.24267941128346,-66.30551320608356
2025-12-12 18:23:06.805447,Right,-81.65021402577986,-112.33923899414367,-116.79331243949127,-88.3113887119107,-203.1744347531494,-73.63975425882381,-98.30932781996671,-110.40346159692854
2025-12-12 18:23:06.809453,Right,-190.4683623504243,-237.93580297316657,-239.69126344670076,-202.22052446953603,133.8434446746396,-182.45275976217818,-217.4739994861884,-230.96688522447948
2025-12-12 18:23:06.814482,Right,-220.87266110407654,-259.41628107448923,-260.93104153545573,-230.19168427953264,52.27809663883818,-203.71994528506184,-238.70968920199084,-255.15427804680075
2025-12-12 18:23:06.818480,Right,-163.04316107934574,-192.01775563613046,-195.66748597635888,-171.77078141501988,-311.6812374676956,-145.46746204995725,-174.57115729423822,-192.81275955197634
2025-12-12 18:23:06.821500,Right,-141.71522415838263,-181.70345033553895,-185.75464906908746,-156.06525383116968,-277.8621639826015,-136.0438308542216,-164.70283933680912,-181.60165679978672
2025-12-12 18:23:06.824498,Right,-187.74367142705887,-237.79656463665015,-239.86521025755792,-204.89766784173844,94.5695944758263,-188.1789397027169,-219.562606946085,-234.97097056508937
2025-12-12 18:23:06.828495,Right,-213.98173273894645,-255.20529753416486,-256.80889426072827,-227.7638687952276,95.4731557912528,-207.67714435671223,-237.59638848261966,-256.37122970497876
2025-12-12 18:23:06.833472,Right,-197.7576817695808,-233.7396183754754,-237.61601089365286,-211.84286590662668,-311.62908961539506,-188.02862778391864,-216.3082292716863,-241.55507424921234
2025-12-12 18:23:06.837533,Right,-206.98893608821163,-258.60275308439304,-263.92119213693695,-228.10591615328667,-400.0352406242091,-205.62070661249163,-238.36267738601964,-265.10484868985804
2025-12-12 18:23:06.841547,Right,-246.79800335023083,-309.31920683241424,-313.50125922535517,-269.84018629209277,-17.88562250951145,-250.56803742475495,-287.36908661651887,-308.43936628991196
2025-12-12 18:23:06.844495,Right,-249.2078329867254,-297.0455930032276,-300.4009716551336,-264.33606864323156,124.82842495945442,-245.20373650510373,-277.6418630083099,-294.3760582295854
2025-12-12 18:23:06.848563,Right,-222.99353933071689,-257.9058400285794,-262.33627597681334,-233.66558103861826,-237.17802586198013,-212.78373649602872,-239.89240271034942,-260.32995878554357
2025-12-12 18:23:06.852618,Right,-249.5593970192058,-300.54251859559736,-305.10998035200464,-267.24530113170476,-441.5502725698934,-246.2749661505659,-277.91938126439345,-304.48603162838845
2025-12-12 18:23:06.856599,Right,-315.53708292060765,-385.6419820600422,-387.8307318183797,-338.9541602299287,-127.62789223905565,-318.7475948095962,-358.25721913065354,-384.5915060693951
2025-12-12 18:23:06.861608,Right,-316.44773440793506,-374.715667511191,-375.2820371603739,-333.5625584369118,107.712488004021,-312.27794929900847,-349.65935157398053,-371.5381204331061
2025-12-12 18:23:06.865617,Right,-252.71939062525053,-290.03153627953725,-292.13373758731177,-263.23738505956135,-168.90749602326105,-240.01965994933562,-269.6409053813841,-291.87051547791634
2025-12-12 18:23:06.869634,Right,-248.7841102159,-296.3119763840223,-300.0972134739277,-266.2408057493449,-430.1351777773816,-242.78689753478102,-273.8258519041119,-302.31980463833315
2025-12-12 18:23:06.872649,Right,-331.42036547363386,-405.28202704523574,-407.8868732978299,-359.90987143089296,-187.7852028500056,-337.2205826781865,-376.83788114375784,-409.74019182036864
2025-12-12 18:23:06.876647,Right,-367.99120383756235,-439.44147708799574,-440.57713844566024,-394.9769300312619,95.1511116046895,-372.00379138227436,-411.44214757942245,-443.3324168647523
2025-12-12 18:23:06.880661,Right,-298.15109875495546,-344.3355395659164,-347.13774201326305,-316.34153746499214,-119.8005284005194,-292.67206249554874,-322.5481002574961,-353.13528965829755
2025-12-12 18:23:06.884727,Right,-248.83572136124712,-292.7761446291406,-298.2292287273158,-267.9646747208317,-437.0360661839368,-244.38563511526445,-272.30144243867835,-305.1616227568884
2025-12-12 18:23:06.888682,Right,-314.688481850113,-382.8226824074227,-387.9864437506476,-343.04996781493537,-274.41119123235694,-318.655593315023,-356.90568507034914,-392.3852031181741
2025-12-12 18:23:06.893729,Right,-391.33666367831756,-466.74594340950716,-469.9915110391448,-421.5029239425494,43.5217761900567,-394.0394182256132,-438.71085406135535,-473.7992489018652
2025-12-12 18:23:06.897713,Right,-361.4864362066146,-416.59779460332356,-420.1019005777198,-385.23187692349893,-99.263712975604,-355.6178343392676,-393.851089285512,-427.4906007380341
2025-12-12 18:23:06.900705,Right,-298.8378671813116,-345.1606701114797,-350.1365522185806,-322.24463884028955,-445.4138301164203,-294.9016785513086,-326.5140489975456,-359.9369871519157
2025-12-12 18:23:06.904671,Right,-326.56398056959733,-390.8833653263282,-394.7379310341785,-357.59795684489654,-343.35951912554447,-334.42275375284953,-369.6508378883591,-402.7077652440639
2025-12-12 18:23:06.908717,Right,-396.073674447136,-470.36826811445644,-471.43664812564384,-429.0192937653628,24.24487939151004,-406.6863816881669,-446.4517786204233,-478.4472630058881
2025-12-12 18:23:06.912748,Right,-385.2896477524191,-443.69673300383147,-444.84115681634285,-411.4977052079048,-27.37716680613812,-386.9495006140205,-422.4958064064849,-455.61051845306065
2025-12-12 18:23:06.916767,Right,-322.5223683944787,-370.92888033314375,-375.0538204203476,-346.7258238589857,-405.94528882190934,-321.69397711451165,-352.45566430984763,-389.47275971330237
2025-12-12 18:23:06.921769,Right,-324.8582024908392,-388.8411808323581,-394.2293654185487,-355.88578338961815,-412.07279325899435,-333.1537318220362,-368.01857655873755,-407.3973519554711
2025-12-12 18:23:06.924785,Right,-379.98404639580986,-455.0545766148716,-458.87683655903675,-413.4998345680069,-45.37966715672519,-392.071637198329,-431.8740643550991,-470.01392939465586
2025-12-12 18:23:06.927773,Right,-379.84529359667795,-439.43932367977686,-442.9544255416258,-406.2515751546016,-3.306591169035528,-383.80370247148676,-418.9642598176724,-456.8070784181473
2025-12-12 18:23:06.932742,Right,-330.41102209931705,-377.1361724905437,-383.2698372853338,-353.46973543579224,-373.5794825050689,-330.8697904761648,-359.2857915997738,-401.31395994569175
2025-12-12 18:23:06.936802,Right,-336.317980650987,-398.8973259679042,-407.03147146693664,-367.14500299526844,-467.99868353511556,-346.4851570731262,-377.8602923284052,-424.5648578418768
2025-12-12 18:23:06.940837,Right,-394.651354243455,-474.7815663245274,-482.3181432194542,-431.6481193812797,-109.88955115425051,-411.8273215670488,-449.8333126506768,-496.76852957106894
2025-12-12 18:23:06.944854,Right,-394.91687237110455,-463.53498517902335,-470.8628601875389,-426.82276607037056,33.91105691471603,-405.34651396848494,-441.07531155098695,-486.03320354392054
2025-12-12 18:23:06.949783,Right,-329.2783154135104,-380.10060365637764,-389.4999791473965,-355.5715025551617,-302.3520768894523,-333.2658992173965,-362.5271263497416,-408.0979540285771
2025-12-12 18:23:06.952804,Right,-315.1099046264426,-376.0022781431908,-386.6451749546104,-345.9565225018887,-489.7640377149801,-325.4776926737977,-357.56935308658285,-405.20310821250314
2025-12-12 18:23:06.955875,Right,-379.99852555803955,-460.90028903185157,-469.49325050535845,-416.4263556954684,-182.635593774874,-397.00501137651736,-438.20107059006114,-485.10734822117956
2025-12-12 18:23:06.960876,Right,-407.8421768871485,-481.943807284988,-488.0872024570126,-439.46532862761524,37.51957815961214,-417.6481073938194,-459.8453560129856,-504.09299089747947
2025-12-12 18:23:06.964879,Right,-350.6480319862603,-403.5541283010971,-410.07669205602724,-375.0591432793299,-245.16755389346508,-350.3946957947337,-385.8789910307969,-429.7069729794166
2025-12-12 18:23:06.968881,Right,-315.6561854692991,-370.93216372234747,-378.7698837214848,-343.00380718981614,-500.7986013488262,-318.64960453414824,-353.39210483885836,-398.4933757004328
2025-12-12 18:23:06.972981,Right,-366.8977488790406,-441.04643401753856,-448.23564264178276,-401.02545740403,-248.72326114570023,-378.5927562023862,-419.55420740455156,-463.49562953657005
2025-12-12 18:23:06.976974,Right,-409.3267029392882,-480.98713880823925,-487.3323976441752,-440.8707157629542,38.00642737100134,-419.0031415114645,-459.7266066232114,-500.53247748629656
2025-12-12 18:23:06.980970,Right,-366.9151016121032,-417.56546989583876,-425.76322268659715,-391.2893200420076,-182.93817356490763,-369.9787116837688,-401.77200022520265,-441.9510015225969
2025-12-12 18:23:06.983965,Right,-320.37843006273033,-369.3630069207866,-380.1460347038228,-346.7046577199362,-504.197190011153,-328.574970490532,-356.35807087965077,-398.3496987214312
2025-12-12 18:23:06.988966,Right,-351.9065553796827,-419.8419260646915,-430.2902992282761,-385.92908054450527,-326.9744363100035,-371.6335968093481,-404.7297161320457,-446.1342797756661
2025-12-12 18:23:06.992965,Right,-393.1586282197968,-463.08581338613294,-471.62422277603764,-426.28082637221087,17.895641306007747,-412.4948317481321,-447.68067257490475,-485.6325660747243
2025-12-12 18:23:06.996928,Right,-360.11180682404665,-409.96577603917103,-418.9970000835601,-385.3099519299576,-114.41283937048865,-369.41144638345577,-397.8724951175973,-434.7581709679216
2025-12-12 18:23:07.000989,Right,-314.1496195734362,-359.2857083949493,-370.6047774098115,-338.9452078798786,-477.3395474686986,-322.37357965216506,-346.9189417589223,-386.4583777396474
2025-12-12 18:23:07.005013,Right,-342.7377511644736,-407.6891194343334,-419.16472532215994,-374.7957819637377,-391.3683376562549,-359.3936889874167,-389.0873635527678,-429.4718522633193
2025-12-12 18:23:07.009029,Right,-389.0958006986766,-461.0500678368844,-470.6123120303964,-421.32437226735055,-11.005119087349158,-405.528938633448,-438.0780365000246,-474.8424925325671
2025-12-12 18:23:07.012026,Right,-358.59399615204893,-410.76515471888706,-420.11272399604786,-381.860037118895,-34.790246858261526,-363.4875902967178,-389.3753089114325,-423.30620615556836
2025-12-12 18:23:07.016027,Right,-302.4752545413794,-344.7948740980355,-355.9085576137295,-322.5321935013635,-403.16133043303853,-302.5730130050215,-323.9427371501224,-359.944312134292
2025-12-12 18:23:07.020057,Right,-326.06580855563516,-387.7704170763027,-398.91545368533116,-352.95261608227156,-415.2594610195956,-333.46611415367806,-361.91125377232675,-400.6672016202938
2025-12-12 18:23:07.025051,Right,-386.6558178020641,-461.6447835887084,-470.50226454017684,-415.97851506632287,-39.69836000178475,-396.59834850754123,-432.5259833391756,-469.6240244379733
2025-12-12 18:23:07.029083,Right,-364.756663224136,-421.40155628242064,-429.4396001107525,-385.8433279740857,31.62758676277008,-365.4519992461428,-396.8199857948348,-430.61293995496817
2025-12-12 18:23:07.033092,Right,-286.689979817369,-325.26974960020743,-334.9609853986185,-302.8928991755238,-320.86670030787354,-282.63447989162523,-306.10910536081064,-340.2414499791339
2025-12-12 18:23:07.037088,Right,-283.5345812930027,-335.77765624737367,-345.74508387828246,-307.17653398169205,-427.92995335394517,-288.40376361017115,-314.6352417828748,-351.40385346021503
2025-12-12 18:23:07.041104,Right,-353.2387629643781,-424.8449173102854,-432.09165323199704,-384.3524776875274,-91.86504498624709,-365.22077804338187,-398.8662054600427,-435.74124112317804
2025-12-12 18:23:07.044156,Right,-362.88158133637626,-424.6281839617295,-429.7834891739767,-390.53387705713976,45.404032037069555,-368.26710974622983,-399.6108030434698,-434.2286329814233
2025-12-12 18:23:07.048075,Right,-290.5970735370647,-333.08915374299977,-338.9309566320153,-313.6069269339787,-285.50894581055036,-288.93709964794107,-312.23931721865665,-345.8429008438252
2025-12-12 18:23:07.053174,Right,-264.5472205815604,-314.6370942767244,-320.72816863725893,-292.97593664960004,-469.277074817277,-268.688902731752,-293.0781050309306,-326.81159516994376
2025-12-12 18:23:07.057168,Right,-328.4309632690856,-398.21374088618904,-401.74276241648477,-363.7224327066215,-159.06376510625705,-339.92626191326417,-372.81237624643836,-405.07782575907186
2025-12-12 18:23:07.061197,Right,-363.4763360450743,-427.73870290583,-429.0745609633159,-394.76893141225446,68.89238950685831,-369.7191099127522,-403.45558780420106,-433.43543174501974
2025-12-12 18:23:07.064209,Right,-305.2765050086891,-348.2808411233127,-350.8660916336812,-328.57786929409485,-207.3444020349998,-303.4799396597082,-329.3885827647755,-359.1425466465298
2025-12-12 18:23:07.068186,Right,-255.23826678388286,-298.48660271568224,-303.0071115597384,-279.56863695324864,-463.0557332924218,-257.816609136411,-281.12782898324076,-311.5798990901094
2025-12-12 18:23:07.072212,Right,-290.52016402070876,-350.8589263196336,-354.209188768873,-320.2207538415678,-208.6772681780858,-301.6097826976329,-330.2899393722182,-359.056472254917
2025-12-12 18:23:07.076359,Right,-329.85088539507706,-388.0875185254263,-389.0239634915488,-356.8367276719073,89.78930347471032,-337.21399894868955,-366.66725365642924,-392.68325757503044
2025-12-12 18:23:07.081239,Right,-293.67663947236724,-332.1599843048025,-333.4305386254564,-313.7624617050169,-121.3580081598484,-291.43817034107633,-313.70314983057324,-339.98059816716705
2025-12-12 18:23:07.085188,Right,-248.6417679283768,-285.4476409123745,-288.75567805359606,-270.1848598412471,-446.92083000123966,-248.33363671903498,-267.5473116518697,-295.9234615673777
2025-12-12 18:23:07.089267,Right,-271.5570114913862,-326.14818433043547,-329.37739905237686,-299.60307601606473,-278.45637176238233,-280.65964826056734,-305.28170331404544,-332.36688274506014
2025-12-12 18:23:07.092281,Right,-301.91579346661456,-357.68197994248476,-359.20527200459037,-328.0861567921238,69.79383110831259,-309.90447776170913,-336.8539149593562,-359.4164269269677
2025-12-12 18:23:07.096240,Right,-264.00090560736135,-299.57465150544886,-301.2025444044266,-281.853990606498,-50.64357031113468,-261.91899363324046,-282.96269575704355,-303.8616225775331
2025-12-12 18:23:07.100313,Right,-218.60005549516063,-249.32538851490244,-252.5504983596038,-235.83031326439232,-408.2923598619527,-215.6158292121254,-233.59217357472517,-257.49511167337187
2025-12-12 18:23:07.104301,Right,-247.53232099476736,-297.7085288732778,-300.8236176427454,-271.7054519173689,-323.28861405700445,-253.7846819839906,-277.1763622077415,-303.2131315495353
2025-12-12 18:23:07.109260,Right,-289.9164799261489,-346.60655045195017,-348.3350364364451,-314.0629646180896,60.679130499542225,-297.87344105157536,-323.6246116878465,-347.75212991051376
2025-12-12 18:23:07.113328,Right,-250.4871470007347,-286.31305353401694,-288.92077531979885,-265.85248760704417,42.28763793304097,-249.51315385580529,-267.41485574503895,-290.1306214866927
2025-12-12 18:23:07.117342,Right,-183.38510664994828,-207.45249074790627,-213.02606083708815,-196.16095537040383,-330.37037852342473,-180.0101519919699,-191.81144677987322,-217.48922802787274
2025-12-12 18:23:07.120352,Right,-199.28917421534425,-241.1190387540264,-247.64871171384584,-219.97800223890226,-353.4414113693638,-205.00035921804374,-222.54463886749,-251.74710001342464
2025-12-12 18:23:07.124348,Right,-259.26375314360484,-314.1412290415028,-318.8580794867594,-283.7512026147451,17.418176784412935,-268.62443029950373,-293.1436706717359,-321.5927000014344
2025-12-12 18:23:07.128364,Right,-241.69328492844943,-278.6147610557964,-282.5978206815198,-258.98550841689575,89.94241720996797,-242.22784351801965,-262.1984809660353,-287.7897305699298
2025-12-12 18:23:07.132369,Right,-166.6499710510834,-184.97102240938693,-190.52801300329156,-179.29281651647761,-265.393314558547,-162.57158398232423,-174.22019003354944,-199.33199345250614
2025-12-12 18:23:07.137382,Right,-162.5355227193213,-192.9158724846784,-198.7222764706239,-182.09800406103022,-374.28966885834234,-167.8056982716662,-181.0644160718657,-206.7513451341074
2025-12-12 18:23:07.141400,Right,-231.27143937774235,-279.35585764446296,-282.53916310414206,-257.13340409542434,-23.28650976199424,-244.24971935129724,-263.8650279234862,-287.30814246158116
2025-12-12 18:23:07.145416,Right,-243.11444046662655,-280.0044908808777,-281.4444699418964,-263.5600648217951,141.34987855813233,-249.75021821353585,-266.6530504252296,-286.44743556296453
2025-12-12 18:23:07.148418,Right,-171.0232278223266,-187.08867317915428,-190.21794303460047,-184.3040535908658,-174.9681027935003,-170.87454935646383,-179.15542743890546,-198.21891518181656
2025-12-12 18:23:07.152433,Right,-134.99696037039394,-156.61209802690428,-161.87881216977257,-151.41416416241555,-366.3685066769831,-141.92405272711767,-149.3583492069738,-170.0107400029665
2025-12-12 18:23:07.156386,Right,-180.23047791817226,-219.54974520148244,-224.52303981222212,-202.12212086445652,-66.93949198181508,-196.77472705265973,-209.61793820210733,-230.0872882399708
2025-12-12 18:23:07.160458,Right,-200.53218273149105,-233.04688027582597,-237.5438945244532,-217.8765074542025,161.23780931567308,-213.80212158418726,-224.7393652437022,-243.22870770760346
2025-12-12 18:23:07.164457,Right,-141.77020249073394,-152.9683459554799,-159.28638696856797,-151.12940273585264,-115.41085993841989,-147.8575838606339,-149.83116730925394,-167.83681854745373
2025-12-12 18:23:07.169504,Right,-102.25844761036569,-115.10965683334507,-122.99881352885859,-113.12511571805226,-381.6330547503894,-112.80341394204879,-112.93344764865469,-131.51817256282084
2025-12-12 18:23:07.173495,Right,-146.57112097670324,-178.34791801508982,-184.69990762375528,-163.40590258105658,-131.74395638640271,-165.280160403403,-172.81441336194985,-189.63518471398856
2025-12-12 18:23:07.176446,Right,-184.17564261174994,-214.0679165086476,-218.4261410816689,-198.22819913120475,182.6562786346767,-198.06950310437242,-208.542448532884,-222.06602758797817
2025-12-12 18:23:07.180515,Right,-138.61449246585835,-147.1293333231588,-152.72808940830873,-144.9526465354138,-8.300418214523233,-141.26362656685524,-145.74288336915197,-158.75549563224195
2025-12-12 18:23:07.184522,Right,-88.586047145247,-94.61417052638717,-102.67920609656721,-96.05337498971494,-331.4954617333133,-92.22933726519113,-93.68867711123312,-108.72327341517666
2025-12-12 18:23:07.188533,Right,-117.30074440175667,-142.8705211021006,-150.55857046484016,-132.2886306742439,-170.94168102479307,-130.846337029594,-137.17294457479147,-151.75176735699642
2025-12-12 18:23:07.192543,Right,-155.46092036453774,-184.189885390806,-189.9403105894453,-169.82626132876612,180.0394353204756,-168.65520459605614,-176.55060600978322,-187.3583392755245
2025-12-12 18:23:07.197553,Right,-114.29176398692653,-121.84590966405813,-128.2093373297248,-120.35139502282254,69.88348300597863,-116.96686553308973,-118.12258900905726,-127.10849082219647
2025-12-12 18:23:07.200559,Right,-56.38310338574229,-56.11450712190708,-64.87177097419044,-61.103388395975344,-289.8514119227475,-56.84896021417808,-54.81776775751496,-66.23271428287262
2025-12-12 18:23:07.204588,Right,-79.63947491568979,-97.70206436910667,-106.37450492259813,-91.33232158841565,-220.28585520098568,-88.46684761386132,-93.38765271008015,-106.81873810582329
2025-12-12 18:23:07.208591,Right,-131.54616581526352,-157.85373426473234,-164.04110962024424,-143.852595821023,153.7987112981209,-141.7003957137931,-151.54051465407247,-163.25946708890842
2025-12-12 18:23:07.212596,Right,-104.64143269590568,-111.56278609629953,-117.08525722200284,-107.92683627043152,138.23344685166376,-105.20526455849176,-108.59744220273569,-118.45861337013775
2025-12-12 18:23:07.216616,Right,-37.117429723148234,-31.242861979233567,-38.569787014159374,-36.317441365506966,-230.49969290636363,-34.43646114808507,-30.932254674262367,-42.03901064337697
2025-12-12 18:23:07.220559,Right,-43.36414280493045,-53.71862950292416,-61.44067823502701,-49.28103122120956,-253.88733882049564,-49.52263012598269,-50.540590332762804,-62.59902958822204
2025-12-12 18:23:07.225641,Right,-101.76078560872702,-126.39813668030547,-131.98383359564468,-112.10655897401739,120.27222393554985,-111.87364652979886,-120.58042441046564,-129.6580663099303
2025-12-12 18:23:07.228579,Right,-94.39570354885655,-104.80130901298253,-109.21444087830605,-99.47764943604125,199.11639176684548,-95.58526846591849,-102.14866831112886,-107.29819177661557
2025-12-12 18:23:07.231645,Right,-25.677065198135097,-20.22452103550313,-25.833791055716574,-27.3944830155815,-159.50841388461413,-21.326541378046386,-21.23024055652786,-25.583808614930604
2025-12-12 18:23:07.236677,Right,-13.340513596951496,-19.650092926051002,-25.637842233583797,-21.660041663853917,-281.75726848392515,-17.3424551023636,-18.356743719719816,-22.959022093680687
2025-12-12 18:23:07.240664,Right,-69.09079532738542,-91.27314163278788,-95.27478914876701,-82.81394288677257,60.80074176762719,-80.65512627211865,-86.40301719587296,-88.57804266916355
2025-12-12 18:23:07.244686,Right,-78.31873720430303,-88.46614509751089,-91.24186825682409,-86.59482441405999,224.59175735682948,-83.9669879473513,-86.18075623881305,-85.3752461609547
2025-12-12 18:23:07.248650,Right,-15.370172327267937,-5.546273825399112,-9.660289262945298,-17.439001389138866,-99.09521963392035,-13.92781735031167,-8.410701872431673,-8.237963287276216
2025-12-12 18:23:07.252767,Right,9.701748591323849,12.482667981064878,7.712918963748962,3.5049026151536964,-303.7354077521886,5.776698621571995,10.015063163649756,7.845243742980529
2025-12-12 18:23:07.256718,Right,-40.860099586308934,-56.668117477267515,-58.95580522494856,-52.891853476758115,-1.154224818572402,-52.035226782842074,-55.4846692441497,-56.62488290620968
2025-12-12 18:23:07.259761,Right,-61.92864156939322,-70.91447232384235,-70.66381833527703,-69.4473398232949,252.74051712660003,-67.90578062477289,-71.22713370335987,-68.75883150240406
2025-12-12 18:23:07.264736,Right,-4.355971740442328,8.037539814657066,7.665269484976307,-4.363772322773002,-1.663569678523345,-2.193569566588849,2.1003735244157724,5.417229349550325
2025-12-12 18:23:07.268829,Right,32.18087573786033,42.1001268113032,40.40109432343161,29.593530709738843,-269.53253235292505,29.74850509670796,34.95406689419178,35.958187825628556
2025-12-12 18:23:07.272708,Right,-12.030094710964477,-22.330934276105836,-22.401787102455273,-21.39117698650807,-31.406159879348706,-23.733129762724275,-25.777998467965517,-25.24555225565564
2025-12-12 18:23:07.276818,Right,-41.92991819023155,-50.76369467837503,-47.82645096140914,-47.95409026852576,281.69946751676616,-50.071644264186034,-53.26805581833469,-50.15141049970407
2025-12-12 18:23:07.280783,Right,13.879673257702962,27.19621672737412,31.066466706746724,17.776348376908572,94.54695504379924,17.027454396127723,22.399390915845288,26.6883856128552
2025-12-12 18:23:07.284806,Right,64.7737951707386,81.1983148768195,85.05694593445514,70.6681916739908,-234.44846530121868,69.15696710039629,78.91476656874875,81.37349807302235
2025-12-12 18:23:07.287812,Right,23.463274146139156,19.65160265006125,25.664721075096168,24.736627278092783,-82.66958422819152,21.685403215611586,25.513523275207262,27.23885532974964
2025-12-12 18:23:07.291824,Right,-29.86373412568355,-38.07058471729397,-29.103977614373434,-26.022425135073718,272.3948644740158,-27.768893878848758,-27.978138368518557,-24.090916718239896
2025-12-12 18:23:07.296829,Right,7.764053423539735,20.615415892592864,29.7031334558269,20.770460222120164,172.66799895535223,22.307226022094255,27.0985978935787,32.034211725287605
2025-12-12 18:23:07.300866,Right,73.64352591705392,95.1903972363798,102.63495994816185,87.60206931529683,-190.19476230067085,90.43589228650671,98.04819162006606,100.71868231173721
2025-12-12 18:23:07.304869,Right,55.10931358329253,58.29484284186037,66.60054714497528,60.189587625616696,-135.30535185827466,62.20463187037967,62.52397458025371,63.5744107713399
2025-12-12 18:23:07.308889,Right,-4.307901693828171,-10.7681141148787,0.7878108926233836,-2.7556781458551995,233.01822497566172,-0.34446580172516406,-6.256777464644983,-3.1739743128127884
2025-12-12 18:23:07.311886,Right,11.975051496381639,24.116082382766763,37.15530584656517,19.998031203984283,223.13035023240082,23.95555122225778,23.26980142877437,28.89513514752616
2025-12-12 18:23:07.315965,Right,78.28609424288152,104.38521204030258,116.6432991749025,89.06005400579306,-145.84770817002573,91.94320123075158,98.86412186009693,104.51084129628725
2025-12-12 18:23:07.319956,Right,78.46530388115207,90.16004179642187,103.20929806129425,82.06685456912965,-179.10253180186555,80.8692463268817,86.33926642648294,92.14958318378194
2025-12-12 18:23:07.323903,Right,22.782637260621414,21.03933149742079,37.11099298321642,21.85892452785629,190.6276572245406,17.949806652526604,19.759379546099808,28.64562342609861
2025-12-12 18:23:07.328950,Right,24.012008904159302,36.61504556937143,53.95745207852451,28.624459257320268,275.1342635025794,25.437752592610195,32.279132480267435,44.1287007140927
2025-12-12 18:23:07.331953,Right,83.57856327123591,112.37432223951328,127.99265761685092,92.28086848038947,-80.07594885595609,90.21938186814077,104.00615703570656,115.12953606041265
2025-12-12 18:23:07.335967,Right,91.66292085748864,108.96403727907455,123.74369288612797,94.77714825439034,-205.12851181530277,92.29080434904608,102.5823451159522,111.90557945499313
2025-12-12 18:23:07.340958,Right,37.25416115950793,37.90542910643853,54.64932334702462,36.06797392733279,139.75435261616076,34.147055638357415,35.96635379154759,46.54632663819939
2025-12-12 18:23:07.344981,Right,29.624603777003358,40.48266675986815,58.58194967947202,34.87480845778191,313.7047601154627,36.02486293815309,38.19444439194922,50.99949468713021
2025-12-12 18:23:07.348989,Right,91.01224388180708,119.9337861535605,136.53370454569813,103.13254590585711,-5.787095914594829,106.46308749831223,114.97882309774286,126.52073757517792
2025-12-12 18:23:07.351977,Right,112.67869405257807,133.28606554756698,148.65724143374246,121.06535010025254,-217.79823836708965,122.71096204055357,130.28651808785798,138.8345874513907
2025-12-12 18:23:07.356002,Right,58.9791118780995,60.51536554435734,77.60295297490666,62.00314076911309,79.4767486799683,60.63016379564942,61.82642956805648,70.79648591198202
2025-12-12 18:23:07.360007,Right,36.244466435251525,45.082770653258194,64.09650390519528,44.527822985415696,337.01478109835443,42.46207486130879,45.61209362356749,57.6508901182533
2025-12-12 18:23:07.363966,Right,94.41904548194725,125.9367632765643,144.1022490251562,110.90681745199254,79.34860748153733,109.4285579398711,122.34148591791745,134.8583355401206
2025-12-12 18:23:07.368039,Right,131.20292112525203,161.0984081603092,178.0790975893833,145.13199400322628,-209.5245824812082,142.84703424155305,158.49380336765898,168.84255205848604
2025-12-12 18:23:07.373042,Right,81.11576753454574,89.88751939723443,108.72934074795921,87.56487731698144,7.588162308034953,84.43225971864013,93.37814667633211,104.01975441238028
2025-12-12 18:23:07.377014,Right,38.979453590349294,47.22777167966706,68.92543776374805,48.09468884803937,319.1838212942457,46.844162320565374,53.699139749543974,67.64656264059886
2025-12-12 18:23:07.380078,Right,85.25442569016741,114.40748428279767,135.99684985449858,103.91368183048326,139.235461609489,105.60282724041463,119.3788425171806,134.22076794581517
2025-12-12 18:23:07.384090,Right,137.049358705568,168.95249709621567,188.39342306715844,156.38976128182549,-195.29836991762568,158.22647263874387,174.96558544753498,186.4330266199977
2025-12-12 18:23:07.388086,Right,103.10301695812814,113.77808660773735,132.40264439054044,114.33555412526766,-57.977096659928065,113.93107061265619,124.04719499967905,132.61817761623388
2025-12-12 18:23:07.392115,Right,53.83994831351447,58.150500540214125,76.43203482796616,62.80946708414558,292.5606458217226,61.137294408483285,67.39510050886747,76.22627349571485
2025-12-12 18:23:07.396151,Right,89.3711089982171,113.22532970828979,128.43961105702692,103.71839728545092,198.43652968778042,101.76112370947885,113.77782817133266,122.42399044628837
2025-12-12 18:23:07.401149,Right,152.46466360758495,184.74640508111042,195.55331806322465,166.6319202028244,-163.08376734638296,162.68152757426833,178.0214180711464,183.56216727532228
2025-12-12 18:23:07.405129,Right,135.40827259627622,149.35680366614906,159.00035996182487,141.76197452473298,-111.38059772675842,134.75158915450265,142.2579050101731,145.11688333332586
2025-12-12 18:23:07.408102,Right,80.27445795736276,83.91744136823672,95.72041653541237,84.692765416469,260.8223576951186,76.80298660186213,76.68370520692974,80.07763406732863
2025-12-12 18:23:07.412157,Right,98.9420263398024,120.13057744502572,132.98635234638277,110.71141953868755,259.487072671388,103.4528807376555,107.4113875762805,111.86606831018071
2025-12-12 18:23:07.416171,Right,163.6979618986561,197.93775735468353,209.59526304786414,178.22559665470544,-110.55874565391377,169.03997561512006,180.41996582727006,184.00653563105516
2025-12-12 18:23:07.420183,Right,159.4274071855034,178.21452916340422,189.97466572640406,166.47159624379492,-153.15163966558862,152.77639726448615,163.02754004165035,166.7992705309589
2025-12-12 18:23:07.424191,Right,98.20849987710608,102.15328930765463,116.39878150522418,100.92657279835112,216.33857690733748,84.84094866945088,91.59712564821893,99.40750173413107
2025-12-12 18:23:07.429205,Right,95.08348185579598,112.47489771334585,128.0817980776119,104.7131977263125,312.0212413424224,89.92003867186577,102.05379885717412,114.3727693529072
2025-12-12 18:23:07.433210,Right,152.25726821689022,186.20375898757266,200.66629485180601,168.29112354569224,-38.98285815860072,154.42259325203486,174.77503728694865,187.9263931167734
2025-12-12 18:23:07.436162,Right,156.71959960449385,180.0691312155759,194.305405750114,169.02088009581348,-172.78530657289411,153.4500256859319,172.2784465790246,184.89270422258414
2025-12-12 18:23:07.440236,Right,94.89538277849351,102.05985973499628,118.81924487592187,103.08602701407654,168.5640216379361,86.64990592007234,98.63470961770508,113.68615843231237
2025-12-12 18:23:07.445251,Right,80.22476285918674,98.1068067764063,117.03940447179775,93.95418883750972,353.3069972438534,80.14062955157715,93.3320624077096,112.17687051545363
2025-12-12 18:23:07.450305,Right,140.43907376672723,177.53449145716877,196.32141520112054,160.659266074872,40.83938193381255,150.01507814048819,170.02708281182277,189.5442374399281
2025-12-12 18:23:07.453256,Right,164.00850474724575,193.38619679871772,212.85267335150274,181.08395103676594,-182.72197181048978,171.07689740684873,190.25663935528428,208.3240569591726
2025-12-12 18:23:07.456215,Right,107.63753847591579,116.49784181406721,139.85687548937858,119.8931954716827,97.4995919860994,109.73574910614843,121.79333416788722,140.822502213603
2025-12-12 18:23:07.461314,Right,76.48314947998006,89.9526135474589,117.07634659833275,93.72144219420443,350.8213236207921,84.79816593509167,97.34015258523868,119.20534055464668
2025-12-12 18:23:07.464296,Right,127.76880768727278,162.23262785977568,189.27918608563778,152.33675564716395,97.95541824694374,144.00586127201677,164.88392381837184,186.68228865458514
2025-12-12 18:23:07.468310,Right,165.1327990271384,197.83151304972125,223.06989465476363,185.7852438117261,-190.24591410812718,175.28383140410006,197.80489392243908,216.4006252905383
2025-12-12 18:23:07.472319,Right,119.68396028300049,130.9785767221765,156.54748643630592,130.49947910293122,25.537924016505713,117.83256644330686,132.45043049263768,149.33175445190864
2025-12-12 18:23:07.476327,Right,79.2358559082495,88.68398062497727,115.61043852330477,89.47340527188499,342.4846835139251,78.28160187609319,89.1776702839561,106.71099423228588
2025-12-12 18:23:07.480310,Right,123.98652251066233,153.27434487514256,179.35081826217356,141.2535798907047,168.58825461985543,133.36855835119786,149.33781813616224,165.7534807559423
2025-12-12 18:23:07.484385,Right,175.39548618912522,207.8485638031707,232.17194487160305,193.43137715637567,-169.69410488251742,186.42291336548806,203.4882074623165,216.1367743993469
2025-12-12 18:23:07.489374,Right,142.0924660255696,154.60214019323757,179.72390400982113,155.01082685730944,-39.78039188470575,146.9273592876998,155.34994853271928,166.06848976342008
2025-12-12 18:23:07.492444,Right,90.0642810419231,97.21248162975826,124.43809948777198,105.08616169635206,310.82267302362743,97.71875002667366,100.14024582853017,112.55982426398259
2025-12-12 18:23:07.496368,Right,117.71231986214116,144.79364437417826,171.51412253489252,141.77167914330494,217.62775913842052,136.7308018112817,143.2491957774182,156.90990944385703
2025-12-12 18:23:07.500343,Right,170.50048885541037,205.70644325423928,230.0435916360293,195.9682667151792,-153.99252393011557,191.20784185623052,200.47881432136637,212.49608629460272
2025-12-12 18:23:07.504422,Right,143.87645491413423,159.44222740516125,183.59125447607948,160.8929837406904,-114.31240092110966,154.41359973912768,156.16055826669617,167.01893878745614
2025-12-12 18:23:07.508420,Right,82.01389833034773,85.20643442466098,111.19770278426586,95.26573248625209,261.7952607689149,88.94662171468372,83.54740578918427,96.05885070134536
2025-12-12 18:23:07.512430,Right,98.4551918234647,117.38122716038197,143.22250234888634,117.61028423535754,273.9010912416561,113.38867456190928,112.57094343201607,126.17210820363835
2025-12-12 18:23:07.517446,Right,164.5932595769409,195.6168225601432,219.0664914374065,186.37994907236134,-96.32348737476423,181.57162105012685,188.94524198607542,200.52632931168773
2025-12-12 18:23:07.520449,Right,161.34030914174218,176.490660619369,199.39268501935294,176.60937607698725,-154.40671608983394,167.5658295142639,174.2105958329048,184.39514122676337
2025-12-12 18:23:07.523457,Right,98.74757616253919,98.83451689037611,123.78827265021391,110.75551953091053,205.68193117783812,98.88869638147298,100.73535211270791,113.69286441794247
2025-12-12 18:23:07.528415,Right,94.36253405365278,107.73614853952313,133.06453820559545,113.16385819009156,305.4932839638932,102.84616137426929,106.67145085686934,123.00154772624956
2025-12-12 18:23:07.532478,Right,152.85915471072076,181.8630373403721,204.09248699076124,175.74334432304022,-44.051815298356814,168.18412241133046,175.73658995266305,191.12636942163226
2025-12-12 18:23:07.536506,Right,159.70015328329464,175.38439325778745,194.83526890983921,174.6486493315897,-187.6425478662277,168.17028590175323,170.25730279108393,182.6157523712027
2025-12-12 18:23:07.540506,Right,98.26468468956591,93.91245426866226,113.51647910856991,105.05759383516852,145.57593856359017,99.53641386085656,93.2613341215474,105.73874237880227
2025-12-12 18:23:07.544524,Right,82.00738531233219,85.83253236056771,105.74019789783051,92.5409309254319,332.66575239509984,88.92280233075144,85.9757905418519,100.86055938221398
2025-12-12 18:23:07.548542,Right,141.06770172249526,164.3287181390042,182.28107545085368,158.52903905831045,22.334320619454957,154.9351572728483,163.6430258138862,178.6286246693635
2025-12-12 18:23:07.551554,Right,163.4584364295588,180.53529156692093,196.85002323266235,178.4750178833492,-206.86088227451546,171.48274393755128,183.90273762639845,197.23155035992386
2025-12-12 18:23:07.555555,Right,103.1317288618011,100.13665581183159,117.40402706954046,112.67994924454251,71.55514205388317,102.71764364390401,109.33926283361507,123.53029313517618
2025-12-12 18:23:07.560587,Right,67.24280536494916,67.9389230927336,85.68797145533608,80.10400870486046,334.654398423605,71.18310877148178,76.03578268707497,92.94423324504169
2025-12-12 18:23:07.564560,Right,118.78961919201538,139.77789303773898,154.29427365062293,137.78355548731633,89.00975064744125,131.02925538932323,140.98184143964318,157.67268498396152
2025-12-12 18:23:07.568591,Right,161.476476392505,181.0985967417073,191.29805747009232,176.83447791598155,-207.1663097852579,168.81746555879363,178.97135684848763,192.44884854435804
2025-12-12 18:23:07.571608,Right,119.37762531152111,118.59696606072248,127.52985579203232,126.44297885050764,-3.134366656013299,115.23970848566387,118.11241264850833,130.22745971634868
2025-12-12 18:23:07.575634,Right,75.61575224087574,74.0863431157486,83.50105682542198,83.85983416903764,314.104764339907,72.03101769610657,72.48647712514503,85.94131953301257
2025-12-12 18:23:07.579609,Right,113.36906037991866,132.97227749761078,140.99970568320714,129.5095440565492,146.8069608760561,119.16763954155613,126.088078639179,139.1862881592824
2025-12-12 18:23:07.583575,Right,158.49381219383213,182.6514609674923,188.59512904743315,174.85558215310448,-191.44150177011034,164.35544422679232,174.32818258201587,184.49003241796163
2025-12-12 18:23:07.588645,Right,119.24482633941807,124.40647001357866,131.1941720742907,128.83941533431062,-61.61658818332944,116.7931118478009,120.79414319788339,130.3076218579081
2025-12-12 18:23:07.592661,Right,60.57995230445522,60.87556850054534,70.19302889495157,70.40599285589997,302.0474528427585,58.8364889100485,59.72641264414415,72.7097199249256
2025-12-12 18:23:07.596679,Right,84.13773282707552,105.17644825045136,114.21973457728745,101.49692745346692,226.6871160548908,92.08248142831144,99.98800544586265,115.63567709273775
2025-12-12 18:23:07.599677,Right,138.48639953651582,169.1373356838012,175.11654232954606,156.0204999904381,-142.47587347155786,146.69891190424096,160.58771202203934,174.85791546377004
2025-12-12 18:23:07.603703,Right,116.17948329189676,128.67916626035003,133.02292757522082,124.16800083659473,-115.81041576171992,112.81869579770137,122.57525697504752,135.2393137117906
2025-12-12 18:23:07.607691,Right,54.95183942458243,55.808711109741125,60.81271840041154,58.38338323941571,249.65671526477672,47.0462721598451,52.19843811815372,66.46238615576294
2025-12-12 18:23:07.611699,Right,65.39558787789429,82.13200907275314,86.67296876051114,74.29106349969516,259.77026053088775,66.03537330383551,76.14157768507721,91.89055665148771
2025-12-12 18:23:07.616733,Right,122.1982876965194,151.2216147039435,153.34823648195015,133.4598513415258,-113.33589780787588,127.3429361320741,143.39414605434285,156.81629631711985
2025-12-12 18:23:07.620733,Right,111.49678429117193,124.86723326568608,125.99111864011502,115.93851444986649,-176.74895151345117,108.97492380125914,120.90840448075323,131.15684444754152
2025-12-12 18:23:07.624699,Right,45.39011379747535,43.73503065263503,46.27864147681976,46.27313287882134,186.42034411149507,38.49706234288169,43.82403082709061,54.25640646912507
2025-12-12 18:23:07.627751,Right,41.39643108911696,53.60348649456864,56.400932076590834,49.27443548629526,296.95386209689605,42.670997118751984,51.44282581398147,63.26688287590514
2025-12-12 18:23:07.631711,Right,103.9801402532612,133.62723755836487,133.82859814012772,117.09466753088054,-51.81232251720212,111.07943112996873,127.5657202109578,137.8481882297492
2025-12-12 18:23:07.635713,Right,115.32406062554219,133.7955061660905,131.92609647492645,122.30143026044243,-209.4188546799851,114.7523082550324,129.57074392121285,137.11168118575006
2025-12-12 18:23:07.639793,Right,53.73517099185847,53.28387571076746,52.08166943077231,54.11387096878025,114.33851818481344,45.88716340516112,53.05562847384135,60.807932423078455
2025-12-12 18:23:07.643806,Right,33.28917207609629,41.283358492160914,40.53945542013389,38.07569728966337,308.11434455841663,32.05091067851754,39.27936048785341,48.580598727508914
2025-12-12 18:23:07.648815,Right,90.41724844020791,118.32736982233473,115.35328426788328,101.87753355246969,5.404807694198098,97.98094598957687,111.34821192527306,118.79455576633336
2025-12-12 18:23:07.653858,Right,115.78527964148088,138.12307419179706,132.78608248729142,123.91433073367807,-228.5340028747014,119.40843769873027,131.36473220895277,134.41513677456533
2025-12-12 18:23:07.657860,Right,58.9561955400859,60.97370228060754,55.75298621793627,60.39378746060538,44.411589613038814,55.093553926446475,58.339473976317095,59.38671795252594
2025-12-12 18:23:07.660867,Right,22.529451626964146,27.075945278658764,22.208335402829107,25.95425668801181,314.58781913868734,22.70140388951404,23.961127082118765,25.559591043536784
2025-12-12 18:23:07.663866,Right,69.49707980154199,93.286737596296,86.47031638672343,77.74075160050415,80.44010452994553,77.04323982834467,84.91007125767646,85.43224257745896
2025-12-12 18:23:07.667905,Right,106.12454594834708,128.18380214006174,119.61465465696529,109.52135334102786,-210.88224707904737,108.1891573596804,117.77899245399749,115.49316854964127
2025-12-12 18:23:07.671953,Right,60.20936683326727,61.88757133323816,55.010192644869676,54.53571657452267,-3.043242692190688,50.93855880308547,53.98840547419968,51.42456628367654
2025-12-12 18:23:07.675962,Right,18.588510779372882,19.712236156337894,15.781167618377367,14.179117565217894,321.86771923421475,10.537069440964842,11.791631083324319,11.896124622027855
2025-12-12 18:23:07.680948,Right,64.22860720619792,86.78503952769097,82.90244454631465,68.46779812200111,153.17246482518385,66.0699601014785,75.0653360944998,76.23093707382213
2025-12-12 18:23:07.683914,Right,118.02784487145254,144.78656494038296,138.88324370852206,122.82020580692915,-206.1951445795712,119.06374183985463,132.69497975701233,132.03633708201232
2025-12-12 18:23:07.687942,Right,82.96005985329975,88.83647873040172,82.55872179142898,80.04823652806226,-102.49001754951314,72.72941425918543,81.23302190037793,80.19899363670265
2025-12-12 18:23:07.691939,Right,22.85249122956884,21.171307112206705,15.805606741807424,18.732916534208925,252.34406080891495,9.773488854189054,14.781159147940343,16.6180275096267
2025-12-12 18:23:07.695961,Right,42.98179620497103,60.618522541219136,54.08784092456335,46.35703967322479,183.2464151352615,38.49919527316524,49.33422678345232,52.917402042628964
2025-12-12 18:23:07.699961,Right,95.67163462949975,123.4832560007344,114.17825546688982,101.37442788411863,-183.45575151327648,94.34407753004052,109.6461959190201,111.21289368407452
2025-12-12 18:23:07.703915,Right,72.59828702773666,83.26683945252444,73.42151522630593,71.78823942531017,-160.49757003331615,64.83187137718778,74.1600221300614,73.99863804178312
2025-12-12 18:23:07.708994,Right,8.633241264979006,7.907850647869054,-0.06152515753637999,5.587150202773046,208.84232418326428,0.7999060205766,3.528429755970137,5.398075197590515
2025-12-12 18:23:07.711994,Right,15.02604950258683,30.41793614224298,22.885002303606598,18.86462121795921,230.10538488064776,18.119911667585257,24.533845830592327,28.96176518892753
2025-12-12 18:23:07.716002,Right,69.26291130794561,97.8880534064956,88.59653901591082,76.41594112038729,-140.40212661655096,77.25029483549588,89.9248221682792,93.61399866483407
2025-12-12 18:23:07.720006,Right,57.711976481514284,71.44150702375919,61.830186949897325,58.274389442958636,-211.6170863985899,56.99292138098099,67.12120147304086,69.06831452841288
2025-12-12 18:23:07.723969,Right,-8.712037027566112,-10.468289589771302,-18.01210220422945,-12.765302305691876,149.27167580682726,-15.542622856490198,-10.617085934543866,-7.9562591750582214
2025-12-12 18:23:07.728033,Right,-11.95891904689779,-1.128274359216448,-8.055694895607303,-11.059482471217052,268.14301399451506,-12.091511735037784,-3.630733343452448,-0.04010839745751582
2025-12-12 18:23:07.733998,Right,53.26590478797152,80.45644377963617,71.10136313828116,57.545754818755086,-74.84008251929481,58.39004806165758,73.45440106050228,74.58398413952091
2025-12-12 18:23:07.737009,Right,68.37594868711312,83.65334140999767,72.54622411607124,65.46576780646865,-235.76189516263548,65.61471436210559,77.6415256762557,75.28170245177171
2025-12-12 18:23:07.740059,Right,9.979465309472289,5.475537395890569,-4.381186328595504,-0.32536508416524157,85.37837057761499,-1.1012309771613218,2.4405600299942307,0.13563711375172716
2025-12-12 18:23:07.744035,Right,-9.492912932299078,-6.366650999407284,-15.075504752399866,-16.46996602942818,282.6686161416219,-16.14027516511851,-12.517588716407772,-12.648339017570834
2025-12-12 18:23:07.748032,Right,45.90653630490124,68.8284717627248,58.5989380251558,44.47117845182947,-19.305110072389652,45.5190245436097,56.15411020396277,55.44205455403426
2025-12-12 18:23:07.752091,Right,68.41588451534335,86.37457409320632,74.61564150519553,62.8992256178899,-259.4512254715446,61.936813227439416,72.59699704077502,68.95254214607121
2025-12-12 18:23:07.756102,Right,9.82916199543979,8.432085747597739,-2.186379263337585,-2.323096018677461,11.413299307627312,-5.467268403706839,-2.0373889315960696,-6.326256484142505
2025-12-12 18:23:07.760141,Right,-26.04299722284486,-23.40625247990829,-32.68991119466955,-34.57544011164282,289.04584531131695,-37.09348772186786,-34.665758258270216,-37.088495735879405
2025-12-12 18:23:07.765122,Right,24.170783642868628,48.21529917314183,37.4201841197937,24.078296367661096,57.03411963462713,22.832524673140142,32.04245506862935,29.71646309469361
2025-12-12 18:23:07.768088,Right,65.07756115133816,88.97376265266212,76.00799130088126,64.63159771442588,-249.15793685724202,61.727358652307885,72.08420532991295,67.730964977236
2025-12-12 18:23:07.771151,Right,19.845617455604952,22.83758863028197,10.511233501048991,13.754672923445469,-58.1110366204739,7.628170300711645,10.514178308323608,6.406277443602448
2025-12-12 18:23:07.776165,Right,-27.60117479020846,-27.32677037655958,-37.96109915913257,-30.972476623617695,269.41923511150526,-38.10655578154547,-37.7249348705227,-38.64007572711853
2025-12-12 18:23:07.780178,Right,9.089275011050631,28.88409901445266,17.135582650778815,14.276157740998315,118.64023056273436,7.959938711006544,15.913860771470354,16.32774609462649
2025-12-12 18:23:07.784174,Right,57.056956417363835,80.06667026925425,65.51715412907652,61.822052392264595,-226.60282451420062,55.117974532113294,67.70038245593605,65.75941177472123
2025-12-12 18:23:07.788151,Right,22.024106591095915,23.093984662074945,8.066668671075604,17.660339536945685,-116.33773212041706,9.984886547361384,17.033018107234966,13.289547115637106
2025-12-12 18:23:07.792222,Right,-34.079492894539726,-42.312624577083625,-55.818317943339935,-41.048433768577524,245.7512417297985,-47.192741446298896,-44.17411583222565,-46.770811059104744
2025-12-12 18:23:07.796216,Right,-9.508734869843465,-0.14706640665826853,-13.67928640327591,-9.890333877061494,181.62046422989806,-12.896347355519538,-3.8047665995982243,-5.826567958778469
2025-12-12 18:23:07.799173,Right,45.26662554669019,63.75928260142973,48.90150326539879,46.77167639043182,-191.44291289937246,44.43059312881087,59.37396857239946,55.00917775412381
2025-12-12 18:23:07.804231,Right,20.415003272806644,21.063770309308893,7.103649799639243,14.96814896952128,-178.05318598549638,10.750262669622316,21.578686168504646,15.450724675727542
2025-12-12 18:23:07.808211,Right,-47.60857552202651,-58.908603776159,-70.01575008894724,-55.87488016897987,196.4148136336662,-60.15239782354911,-54.60160918520705,-59.157449745063786
2025-12-12 18:23:07.812270,Right,-41.43502923313645,-36.412141822860576,-46.86545522281085,-43.20250323713117,234.41226019451278,-44.52942072303995,-35.068853951161145,-38.045432549653924
2025-12-12 18:23:07.816265,Right,20.753490685267025,39.99428045346576,27.392934313051228,22.280732170591364,-129.77616785099963,23.017790350335417,37.66977982771641,32.98436768572719
2025-12-12 18:23:07.820292,Right,20.530569436559745,25.48800026306708,12.123442507632717,15.797213274963724,-210.6102354561881,15.907384872545663,25.59219635782938,18.790508892008802
2025-12-12 18:23:07.824304,Right,-39.137028964672936,-49.89806299594056,-61.21352036477765,-47.50189423924894,141.28066758687783,-47.53335120850534,-46.18411933135212,-51.82705542631447
2025-12-12 18:23:07.827303,Right,-40.61756682529813,-38.78692564400262,-49.13657274225989,-42.2954426614524,256.89585795435414,-40.498901178834785,-37.947924615466036,-41.50025045336224
2025-12-12 18:23:07.831322,Right,25.642465815843025,44.77993518131552,32.272837125725346,28.91446107198135,-97.72572071965988,30.904510496118746,39.69866263104632,35.23463645063748
2025-12-12 18:23:07.836308,Right,40.34511743115581,48.53044383539236,34.24058603838057,36.84991252017062,-279.17619615824515,35.409109716973035,42.44057339221763,35.92508336064202
2025-12-12 18:23:07.840345,Right,-23.41829603023507,-34.93938959011575,-48.064292687384295,-34.497562749551435,34.27079061311815,-38.99101951211196,-38.864153684269695,-44.36578072520206
2025-12-12 18:23:07.844365,Right,-50.43614393415919,-54.59785871013446,-66.41994135425193,-57.54802386597294,244.61472984442662,-61.12014981832908,-59.874431076445035,-62.675483879240346
2025-12-12 18:23:07.847363,Right,2.4433037007111125,18.110325629466388,5.165075883909594,2.595874046732206,-45.41351501781537,1.38909707525454,10.259213663332048,7.30529403116816
2025-12-12 18:23:07.851411,Right,28.873970983026084,39.212953317204665,25.27476527811814,26.44386643987673,-291.89336535459734,25.4173584153541,34.76676901250903,29.494753453021985
2025-12-12 18:23:07.855371,Right,-25.156153705713223,-35.82488262132392,-47.96575444932387,-34.10397804299282,-32.891844314428454,-35.66446446002374,-33.40611678899586,-38.47020186021109
2025-12-12 18:23:07.859355,Right,-59.8085874400349,-68.67344839257566,-78.75380585131279,-66.15614331557299,244.04189069541098,-66.18822496294888,-65.1138714807239,-67.34654348653567
2025-12-12 18:23:07.864399,Right,-10.01179093902465,1.1318681180273416,-9.79530822490051,-9.128846202467685,15.451546990840143,-7.5181190740913735,0.3670953075925354,-1.0176398643452558
2025-12-12 18:23:07.868428,Right,29.95778397216054,40.382204532383184,27.84027261719166,29.382025571649137,-294.5688787876752,29.594036005812086,39.08375310420524,35.710421316754946
2025-12-12 18:23:07.872435,Right,-18.347140476435015,-29.551477196786436,-40.915158772248105,-25.967184331442695,-105.09343833640014,-28.132984075018612,-25.83971863201441,-29.827903745703225
2025-12-12 18:23:07.875441,Right,-69.44332096353901,-84.20958078851254,-93.32647423397611,-76.05716448935345,234.372092107973,-77.49463564267717,-78.1759393477223,-80.30753118948996
2025-12-12 18:23:07.879458,Right,-31.981449487248028,-27.192223599762656,-37.03882129820704,-31.245235177502764,96.19739978044527,-29.99266457181875,-24.08300025009521,-26.18330054431135
2025-12-12 18:23:07.883463,Right,21.5926425213911,30.706450964356918,18.129760963603985,22.197449956449418,-253.11759891801194,23.790177096321713,33.368138223177084,27.79441308668902
2025-12-12 18:23:07.887411,Right,-9.410349544301425,-20.868912503116007,-33.94128436926076,-15.807034041292354,-154.1338682101068,-16.131593911602977,-12.891960806126008,-21.07597288263787
2025-12-12 18:23:07.891487,Right,-67.20575729212942,-86.57138339312587,-97.91726101502081,-72.84943055987605,210.7593519517941,-73.44398494215056,-75.02998272088371,-82.19932653413343
2025-12-12 18:23:07.896488,Right,-45.23415572047088,-45.13044252071995,-56.216230849201565,-41.18841609973242,160.27317176052748,-39.9430650209797,-36.341574791626044,-42.375847271039675
2025-12-12 18:23:07.900456,Right,12.718416747891752,23.815571250539506,11.289294478969055,19.860438134182914,-209.6293511784752,21.513143870299245,29.870734412148522,22.187872125279682
2025-12-12 18:23:07.903506,Right,-4.039591694254341,-10.067554809425928,-22.337069077687374,-4.7857877077858575,-206.6456343095033,-4.907906300992181,-1.9650463929119724,-10.974141975488237
2025-12-12 18:23:07.907560,Right,-64.57628777799982,-82.7969386133118,-92.92285760757568,-69.65508030727324,159.8576204663459,-70.37075060530151,-73.71792434329654,-80.83560849643982
2025-12-12 18:23:07.911490,Right,-53.992522501561325,-55.86855779855614,-65.69144793863325,-53.09665441260404,196.053141987466,-52.21729913643503,-51.871210911822345,-57.131868355158076
2025-12-12 18:23:07.915541,Right,10.329573713805075,23.088916332086228,11.06409480190996,14.72416647139653,-175.0287005185328,16.161156590866995,22.03230568328854,15.152623401507299
2025-12-12 18:23:07.919572,Right,9.652660689131153,7.758548633131795,-5.008799012990494,7.360654990042349,-265.8023819671798,7.153747213084898,8.23675251151326,-0.5445418619929114
2025-12-12 18:23:07.923580,Right,-54.871624979236,-74.00251160351854,-84.51224971553893,-62.13628525876675,91.04946025288882,-62.87051718688599,-70.26905394967616,-76.86309110800266
2025-12-12 18:23:07.928536,Right,-64.3915258456309,-72.14036797077915,-80.9436506217462,-66.04439813116937,229.35206074817097,-64.69084447544196,-70.77047142678947,-73.42219564122564
2025-12-12 18:23:07.931547,Right,-3.9894837666724925,6.0315655761614835,-3.6122192914117477,-0.6092255236403545,-105.4406232491292,1.83163439823376,2.8265607982511938,1.0575017985950126
2025-12-12 18:23:07.935606,Right,10.538182504319593,11.13069514419712,1.1784344561492617,7.9497452301120575,-282.1741793862825,7.847671171552065,8.31179644007625,5.451675750700815
2025-12-12 18:23:07.939625,Right,-49.414081667917344,-67.43478876175755,-75.14542047717259,-58.959688984896275,32.56676199938056,-62.39583199926528,-67.74519076390243,-69.4586006170357
2025-12-12 18:23:07.945680,Right,-71.15346135701725,-81.44161275435454,-87.58542834460604,-76.57323517416444,249.25186558432026,-80.96745652427944,-84.4699850153429,-83.72114467784559
2025-12-12 18:23:07.948614,Right,-12.4896237961608,-2.631143909995444,-10.540733772977546,-10.772918311708054,-40.488443457970334,-15.331047740603935,-10.988738052617919,-10.672637860856412
2025-12-12 18:23:07.952660,Right,17.782785050058465,22.755533921874303,12.730956612587761,16.763008922824156,-297.71772157485884,10.638885771647438,14.998194062334733,12.800492956290327
2025-12-12 18:23:07.956668,Right,-37.00319706853588,-52.59124864050136,-61.68736824978987,-44.3640854794412,-43.817408430290925,-51.251791944165234,-54.906210838265906,-56.99962796373438
2025-12-12 18:23:07.959730,Right,-74.91143767712128,-87.90621666850711,-95.1404357087522,-78.9891322434305,244.12545398615748,-83.11727338543642,-88.69996186541539,-88.25837723474979
2025-12-12 18:23:07.963682,Right,-25.601596037585296,-17.353983915845674,-25.164824717925512,-21.734484001664896,26.40888424577315,-21.811538475236375,-20.835608444423997,-20.396674257579434
2025-12-12 18:23:07.967698,Right,18.466741330925288,26.846406284468685,17.587122337419714,20.970462485725875,-290.2144419696824,22.49320509889003,24.885801077165524,22.137839568826166
2025-12-12 18:23:07.971744,Right,-25.63697383409817,-39.120702119314956,-47.57551110962959,-30.52313363518624,-115.26799259316977,-28.835628322316552,-34.36540931349009,-38.67024761549692
2025-12-12 18:23:07.975729,Right,-77.99762586904762,-95.57301553530488,-102.58258482987003,-81.71901857685589,220.82274698567198,-77.87364872123726,-87.72060849508489,-90.62011304921907
2025-12-12 18:23:07.979732,Right,-46.78743714948905,-44.19230448770395,-52.63283586704347,-42.20133066127164,88.13343191931835,-35.03249800053891,-39.80540847293378,-42.68923583387368
2025-12-12 18:23:07.984747,Right,0.38824138906784356,8.865290436264331,-2.5075214544922346,5.266597390051174,-260.7141115706181,13.107135401587584,10.806703872520302,5.023444907692465
2025-12-12 18:23:07.987752,Right,-34.37101790736051,-45.765448681162525,-57.35796176201984,-38.31802585879268,-163.34060187421346,-32.45451297792897,-41.68303687288062,-48.81355620101749
2025-12-12 18:23:07.991776,Right,-92.53528623366219,-112.76025303492861,-122.24877627227397,-99.71529522730634,209.3364968850874,-94.95003969080062,-108.77958016013872,-113.33722607939126
2025-12-12 18:23:07.995797,Right,-65.97037543667466,-68.08059359956314,-77.30101797965472,-67.56132916615024,168.26688064120026,-62.571814721639385,-70.0646073981552,-72.27365573901261
2025-12-12 18:23:07.999799,Right,1.0659478696143196,9.173218275012914,-1.9094485604509828,0.31273646277259104,-208.42966835905463,3.956501174801815,2.8394105400366243,-0.44138968061452033
2025-12-12 18:23:08.003821,Right,-8.401944415694743,-18.226711174422235,-29.36457264033379,-17.215097949090705,-223.31786200658462,-16.230460021819454,-21.788809761266748,-26.148024223432003
2025-12-12 18:23:08.007814,Right,-70.51932101525745,-94.02475624094222,-102.70209950301069,-82.74567838896473,138.1129467038245,-81.80298727974514,-94.13715466107533,-96.13576022563211
2025-12-12 18:23:08.012838,Right,-69.31234662147835,-77.77722246314806,-85.37999531919922,-74.47613149060271,187.2364204335572,-70.40605376403255,-80.40525578674715,-79.67099678474915
2025-12-12 18:23:08.015839,Right,-13.940680866031471,-7.818585576351325,-17.098503850655106,-14.844453726764186,-172.11677358101224,-8.9187069599393,-14.043107400044391,-14.126676529056567
2025-12-12 18:23:08.019848,Right,-17.841155279362283,-25.59280357282114,-35.797800265623664,-25.32025380529376,-261.6355063280844,-20.954500337535137,-29.88975898616627,-31.90494187331933
2025-12-12 18:23:08.023919,Right,-81.23926156257585,-105.54906554761692,-114.2441753562598,-94.07816705568257,98.33973965032419,-91.34123272570287,-106.69375452458189,-107.58746637563308
2025-12-12 18:23:08.027916,Right,-87.34083982303491,-99.50235827505821,-107.5015453398737,-94.49939978928887,246.62479338285993,-91.05398747247091,-103.22796818966162,-101.7718658124868
2025-12-12 18:23:08.031865,Right,-20.841417800154886,-14.073328285390744,-24.067622209848196,-21.543845682499523,-86.34521813548417,-17.60566917549295,-22.17263562435255,-21.352235175247188
2025-12-12 18:23:08.035920,Right,0.4978676159080351,-1.7979151834151708,-13.155318341727252,-3.8298449877111125,-276.3911187856065,-1.6667829995130887,-7.978878871748748,-9.302439999963099
2025-12-12 18:23:08.041962,Right,-57.983674629555026,-80.59441696517024,-90.16382479497406,-67.45622415451362,27.450540251924394,-66.55869522893772,-80.99679997122439,-81.57896771008382
2025-12-12 18:23:08.044869,Right,-85.83997920457841,-103.46179007918545,-111.01866044504277,-90.7539763744062,250.20223203830756,-87.9566791998077,-102.44603434352757,-100.57946228386572
2025-12-12 18:23:08.047938,Right,-34.114326918977895,-33.16098390886327,-41.32997960524517,-32.541963973475504,-28.725540997525968,-27.041676701934193,-34.00479218331748,-32.7434329547832
2025-12-12 18:23:08.051996,Right,-3.9292125846441195,-7.917079162019945,-16.759906140490784,-6.251197273966682,-287.3853274642861,-0.3064167368574999,-6.367487500974676,-8.082608917327889
2025-12-12 18:23:08.055888,Right,-53.18218211863132,-77.74855338406633,-84.32482435923885,-63.077010298926325,-41.31566273034696,-57.39975643386424,-70.74797823616245,-72.5277926775525
2025-12-12 18:23:08.059963,Right,-86.28845765639926,-108.79016679804772,-112.71585666334431,-93.69815454111813,245.97056099616384,-86.60824888322531,-101.79693687651161,-100.28579327240004
2025-12-12 18:23:08.063979,Right,-34.485337704769336,-35.91963093090453,-40.6488472311903,-34.23057871167839,30.294179212709423,-26.2531647331125,-34.525318066371256,-31.5582109222305
2025-12-12 18:23:08.067996,Right,12.578872126265196,11.516922274618992,4.068753452767851,10.860532249949756,-291.7155237846564,16.20205436474498,10.629955495714967,11.606407869454415
2025-12-12 18:23:08.071987,Right,-27.46447865531809,-50.78914638680726,-59.08785806722881,-38.22650153331779,-122.29396502665622,-36.52423425485176,-48.5065953755402,-48.674366873223335
2025-12-12 18:23:08.075027,Right,-76.25840637419606,-104.65412333625864,-112.63880114722997,-87.77325431968347,219.51515941333128,-86.02223990993662,-101.54991840431467,-100.15323484849068
2025-12-12 18:23:08.080032,Right,-41.46709756601922,-49.65963018847833,-59.15739374961413,-45.152150350040756,94.97933492261654,-40.3771926908812,-50.792345343383204,-48.776388358724944
2025-12-12 18:23:08.084060,Right,11.121025687563815,10.616029203403741,-0.9478712645941414,9.388112115811964,-259.8778581726983,15.697827341209631,7.636854876633151,7.7514450816306635
2025-12-12 18:23:08.088062,Right,-17.544817734349635,-35.65223017110111,-46.161176183464704,-25.39763753463194,-178.73870452284973,-19.517844916466856,-34.68633752666938,-35.04490932205226
2025-12-12 18:23:08.092062,Right,-73.23799876396515,-99.05794513820729,-106.31946929567493,-82.15282489042875,185.59724286976052,-75.29380702377239,-95.59267547077616,-92.95544224843616
2025-12-12 18:23:08.096070,Right,-50.11531990607182,-57.84107093029888,-63.96736537660763,-52.36660290443979,147.4206378456838,-43.050699353960226,-57.62191272621567,-52.60577295716212
2025-12-12 18:23:08.100077,Right,10.437864752217138,12.816263215958315,5.596486571273999,9.359954502499022,-226.9395670394515,18.93954378919443,10.758183691606973,14.527441554761026
2025-12-12 18:23:08.103106,Right,-3.6342010268053855,-18.889024962540134,-25.415454326735926,-12.722995693751727,-242.31791749821423,-5.5080363906381535,-17.327096353539673,-15.067336418425839
2025-12-12 18:23:08.107118,Right,-65.96836443943903,-94.20982351215935,-97.69597336713923,-78.30988125850126,124.56848171438105,-72.20354420985677,-89.49488438524713,-85.69401967924932
2025-12-12 18:23:08.112092,Right,-61.21840087325836,-73.22016731634358,-75.30424782742921,-65.83081963679433,182.47516324992102,-58.21300495562173,-71.57182407780056,-65.99945942975319
2025-12-12 18:23:08.116119,Right,-0.6407712509244448,3.3212228793418035,-0.18519623279280495,0.1530512427998474,-179.04969892587178,8.646515579755942,1.6324342629814055,5.816845215682406
2025-12-12 18:23:08.120144,Right,-0.3167391137685627,-9.811348468327196,-13.800921404807013,-5.033332360450004,-282.1573580107761,2.05959255174821,-8.120705518893374,-5.700411428682855
2025-12-12 18:23:08.123121,Right,-62.911744571247254,-90.1333739646434,-91.85374644403055,-72.45596163949813,69.93543313513874,-66.18668164550036,-83.19248169807543,-78.79307891048666
2025-12-12 18:23:08.127150,Right,-72.0027187011583,-88.93423935664032,-88.8223428203055,-75.9247779066136,223.6004420027457,-68.17759765751543,-82.88634078971518,-74.94059923546592
2025-12-12 18:23:08.131164,Right,-9.812244345783256,-9.004793236177647,-9.39558295912866,-8.022181322579854,-102.69115380053336,0.6886413868051022,-6.890594621065247,1.4119276628043735
2025-12-12 18:23:08.135171,Right,9.203318230713194,0.8367164173978381,0.6942341387621127,5.880639495895593,-292.45500325241665,13.048199516786553,4.094169605399657,10.492061930046475
2025-12-12 18:23:08.139144,Right,-47.60592990360601,-75.6485609251904,-72.60102714395907,-57.72486956805369,14.004500904873566,-51.83517323077831,-67.92556656923989,-61.3901485815004
2025-12-12 18:23:08.144189,Right,-69.18360193973058,-91.05314985392761,-85.05031844772748,-75.54289397800312,245.68924112576133,-68.54612777769216,-83.51388690812018,-75.39313818338269
2025-12-12 18:23:08.148217,Right,-8.07904105263151,-9.913532389007742,-4.265151715400862,-7.4422814436402405,-30.412535769224633,-0.1189144973832299,-6.485110038694984,0.5562873458184185
2025-12-12 18:23:08.151225,Right,29.7635092263954,23.837336922872055,28.250129426975036,27.755568043758103,-298.1036027473092,31.677155010125716,26.889198463737557,30.801333938572498
2025-12-12 18:23:08.155225,Right,-18.25525175905932,-45.182490028491884,-39.677178419340635,-26.834419150349277,-57.44011212922851,-26.88480632212304,-38.99070069463778,-35.72088048690057
2025-12-12 18:23:08.159263,Right,-55.835361933510285,-81.63134828630427,-74.75058151962003,-61.686375855068036,240.1520537257602,-61.73005107061181,-76.53274438972585,-71.44567702717177
2025-12-12 18:23:08.163250,Right,-9.371461752816685,-14.121778460525093,-8.978130663599586,-7.792306734954764,37.95399876278316,-5.143614410684677,-14.691487085292465,-9.939382064651
2025-12-12 18:23:08.167211,Right,34.5770139421802,31.384074779642106,33.45972360725864,34.119010391157644,-283.77749237760145,37.75030009831244,28.764654725586297,30.457752326452464
2025-12-12 18:23:08.172272,Right,-7.0847220162904705,-31.157385154161602,-29.56729331544193,-16.24366562942305,-121.30439724203097,-13.459907803771785,-30.521280365232087,-30.04520976535423
2025-12-12 18:23:08.176307,Right,-57.371901332662674,-85.97863949899329,-83.21465863451886,-67.15723759472166,220.81276420253562,-63.82441273157019,-84.62054452078883,-82.32552356611995
2025-12-12 18:23:08.179297,Right,-23.182046322333917,-32.30203226919548,-30.342775154837,-26.2400707153065,100.29194510688649,-20.85670351274166,-35.4010391438278,-32.657698016482755
2025-12-12 18:23:08.183325,Right,30.242640125397884,26.801066505162453,26.80065374563128,26.598319162039843,-258.3241591423048,32.759593251379556,21.688432136121264,21.74072540920315
2025-12-12 18:23:08.187265,Right,1.3514997447418864,-22.469980497327924,-21.661377189411724,-11.013107603117533,-181.6251449291376,-5.251505731597717,-23.315246135440248,-24.79715976119769
2025-12-12 18:23:08.191334,Right,-57.1359292177367,-90.5952149295772,-86.5806341059797,-71.1299054706542,192.79136628963352,-64.20156569637766,-87.92470514553861,-87.26994327353896
2025-12-12 18:23:08.195353,Right,-35.994808588555316,-50.90782433455752,-45.47314943222591,-41.12343902309658,172.06445238189917,-31.919567566132173,-50.28316745193297,-47.76660573534173
2025-12-12 18:23:08.200369,Right,26.2453319713386,23.43304252855887,28.001123223628383,25.634324125683634,-198.024586895408,34.67990589341207,22.66654906880285,23.65210865762492
2025-12-12 18:23:08.204390,Right,14.460370053442603,-5.283445002685767,-0.1490913609668496,7.708509694661188,-220.60240479719687,14.22179520685313,-1.4925070801909897,-1.9760105008608662
2025-12-12 18:23:08.207337,Right,-48.68736555178839,-83.57238547772431,-75.81220258393296,-59.660291371823405,148.86253106113327,-53.687461718895065,-75.15173800764751,-73.64506898743275
2025-12-12 18:23:08.211414,Right,-45.43241515499176,-67.57923863663018,-59.00010963004752,-51.71201827213372,222.79130130706653,-43.06202886039682,-60.74488461223518,-57.07602744673204
2025-12-12 18:23:08.215412,Right,17.41774948348393,8.88566879733844,15.315240955373156,13.367362696350028,-127.99342178777079,23.745486314743175,12.85699300836859,14.808233604446286
2025-12-12 18:23:08.220453,Right,22.322864284709794,-0.026702615221438464,5.1992930281412555,11.00996784731251,-232.43199568672935,19.78767748186874,6.650021047302289,5.7557944612708525
2025-12-12 18:23:08.224421,Right,-38.281151944545854,-77.2305804619391,-70.26698537414632,-54.186190800865006,120.46168591688365,-47.221889439824736,-66.2886303266132,-66.51605394589569
2025-12-12 18:23:08.227445,Right,-48.038887463659194,-74.3358155326714,-66.00386487728247,-56.29188382675784,281.3208492825879,-48.657099984087836,-64.54506724036037,-62.37206945392245
2025-12-12 18:23:08.232461,Right,13.83943269669544,8.464310902483703,15.641034260057495,14.50533411638753,-46.196442515575654,23.22624070699021,15.536369473993545,17.263152710373106
2025-12-12 18:23:08.235444,Right,32.017030733884894,20.055004881120112,26.466624367851182,31.070948978733213,-248.630528945916,39.02540605553804,30.838834404858062,30.289601516014955
2025-12-12 18:23:08.239468,Right,-28.26908386942523,-58.908740308375855,-50.912331800376705,-33.085303260166256,52.481263144168224,-25.975198896139773,-41.16105798040371,-41.753947042096115
2025-12-12 18:23:08.243479,Right,-53.81898136544987,-78.0620835176378,-69.3599929556367,-53.130756497012044,294.5380953921449,-45.04830763770951,-59.67525690636103,-59.16861544520361
2025-12-12 18:23:08.247481,Right,6.023274750379642,2.4506792713873438,8.445584070926998,13.806796617282089,27.14445357594741,22.514899597794283,15.735200904440717,14.255241905557341
2025-12-12 18:23:08.251505,Right,44.43703956132231,37.59185171675199,40.76890411339991,47.786317309044534,-247.37012364844213,54.43670287842906,48.86545361747994,43.538692709342286
2025-12-12 18:23:08.255535,Right,-4.374742136173154,-31.908180349892064,-27.931758297512715,-10.610541238267615,-18.29038727130046,-6.371395332029351,-18.757884280814324,-24.310661379502562
2025-12-12 18:23:08.259598,Right,-44.665606722530356,-70.69405464742886,-64.57946429008007,-50.70237975396594,275.55627868202464,-45.88717429684402,-59.463132996512286,-61.267687989959086
2025-12-12 18:23:08.263548,Right,-0.7075231358503515,-4.18630336154456,1.291875591756252,0.12808493652119068,69.78218412994147,6.979141971623903,0.6603053505532444,1.2262294017200475
2025-12-12 18:23:08.266545,Right,41.29152251463165,41.62920330535417,44.923187472821155,41.34012160557904,-263.5953081491084,48.10184438879514,43.885495170492504,43.66029567881924
2025-12-12 18:23:08.271569,Right,-3.324849075568636,-22.283262088116317,-18.90424893290765,-10.431415446968458,-107.29955550133855,-5.2963416561506165,-17.08379794357461,-17.173619242646964
2025-12-12 18:23:08.275564,Right,-55.73203355785154,-78.4659585857371,-73.5199972024493,-62.63577104356227,248.1401118543838,-57.90991385882808,-73.27626765493915,-70.71103824397142
2025-12-12 18:23:08.279592,Right,-17.549352930655004,-19.432967261978774,-15.040337528414966,-17.275701320006192,146.16742156885152,-12.737159108753985,-20.54275611253979,-16.79277985967201
2025-12-12 18:23:08.283639,Right,46.54103462093917,52.98010003822856,55.36771556200256,46.83752223838019,-212.7158020839405,48.46420666854101,47.080370440511615,48.81383106690191
2025-12-12 18:23:08.287632,Right,27.585848554106633,16.512119749597332,19.225390975952905,19.720404797808442,-152.33376021656363,16.996188632005214,11.911034160591953,12.656384111229272
2025-12-12 18:23:08.291679,Right,-28.41746620316917,-47.04224154866097,-41.96737789052713,-37.78904971981683,211.2698873712592,-42.081112907468196,-50.72435763636531,-47.41840104787843
2025-12-12 18:23:08.294650,Right,-10.498095154103794,-8.992929041127354,-3.480037986417301,-11.167399421967275,189.72583701669282,-14.038005805316061,-16.699129210657702,-11.231699382537045
2025-12-12 18:23:08.299624,Right,48.64561997616693,63.78263759916808,67.54901542053267,52.516383870111895,-184.07177308947826,50.162004521171184,53.54660758024693,57.49113120667607
2025-12-12 18:23:08.303661,Right,35.58869848698305,35.01914046276943,38.82489641867505,33.93333498233915,-213.60129104923476,30.186094889584638,29.25744990450403,31.19828550852253
2025-12-12 18:23:08.307663,Right,-28.841701702520368,-43.59702727804688,-37.2435122433817,-33.22805622888336,158.41339129913786,-37.11754411515358,-43.98301501779133,-41.0289312490313
2025-12-12 18:23:08.311687,Right,-26.632446510931914,-27.119013568168157,-19.88192076899213,-24.113819706220966,241.25690793161084,-26.04027943638721,-28.299105667967524,-24.022808923768025
2025-12-12 18:23:08.315714,Right,37.046295919750264,52.37775668654285,57.13337720134223,43.67187694799941,-113.31814588943325,42.5790380842227,48.62561680761792,50.839384028528
2025-12-12 18:23:08.318710,Right,43.252083132934786,46.1357951134014,48.677923198021745,42.73729655425632,-236.08959801315768,40.23643732516575,45.210650099790655,44.19752384563617
2025-12-12 18:23:08.322697,Right,-18.79735577253814,-33.16387999450308,-30.347688188139728,-25.855325009059015,105.50124669789511,-28.67133164176994,-29.359647111090453,-30.906707939557236
2025-12-12 18:23:08.327704,Right,-32.742347641400556,-36.24516713986668,-33.58313140188693,-34.89032660216617,273.0037963965342,-35.35642451077729,-33.192128373946616,-34.30735257042761
2025-12-12 18:23:08.331714,Right,26.362288136235293,42.551346788884985,42.585529244028294,31.065488021908095,-45.4384807966826,32.136170804489666,42.05135641710149,38.41237106835979
2025-12-12 18:23:08.335742,Right,45.56686367557268,54.79345221538097,52.718799641817895,47.39570047210509,-249.4927069149826,46.74915563488685,55.42879739078853,47.80929396950887
2025-12-12 18:23:08.339752,Right,-14.02446360572867,-23.973009761510184,-25.269835645827698,-17.306361291186477,50.41042419604855,-19.734807616750913,-19.534734005992505,-28.307745285510464
2025-12-12 18:23:08.343760,Right,-43.317283103748196,-47.7385022762719,-48.38607228188266,-42.45181413762839,303.44618661276763,-43.378869195017614,-44.54589594855497,-52.71280582233885
2025-12-12 18:23:08.346788,Right,12.391072721949968,28.382437158630637,25.31654662695655,19.75045219914682,46.86175406762959,21.25563261520074,26.63690274324108,16.363449103195308
2025-12-12 18:23:08.350779,Right,51.557630359426184,65.01947187013866,59.28691481477654,55.289017127728584,-231.65302374238945,56.384235591487595,62.8439953894449,48.70733635216675
2025-12-12 18:23:08.354728,Right,4.672223803665474,-1.9257960599079524,-6.864196049164093,0.486678209839738,-9.218897848532833,-0.3305037699519744,-0.3439575729862554,-14.608025694131356
2025-12-12 18:23:08.359799,Right,-38.197780043967214,-43.68279790818087,-46.29545942088589,-40.893790792768414,294.13254284249433,-41.7257787022445,-42.766245876260655,-52.83812106115147
2025-12-12 18:23:08.363801,Right,2.5346955872137187,18.657431285773782,16.16122055942833,6.716114856651984,104.85729640733098,6.637470710764319,13.39637637103624,6.602309588204662
2025-12-12 18:23:08.367774,Right,47.75525946815833,66.70017913483025,63.42212725860918,49.75517949374989,-227.28044873682302,47.926471404205586,58.37720895570419,51.925430144565325
2025-12-12 18:23:08.370838,Right,10.163362453968148,8.565080069474789,7.139725173736224,3.1130879964221094,-83.2105799663268,-1.6677203424860636,3.175666962395553,-2.214712147757382
2025-12-12 18:23:08.374953,Right,-40.60209294712331,-46.97865110478233,-45.1130975219985,-48.10230704607238,264.9445472745274,-53.15998505525931,-50.78984920644689,-52.95878743433241
2025-12-12 18:23:08.378904,Right,-8.933465443147725,6.01893645018572,8.706972738826153,-7.501065389042196,161.70301492156432,-10.826449993608549,-0.8379135499289987,-1.452401104317687
2025-12-12 18:23:08.382904,Right,45.78923497627693,70.78661267836651,72.30030212651582,50.47564190707635,-204.37970039311494,46.979747833904185,62.96266750386167,60.46188465235355
2025-12-12 18:23:08.387901,Right,19.46310324939259,27.893801511651873,29.913186173037502,18.360069914855558,-152.55905905517102,12.98459550892585,24.457216198776223,20.55340398759654
2025-12-12 18:23:08.391901,Right,-40.91092047315033,-41.0194317752339,-37.044928373373295,-43.4221399773578,215.69220462139674,-48.51269221498114,-41.86062678273811,-44.16681888686253
2025-12-12 18:23:08.395903,Right,-24.02843285392555,-5.8448518770173905,-2.1515180220076218,-19.45342319849624,206.0656813625128,-22.11040590628909,-10.409870151126597,-11.534237838495756
2025-12-12 18:23:08.398920,Right,37.86262226214603,68.493750854479,69.79916370977753,45.174553141685465,-169.01992667763443,42.60819382551199,60.903461715617595,57.894308340280986
2025-12-12 18:23:08.402947,Right,29.09080627165531,43.51849756528463,44.61977978026971,30.031445274244106,-213.51338308989034,24.177466951829047,40.025939085068785,35.517322937685094
2025-12-12 18:23:08.406948,Right,-33.83233607263537,-34.133628303753085,-30.279010135021963,-35.25263820982764,150.4983198069176,-43.2668583124796,-31.929663922624968,-34.30783214064286
2025-12-12 18:23:08.410973,Right,-33.51512186717446,-20.18915125045305,-15.107027060510745,-26.971113755424085,238.64840776929032,-33.47779912263832,-18.13754407217766,-18.1227487633696
2025-12-12 18:23:08.414974,Right,29.021855103957932,57.59873620518101,60.31514339048931,40.55021786899124,-114.25284538878623,36.45311968735314,57.25950265243455,55.630486011507855
2025-12-12 18:23:08.419920,Right,36.26764360658672,51.330872935902335,51.8854026210343,40.865981616874706,-245.94156721369745,38.09560587973283,53.47538833574026,48.65234514534404
2025-12-12 18:23:08.423999,Right,-26.139136862911982,-30.205013346220767,-28.785841626266347,-28.218298838279225,92.40880689498226,-28.728497143392815,-23.675019129630073,-28.354680977696262
2025-12-12 18:23:08.427000,Right,-42.34925275110072,-37.1661218259042,-34.62773548846553,-39.51977694047855,269.9932432133528,-36.24855454689714,-31.783830361310947,-34.30836907217872
2025-12-12 18:23:08.431018,Right,17.84785954317067,42.3909098044561,43.64216827128166,27.325924000544546,-42.13476635404277,32.225028771232246,43.117627898174874,39.87465772009409
2025-12-12 18:23:08.435026,Right,44.52082734493797,62.322049505782616,62.34052044888904,50.034208707438665,-255.10087467582798,52.428966106925145,62.23360965318119,55.74961338154026
2025-12-12 18:23:08.439042,Right,-4.9500023756208975,-6.727897762119483,-5.303183733815786,-6.131417806493118,33.96719300244513,-6.806106894854565,-5.290409353260998,-13.000971976167875
2025-12-12 18:23:08.443057,Right,-27.00476194962266,-23.921050529707827,-20.97441370512388,-24.738725320972662,285.4708707350237,-25.661523677807963,-25.86421626921765,-32.51435854058036
2025-12-12 18:23:08.446996,Right,30.639941724443815,54.0990471299242,55.74869944846978,40.16291372521073,25.8450030655913,39.75571798714782,45.645031538665535,38.48517560193841
2025-12-12 18:23:08.452133,Right,66.84564546403362,87.76661783929922,87.72067025931392,73.98598517467417,-265.59594799429306,71.70495417211669,78.4392660615681,69.48617284332988
2025-12-12 18:23:08.455109,Right,14.214663583736183,13.981752363924898,15.28200607227609,13.995373042403571,-51.492962261305365,8.946496919717447,9.175299822657053,1.8703777392860275
2025-12-12 18:23:08.459101,Right,-33.119175401056054,-33.72129367607249,-30.061034021282467,-31.888939404047733,260.4062748199194,-37.661830792878845,-38.0220188656499,-39.87271287556666
2025-12-12 18:23:08.463092,Right,7.9882405682592434,28.877888546761824,32.04901840577077,16.34259601000258,81.95839553166752,10.473644633811091,19.11613826477742,21.168572726461207
2025-12-12 18:23:08.467051,Right,56.42607124004007,81.42049366441825,82.67014415510857,63.43185479625538,-254.18601234160087,55.13598855941473,68.9051016745725,71.21928894954044
2025-12-12 18:23:08.471125,Right,18.9158499143241,24.30107754344408,26.31546197586431,17.80532627961557,-117.95114010481484,6.542815485285246,15.305112935257057,18.269739673551157
2025-12-12 18:23:08.475145,Right,-36.1212184998667,-35.88809896532712,-31.08142887797294,-37.20927553446191,237.210642733412,-47.850470565610976,-42.282039329958934,-36.329137627518776
2025-12-12 18:23:08.480100,Right,-7.781017927211451,12.786078239256312,18.34137786152678,-0.17985526016718723,147.1285522692806,-7.228579189004904,4.241946756364996,11.682404587825658
2025-12-12 18:23:08.483157,Right,47.686410203327796,77.24365219027095,81.5673906253196,57.710486676786104,-221.19554898612023,53.06405363578676,68.3660268121721,73.67085009385755
2025-12-12 18:23:08.487107,Right,22.341661365347136,33.812541349729145,38.826930994850045,25.761410074911282,-183.15898311592628,21.66628114400487,30.40716657397752,33.97727034485433
2025-12-12 18:23:08.491180,Right,-40.98631265994936,-39.84939097877941,-31.964259905797007,-38.8640099231186,182.30398131247875,-41.39159266938282,-38.75257837398749,-33.41741081420059
2025-12-12 18:23:08.495200,Right,-28.50154259336523,-9.827389289757775,-0.8951743569377868,-17.86823507551526,182.63574884291756,-17.908622599012148,-10.505063621389127,-3.2012730262822515
2025-12-12 18:23:08.499199,Right,32.314150940741456,64.08674436385809,71.33930845199575,47.46497519394961,-189.25672382943685,47.148329606592654,61.06597603414593,67.23171795196413
2025-12-12 18:23:08.503226,Right,24.967499095119365,41.25954878626362,47.81527238566923,34.238326149562,-240.42883913498372,30.298390018334317,40.87994491720383,45.761223788296775
2025-12-12 18:23:08.508237,Right,-37.81981437851937,-36.144406420007726,-28.070180400829486,-32.10599387202001,124.22517126870207,-38.76050683302901,-34.1726397127095,-27.264795909974964
2025-12-12 18:23:08.511170,Right,-38.756964291980694,-22.857449332668693,-14.579225108207538,-26.541968880496825,222.6243192512202,-32.65003895400491,-24.75753344288205,-15.568833171648294
2025-12-12 18:23:08.515241,Right,23.185428276155335,55.997711820558834,61.67500985548577,40.02090148774141,-127.95568109978012,34.92192862011939,49.38027174376657,56.712524331618624
2025-12-12 18:23:08.519274,Right,30.69800474565659,51.30687970563122,55.092611319250864,41.00030815009086,-268.55218910595795,35.21405715784226,46.72417369319737,50.135689251887015
2025-12-12 18:23:08.524263,Right,-30.545411215996637,-29.501560315189636,-24.965981825167546,-27.082967439662752,67.37285487770805,-32.892636314486936,-29.27871728952414,-27.426682249913938
2025-12-12 18:23:08.527265,Right,-42.59315233680604,-33.828796407407935,-29.24009419034701,-35.574509397886686,253.10624794054002,-38.778246268102066,-34.53925233820519,-33.168723940378186
2025-12-12 18:23:08.531228,Right,24.74268608534203,51.71055392805101,53.40312326513231,36.35697640297985,-60.378216308849005,35.84820072957109,46.358850955151865,44.48003750757198
2025-12-12 18:23:08.536310,Right,54.65687364139086,74.23846281220358,73.45559419910569,60.38925028785434,-291.2994951328192,60.050421374788584,68.5777945828886,62.49042461779209
2025-12-12 18:23:08.539305,Right,-3.028598860214913,-3.819015959148601,-3.558862998026598,-5.214359564412916,-12.689515543150264,-6.050548193831673,-6.529993661821209,-12.760510188505577
2025-12-12 18:23:08.542317,Right,-41.89260998263634,-38.49991506990955,-36.32302102573158,-40.927576389151,254.28200165970247,-40.56943257480134,-42.44885998184145,-45.43761159002315
2025-12-12 18:23:08.547317,Right,2.459506094091296,26.34540873163496,27.847900826462137,11.070280149014252,20.275828514204477,12.207599470973037,18.010334274424167,16.388965344594908
2025-12-12 18:23:08.551341,Right,37.52999608005791,59.338222243372,59.353172462688235,44.032381301020905,-257.8007449096276,42.75816101237706,51.44276130661274,48.74363091860869
2025-12-12 18:23:08.555356,Right,-6.393711463900786,-5.859369243098627,-4.880136392504937,-7.57921644992075,-39.61176640868962,-12.101848228575363,-8.70563998241596,-10.452498628437752
2025-12-12 18:23:08.559456,Right,-43.54433429855578,-43.81006182843521,-40.88392517977627,-43.59944103979251,279.3209554576224,-48.14373748182334,-45.53143071172781,-43.7224407739086
2025-12-12 18:23:08.563380,Right,3.8560646766331956,25.25953661179119,27.79934419158235,11.481354146369995,105.30903890035916,8.923518562410209,19.316845238296082,22.648042642984365
2025-12-12 18:23:08.567393,Right,54.889169991887684,80.93179517126373,81.97527991100287,62.4349783545249,-239.31779260691928,59.58162468552746,73.6111780757874,75.28258919480504
2025-12-12 18:23:08.570356,Right,17.468671897193417,23.505640579567626,25.48170881886108,17.91707198374752,-114.61229633007315,12.803875671374044,20.485259979237526,21.847547391625994
2025-12-12 18:23:08.575411,Right,-39.881109644562684,-40.67405339918696,-36.25903486986135,-39.18205804903391,242.286766850817,-44.27725182793347,-40.93317507205393,-36.86313727034394
2025-12-12 18:23:08.579422,Right,-14.183716583880141,3.472354897436162,7.881173925630719,-5.102689286323766,161.11705008014997,-7.311118485536099,1.1211557371243543,6.430503617672002
2025-12-12 18:23:08.583371,Right,41.907297819713676,67.2678827446598,69.43657596028424,52.964918784429756,-208.81882558875986,52.898368450276394,64.73450791279538,67.41509049438355
2025-12-12 18:23:08.587435,Right,20.58645183626686,26.834692255775735,28.463178280882858,24.478820797465232,-180.23528736732533,24.718593567417884,29.545400454890114,29.894120726907204
2025-12-12 18:23:08.590456,Right,-38.92190653617581,-44.15677401404355,-41.07657562031454,-37.272181375785294,185.53752269409415,-36.202138196415035,-38.15088033282882,-36.76487160824763
2025-12-12 18:23:08.594449,Right,-24.41101614919353,-12.978338300721589,-10.403616686609894,-15.79357510076079,195.845488050737,-13.480202265833213,-10.940633931775665,-8.768884070625063
2025-12-12 18:23:08.598471,Right,39.07292965184388,63.241035239056146,62.44024135904692,50.07463168184768,-174.157008827352,50.89629294251063,60.47187760710949,59.79656305213757
2025-12-12 18:23:08.602518,Right,35.99154787492034,43.99886497007901,40.70832824810714,38.61911796485401,-234.48694630169393,35.372002815111045,42.047815245949096,38.438983608952185
2025-12-12 18:23:08.607488,Right,-24.60528301573504,-32.915875804275856,-36.29511957104842,-27.78558936391528,127.61330312025257,-33.17301339593996,-33.18119963753816,-35.453588347569166
2025-12-12 18:23:08.611442,Right,-27.69512057053771,-23.735171631949925,-27.950277317318978,-25.53880872778791,236.70282286042402,-29.414423785331564,-27.445220042109213,-26.769112687074085
2025-12-12 18:23:08.615521,Right,31.505107788668283,51.428721156929896,44.29803766259283,38.49465516104465,-106.12165068495779,36.01276664654961,44.0391743705768,44.434704263567255
2025-12-12 18:23:08.618527,Right,39.30592193204029,47.08681932929176,38.34552528526183,40.65925666304793,-251.40038458185427,36.89913107065331,42.79413178813411,41.07776461231515
2025-12-12 18:23:08.622547,Right,-21.32956369753356,-32.81688023586503,-40.05304990111836,-26.006565707828486,81.16999210838367,-31.000853591531268,-31.6115661009826,-32.937080651247015
2025-12-12 18:23:08.626545,Right,-36.874293071990905,-40.095985412674054,-46.05870940777095,-37.059942721602056,276.19472669274455,-40.825333919878176,-39.49754797776404,-38.933155990440355
2025-12-12 18:23:08.630561,Right,23.89003812568353,40.02055367849607,32.591436577102286,29.984972231726715,-25.719248928216984,27.56854369370376,36.45481351848139,36.322576695103635
2025-12-12 18:23:08.635576,Right,48.77801683982307,58.548762675305625,49.751783843676094,51.239230077304455,-253.8410266544861,48.05599056376013,56.284112130499125,53.85160123956484
2025-12-12 18:23:08.639578,Right,-10.052598671984015,-20.755817583771204,-28.02983397828939,-13.498749057765963,25.351763091146495,-16.97819257122319,-16.642531110104755,-18.504865756551226
2025-12-12 18:23:08.643601,Right,-45.97229364291252,-53.20417564905438,-58.633920562457206,-44.9040823465366,295.28661649629066,-45.53463080457004,-45.91687725525844,-44.751112746473154
2025-12-12 18:23:08.647599,Right,4.887581509861775,18.12116147795132,11.659885419692728,14.491763974998321,53.2699220115901,17.030578704639993,24.44478910473117,26.51384816974314
2025-12-12 18:23:08.650631,Right,45.9729791460677,57.72883908896438,49.601610712972615,54.19783384725997,-250.65033126542312,56.130088369238365,65.84600177983884,66.52936158176453
2025-12-12 18:23:08.654644,Right,1.3525746902541869,-8.044500489908387,-14.761584634066821,2.641570778298046,-55.71556658771806,1.6062484254962328,4.9086465329783096,6.466763913698742
2025-12-12 18:23:08.658662,Right,-43.70480290098931,-54.481141947168,-58.31089416645773,-40.58445150199077,263.328333309546,-42.67880525302826,-41.30831721856521,-36.20907424118923
2025-12-12 18:23:08.662592,Right,-4.4401595329827614,5.820732117839725,2.3275505165838695,6.477615469408192,102.80032171620314,5.323234279823737,13.685376697994798,19.734752652891984
2025-12-12 18:23:08.667670,Right,44.353669007966346,58.59492079049778,53.530666130351165,54.00805872098499,-236.75133809048657,52.8367600920119,64.19740124771488,66.82091292617406
2025-12-12 18:23:08.671673,Right,10.430266134805606,3.5667212165499222,-1.3967631118830468,10.61761903567458,-114.88102107681425,8.838906757449877,12.943220982961066,12.64136415053872
2025-12-12 18:23:08.674702,Right,-40.4086655891615,-55.12886281167448,-58.80198803025996,-42.208004133730356,244.16020275525352,-42.253044083445275,-43.668720591544115,-43.550565323115734
2025-12-12 18:23:08.678676,Right,-6.761946549152526,-3.014032624920219,-7.762942559616931,-1.1573786353146716,165.83303227260603,2.1591525486110186,4.772931311545108,4.837155539205924
2025-12-12 18:23:08.682688,Right,56.10189615430136,68.19575865061051,60.41384831626419,63.41233364247091,-212.97100011016573,67.89845237267218,73.29821718019957,70.0814467692544
2025-12-12 18:23:08.686659,Right,35.55377316343947,28.293707949629606,19.535848781477398,34.70047421199342,-195.8499098712964,37.87814859504215,35.96638362158774,30.026645168813047
2025-12-12 18:23:08.690727,Right,-30.040509133297746,-49.94424933909977,-57.27112143716295,-35.08651410025777,176.34536859516902,-32.10438661009539,-41.21276297732766,-45.957712564961184
2025-12-12 18:23:08.695742,Right,-21.337000234638253,-24.86824879959022,-32.20953969321636,-21.123198600569594,206.21957162020863,-16.593341610003336,-21.95224587400662,-24.822837476533095
2025-12-12 18:23:08.699758,Right,43.021573959364105,53.59560417600369,44.02838224102379,45.03093952864219,-156.1706009190384,49.17611668686186,50.115408021301846,46.198299992982356
2025-12-12 18:23:08.702767,Right,44.411835419878116,40.43745031085564,30.268607163845445,38.2985515850105,-225.30635935101873,39.001942886865436,36.907830124931934,31.780943934847528
2025-12-12 18:23:08.706749,Right,-14.31322741789154,-34.119494052503796,-42.00095893560865,-25.821506852033053,132.03636103167173,-27.717034335888457,-35.67872212781003,-38.55698870167544
2025-12-12 18:23:08.710766,Right,-17.610287362652343,-25.222144404515348,-31.83539156549523,-23.548816311242263,247.48683879123928,-24.7710862520471,-29.40395922227981,-29.337759329353503
2025-12-12 18:23:08.714775,Right,43.488203655078905,52.40559322241825,43.835801991263,42.386117137346446,-94.81223057966963,42.37493409354829,44.77444115563594,44.037067434454
2025-12-12 18:23:08.718753,Right,54.067008579299,51.97438407876325,41.59769498478636,47.18614344215894,-252.36297169311638,46.55673917540844,46.92585776708074,43.581160078534595
2025-12-12 18:23:08.723801,Right,-8.387873431267508,-28.72301789740777,-37.80776319751021,-21.177138747427307,72.0594804883549,-21.956189762342547,-28.40149736897547,-31.24727028507732
2025-12-12 18:23:08.727908,Right,-30.751882537675556,-41.58578848810066,-48.52197943633655,-38.0756859802259,271.74404651058285,-36.48429267618303,-40.59294114173099,-40.60760581600516
2025-12-12 18:23:08.730899,Right,23.801702037859286,34.30632483145928,27.803391186687804,24.51387847684964,-29.19319945936695,28.15673224612692,33.37192355602565,33.96394501488248
2025-12-12 18:23:08.734872,Right,46.31119464956828,52.38432567667223,46.54684113117764,44.85455439344514,-270.51265423115456,47.347471485469214,54.26220087375259,53.48754400828511
2025-12-12 18:23:08.738880,Right,-13.42801746470468,-27.19771027321258,-29.998739824932272,-20.624476537643204,-1.6832394194075277,-19.97936641130036,-19.673775190502056,-19.59475100648524
2025-12-12 18:23:08.742886,Right,-51.18040336006197,-61.78894642981504,-61.7521555386993,-54.760005611371525,276.8407900553839,-53.05406190525537,-54.10655165333992,-51.28452330268192
2025-12-12 18:23:08.746828,Right,-0.8518546073100879,9.24283139493673,8.928206520940876,3.1176658147596754,49.62722593986791,7.377914231701652,12.294222225833437,15.061250253262187
2025-12-12 18:23:08.750890,Right,44.2248115574821,53.815350869914255,52.13978987647715,46.042348794682766,-253.4884448887683,50.94066765259595,56.41448371329352,55.97458726250079
2025-12-12 18:23:08.755908,Right,6.29797345114639,-5.057926394443712,-5.625307849852106,0.1188141703587462,-67.57741100873045,4.389425749472139,2.341761732721352,0.4156599851194187
2025-12-12 18:23:08.758920,Right,-33.914600955735295,-47.914047858748745,-46.554087134543806,-39.66797267070069,248.18951172552124,-34.60013793991675,-39.215360041473105,-39.58233500234746
2025-12-12 18:23:08.761939,Right,7.502487738556738,13.095196082815164,13.414181967367767,8.737222766274499,87.12281897263256,15.110186154703115,16.99702589021399,16.71070347711793
