timestamp,label,FC3,C3,CP3,Cz,FCz,FC4,C4,CP4
2025-12-12 18:08:49.990589,Right,1554.2707367702644,2262.7412102350886,2322.3629614314495,2009.723006642412,1154.9507795659495,1867.0698863902746,1910.114430378635,2437.489159270945
2025-12-12 18:08:50.007640,Right,8370.676801197667,12183.021296198942,12504.630344027652,10822.116844373553,6238.92194308881,10054.053370041494,10284.347430506754,13124.261390480668
2025-12-12 18:08:50.010639,Right,19177.8032897934,27903.01160825483,28641.733284510352,24790.425455097826,14389.749782101631,23031.6250868984,23553.57702158312,30060.152819450814
2025-12-12 18:08:50.014666,Right,23974.489902525755,34871.526086680286,35798.51436905825,30988.139266956736,18238.89773225772,28792.105020263465,29432.3443410558,37570.2524926458
2025-12-12 18:08:50.018684,Right,16229.907234722967,23612.15258864862,24242.411767962236,20986.272853453745,12717.24893229856,19505.94649233023,19921.157397787487,25442.642491667575
2025-12-12 18:08:50.021631,Right,1860.9720931403572,2743.273815274122,2814.358100733458,2435.7868882068287,1830.2326502508804,2279.2761407032667,2300.496351522699,2957.6774266818247
2025-12-12 18:08:50.025691,Right,-8931.899309375032,-12936.770103116112,-13289.261237234838,-11502.1264751821,-6762.431488650196,-10665.973816468351,-10932.97596870421,-13940.020185490634
2025-12-12 18:08:50.029708,Right,-11636.782081393554,-16896.134962226555,-17352.734436577302,-15011.917509843246,-9066.708468702302,-13929.560549017915,-14269.285599964904,-18206.832691594318
2025-12-12 18:08:50.033717,Right,-8324.394182040473,-12109.789244410815,-12432.344633013883,-10749.056127754971,-6341.704243374028,-9973.911352883559,-10226.946573571826,-13047.011904907413
2025-12-12 18:08:50.037724,Right,-3599.8347479236545,-5230.773560617876,-5369.310038292897,-4640.8577291377005,-2531.947899434832,-4299.966856046696,-4421.440982393397,-5633.944147248985
2025-12-12 18:08:50.042677,Right,-1018.4097771013039,-1454.1723278451245,-1497.2462835933547,-1294.4271596198669,-718.616992659634,-1189.2059357898543,-1231.951568215387,-1566.3151990968036
2025-12-12 18:08:50.046737,Right,-1544.714353301155,-2228.787587804836,-2292.970332794357,-1979.8521946026012,-1293.9497687119874,-1826.5156672801822,-1881.284112907364,-2400.2853974050377
2025-12-12 18:08:50.049752,Right,-3695.8018384870375,-5381.061361697852,-5523.628624224104,-4771.823403514805,-2765.836527653213,-4422.84458272357,-4540.374808108085,-5792.868408517679
2025-12-12 18:08:50.053752,Right,-5081.682709239016,-7390.03960438841,-7584.7684107963,-6559.142363056075,-3637.2591392214526,-6083.529777390766,-6237.700911496067,-7956.1520771671785
2025-12-12 18:08:50.057772,Right,-4523.28412567894,-6554.2131920568645,-6731.920871636597,-5825.865618693759,-3398.2165817634086,-5400.4608780585695,-5531.617722662399,-7059.32744641602
2025-12-12 18:08:50.061772,Right,-2957.355866820086,-4282.307998664677,-4401.069773676107,-3806.1752576548606,-2448.9071864456637,-3524.524652357679,-3610.727706512669,-4614.887434241595
2025-12-12 18:08:50.065821,Right,-2149.064553012722,-3131.6599790471373,-3214.054037823691,-2774.9216134275775,-1684.0961959170527,-2569.456847470603,-2639.7248097133124,-3374.727469539619
2025-12-12 18:08:50.070807,Right,-2649.193598900456,-3854.2565070521086,-3952.9245573403314,-3418.5058250658913,-1794.69274464919,-3169.1490247917827,-3254.7726190487156,-4153.432802741299
2025-12-12 18:08:50.074831,Right,-3381.658089290606,-4890.678490372375,-5021.728977617226,-4350.583692526445,-2473.4677965227747,-4035.525078281644,-4133.062439338188,-5274.236711598467
2025-12-12 18:08:50.077777,Right,-3206.9889027202735,-4637.5291210945,-4764.8397006329615,-4127.141927512013,-2650.7346882229904,-3831.067496590549,-3917.862514030654,-5004.884524657624
2025-12-12 18:08:50.081835,Right,-2344.8869452398503,-3417.571763987071,-3507.2961633887608,-3032.853624691488,-1933.512504007027,-2820.1697729220614,-2886.934388379683,-3688.5808983001625
2025-12-12 18:08:50.085871,Right,-1893.3785470381845,-2771.8283681925386,-2840.238177962834,-2456.7493055263767,-1272.2682556918007,-2287.875898456434,-2344.958191150101,-2989.971053549554
2025-12-12 18:08:50.089863,Right,-2274.3449132322567,-3298.9722658816027,-3386.351503529004,-2936.299070380861,-1575.9599794130772,-2731.7527214646107,-2792.727575610508,-3559.842790665338
2025-12-12 18:08:50.093878,Right,-2738.4792127284454,-3961.3671529938,-4072.3659681865247,-3530.3883821095806,-2258.938094908255,-3282.5867859267164,-3350.036104208324,-4277.064313934883
2025-12-12 18:08:50.097943,Right,-2475.596786065609,-3604.0475756720407,-3702.764688364463,-3203.9387524073245,-2116.500826134288,-2981.7654221134726,-3045.864378366852,-3890.6702064645942
2025-12-12 18:08:50.102894,Right,-1717.5723083644407,-2517.5120853334665,-2581.6952859961893,-2232.5553852712037,-1240.3970062919543,-2080.7298872924875,-2130.044366646558,-2714.8790887093637
2025-12-12 18:08:50.106009,Right,-1365.9778095526854,-1984.1919834214495,-2036.060304602608,-1767.2657105362741,-873.5917930030264,-1644.9202190688811,-1681.687296767952,-2137.5535616148263
2025-12-12 18:08:50.109866,Right,-1742.2126689179568,-2513.446576184011,-2584.675089458702,-2245.3709971259814,-1424.4648607746349,-2085.0488528530113,-2125.947270438308,-2707.807265447569
2025-12-12 18:08:50.113934,Right,-2180.603517498472,-3170.3346363140736,-3257.4498827442294,-2822.622495286516,-1872.8108643174637,-2622.700499057886,-2677.0801613533404,-3413.9023519133916
2025-12-12 18:08:50.117883,Right,-1960.789486047579,-2869.9974650692893,-2943.6578688403824,-2547.8579164071707,-1448.849653107929,-2372.3065388788236,-2425.2980477692327,-3087.7085719637107
2025-12-12 18:08:50.121924,Right,-1271.8810086846352,-1850.6970293099293,-1898.5671316151274,-1647.4656632330734,-770.8398354006931,-1538.548426331603,-1569.2713155208621,-1991.1483705462888
2025-12-12 18:08:50.125964,Right,-922.3377933953889,-1321.1881915214472,-1361.546381997061,-1185.1704776246333,-729.00615254062,-1109.1875376607059,-1122.4674074043287,-1426.0618057508254
2025-12-12 18:08:50.131002,Right,-1234.2954353258247,-1790.8680746061727,-1844.671861172421,-1598.6550766611472,-1140.9882537621306,-1493.627132933354,-1515.133751485031,-1934.7115387315862
2025-12-12 18:08:50.133990,Right,-1633.6257564963307,-2397.3098139297217,-2462.317468429799,-2130.3175533139147,-1256.7527387876762,-1987.0944445005152,-2025.0508425784064,-2586.134847130277
2025-12-12 18:08:50.137994,Right,-1459.993928320706,-2136.334874018561,-2193.7515441327123,-1903.1127812010236,-959.9300847973209,-1772.2447018923704,-1804.9994076112052,-2303.9586263222154
2025-12-12 18:08:50.142011,Right,-859.2454942526529,-1241.5907819180284,-1280.0280746089993,-1116.7415878593456,-704.454650596308,-1036.9686433278257,-1047.4685096149333,-1342.4807665237458
2025-12-12 18:08:50.146019,Right,-547.8381515331566,-800.0662550640991,-827.3931354990928,-720.3520088489167,-677.0032663743477,-667.7328830938786,-670.365857706638,-868.2795390271349
2025-12-12 18:08:50.149974,Right,-815.992580348393,-1216.6591069499264,-1249.8890434539644,-1079.742358297808,-712.9474472028087,-1003.6825940549606,-1021.2680477136746,-1315.2108473762637
2025-12-12 18:08:50.154052,Right,-1161.272000043362,-1713.5336687322706,-1758.999930978869,-1521.70791776618,-752.8072072194773,-1414.76430235093,-1444.2731439702911,-1849.933851943817
2025-12-12 18:08:50.159048,Right,-1018.7779443507316,-1481.1317846872844,-1526.4179269229062,-1323.7272850257577,-795.1923025129363,-1229.4673275856767,-1250.2956970514497,-1603.09179559513
2025-12-12 18:08:50.162064,Right,-525.5590813749586,-767.5252312230878,-796.5823197566206,-688.5236387753394,-662.5012060440495,-640.2989174614195,-647.1585689538624,-837.0503842642065
2025-12-12 18:08:50.165065,Right,-276.6006223883596,-431.56335533049423,-446.62893807922956,-380.67249860055745,-333.30807747796644,-358.03132645692676,-364.7120045684278,-473.054832558264
2025-12-12 18:08:50.170073,Right,-486.3487632863689,-735.1391356966924,-754.9891523079714,-650.8513934130315,-200.5439468655386,-611.1155694079353,-625.0432462087483,-797.2910591859836
2025-12-12 18:08:50.174036,Right,-743.2585112014785,-1080.6165576316416,-1114.0657485543052,-968.3879004897317,-471.8784852042445,-905.18470071716,-917.7195151362102,-1170.270916868234
2025-12-12 18:08:50.178101,Right,-623.7963806293556,-904.0200390134705,-936.2624098353554,-813.3557003577007,-670.3849826943479,-761.2394120979006,-764.4836012787418,-980.9914095251588
2025-12-12 18:08:50.182121,Right,-247.72350648930296,-386.7708637014148,-401.0320933072362,-343.5531134955818,-341.68895739963045,-327.6648510742234,-324.91035503480816,-420.61772311804816
2025-12-12 18:08:50.186078,Right,-50.37000845739385,-110.62895704334369,-113.62711916095577,-94.22918553679483,106.14689424209064,-97.92759471974568,-94.28092241619015,-119.35697284282651
2025-12-12 18:08:50.189128,Right,-180.1905967850471,-276.0232795121847,-287.8088761266554,-249.47330218023853,5.696067754091928,-240.75699102168437,-236.3485229285434,-298.065391079057
2025-12-12 18:08:50.193085,Right,-355.7970779304742,-521.4865577527671,-545.4613800938241,-470.7591909748153,-426.73538962594466,-444.9618198637618,-440.62466571858386,-564.3675520350807
2025-12-12 18:08:50.197228,Right,-288.15488437531167,-447.04528587620007,-466.7439755201922,-394.6951423037099,-414.8856486532313,-375.3670351005858,-373.4734280022676,-481.686886452022
2025-12-12 18:08:50.202185,Right,-38.998456809145864,-96.24755532614654,-101.76206881523831,-76.59537201584317,70.52375269375625,-80.35543695173692,-77.07933648570906,-98.72887223941507
2025-12-12 18:08:50.206230,Right,115.23322472252767,155.59884961345233,154.67172273510369,139.6883793505258,276.20400868420256,122.8141585230187,134.86657073546667,174.35444291634485
2025-12-12 18:08:50.210190,Right,55.02731227205368,90.73094401916023,83.4203273607418,75.87642565969145,-39.3291984974494,64.83279589994345,83.65955714459415,103.63523797303787
2025-12-12 18:08:50.213211,Right,-64.12475235911552,-99.77055070718052,-109.29892976695555,-85.87596713483799,-241.90687116005574,-88.22789976740023,-72.61846693698317,-99.73182890133467
2025-12-12 18:08:50.217210,Right,-39.77959060657304,-84.95844586097519,-87.14293246233137,-65.13929121469846,36.77580298714747,-72.24310023966245,-60.69414557507844,-79.95969358886941
2025-12-12 18:08:50.221222,Right,130.14372837559495,176.47458443460346,181.3414495200559,160.51866478963348,314.06430269651173,138.13045148078527,156.39456881322258,201.43486849256442
2025-12-12 18:08:50.226220,Right,272.5572622963373,401.866938565523,407.41726524084515,351.69019053372904,185.18839006688358,318.42716191556246,346.5711937728047,439.9211706509959
2025-12-12 18:08:50.230244,Right,269.1034693622423,378.92388203832525,383.9307000512126,335.8734162082619,6.973436474258051,303.94482990323013,330.11202901762954,413.4539552219794
2025-12-12 18:08:50.234261,Right,191.45682659756858,239.88411831624626,246.55514659198548,221.50979013159565,160.5046043743805,196.2170782127787,212.76735568118875,266.02427280850856
2025-12-12 18:08:50.238281,Right,188.17621603318912,245.95593386243127,252.86581309658504,223.86404455414595,354.6772086195124,198.7492748984332,215.03471044426988,272.81485279883054
2025-12-12 18:08:50.241277,Right,291.1106744838471,421.52924049593275,427.05787743307883,371.479264087684,240.28221419467445,337.20867774756334,363.1616525104764,457.6840792843286
2025-12-12 18:08:50.245285,Right,395.5071682058624,565.8605405802373,573.9933925676451,503.0809411167138,96.72717524025938,458.26704631219036,487.82491703938285,610.077184708527
2025-12-12 18:08:50.249312,Right,414.78858239459805,568.3742487276031,582.7570890491479,514.8628796700796,275.9714967558102,466.55189357757627,489.47265713747765,614.1718384295236
2025-12-12 18:08:50.253246,Right,381.18311152240494,526.2241033799946,542.6900030547695,474.8577632207889,494.3923212110967,429.8358261627727,449.2585354621697,570.16985281714
2025-12-12 18:08:50.257323,Right,373.79204371068045,545.5069379670313,558.7226302280615,480.7446600176336,355.0937215588201,438.7288540287409,463.4180209826154,589.3643480034953
2025-12-12 18:08:50.262361,Right,411.7901187495154,602.457622381713,615.9252745614504,530.7296272245294,125.4640803085058,486.3430471532047,514.0881875302293,650.2763677764451
2025-12-12 18:08:50.266345,Right,462.0254456724215,650.5721657124814,671.1306480608182,583.1043028602726,272.4031990992371,532.4896250899474,555.7953286072589,705.4704682140145
2025-12-12 18:08:50.269332,Right,503.68014465546,710.3839339787373,736.0005619126605,636.9514029517886,587.9503700693313,580.8380845695501,602.784984117432,772.0453443628503
2025-12-12 18:08:50.273371,Right,531.090554327966,777.6088995796163,800.1699148700573,686.3378270844114,543.8114082964021,627.9987914900994,657.1344287281972,841.3264358629822
2025-12-12 18:08:50.277385,Right,528.6443932700204,779.3650179584511,797.6671346962685,685.3949613301666,246.97278287413064,627.7978395441314,661.2369255751837,839.5610339381383
2025-12-12 18:08:50.281452,Right,502.9297837764025,715.8425658368506,736.2064697432797,639.0654371140408,242.0415609939664,582.9259700897965,610.3439261234016,772.6037286065985
2025-12-12 18:08:50.285365,Right,510.0158545060549,718.5600094740512,743.3439671675442,646.1057538192254,529.0904730664624,588.5425964358146,611.0957481136429,779.0422227269155
2025-12-12 18:08:50.290438,Right,581.9581771746161,850.252070618677,875.2177958633984,754.9095444544218,596.7980933649524,691.6667479044991,720.6039729871554,920.5996179340873
2025-12-12 18:08:50.294433,Right,649.9214667805936,962.465109352197,985.7562959929928,850.112015411898,370.5379044036963,781.7636831849813,818.0488357319846,1039.066190680256
2025-12-12 18:08:50.297436,Right,624.1402071559569,901.4986088779988,926.0970485424623,804.011257783568,308.71029663382797,737.7471614753595,769.7796928076423,974.1811098440085
2025-12-12 18:08:50.301435,Right,542.1854459409369,766.7101574357366,792.9912964813411,689.2298054099665,518.4499903210672,630.4157346885768,654.4764397570398,831.564486007439
2025-12-12 18:08:50.305468,Right,539.1279560555122,783.3311169241788,808.0235504679149,695.2238204150926,579.9763946373714,638.8151757101296,665.1976708009606,848.2709965665126
2025-12-12 18:08:50.309472,Right,648.6155953642447,959.645688731689,983.6999897434143,844.0956420735456,378.3126117112697,780.170890908048,814.0165216001915,1033.924712228123
2025-12-12 18:08:50.313489,Right,735.0547555738594,1065.068463446456,1093.5250283615896,943.9403026379878,326.065591473307,872.0152376955375,903.8088651710423,1145.886082017445
2025-12-12 18:08:50.317491,Right,683.3071340621682,969.0348882291,1000.81719646696,866.0323069657898,550.2956501903245,796.8716719181975,819.4768100517103,1043.801880199113
2025-12-12 18:08:50.322548,Right,571.849740813137,823.824410515721,851.3755159724969,731.4340559114935,622.4668005953426,671.2523656747071,692.4228845984908,886.4596802613232
2025-12-12 18:08:50.325495,Right,564.5078957358492,835.4191809669137,858.1505002625054,734.3047142206924,385.4065372903133,673.8659995676717,702.7416745121591,895.468915671343
2025-12-12 18:08:50.329535,Right,677.0279439685983,984.2493806801504,1012.0435048287036,872.8311380478553,299.50874195434153,799.2742964351783,832.3284439372364,1055.6104935432086
2025-12-12 18:08:50.333541,Right,758.8073209022405,1078.25859821029,1115.8120184954023,966.6534642865881,587.7359748951276,882.2717051387299,912.3676822889829,1161.0957120510284
2025-12-12 18:08:50.337583,Right,706.5085893312935,1013.5965768179158,1051.4797529190546,905.8534687820356,763.9595975803095,826.0517958849669,855.1487242110306,1093.7960352533264
2025-12-12 18:08:50.341558,Right,599.6667241714895,885.4585097572999,914.9143533887109,781.9404975411016,495.03059383202344,714.7450279104523,747.1560070585692,953.8382853729418
2025-12-12 18:08:50.345576,Right,583.3163683811435,855.8630192083074,883.1997378120432,757.5122405007714,245.83262109634234,694.0994873429881,725.938551570056,921.3769935081946
2025-12-12 18:08:50.350576,Right,676.6285001989454,966.5155799201457,1002.2590948072029,865.6639156250749,471.3947286073235,794.2155878167832,820.77885774686,1044.0995536881965
2025-12-12 18:08:50.353607,Right,757.2280723426957,1089.5486411893507,1130.7031579002505,974.1437065445352,784.2796993529191,896.0702101421775,922.1842507955153,1178.7689291252755
2025-12-12 18:08:50.357599,Right,721.2970672631636,1066.4118745749583,1101.8489734359318,943.6092342557386,630.2578680171282,870.4034391383175,901.8981801273767,1151.2094524464337
2025-12-12 18:08:50.361604,Right,611.966485279263,908.8870667342562,937.7439093340654,803.019364834181,275.8647617753595,740.1367869614623,772.0710617495934,979.4008837897563
2025-12-12 18:08:50.365560,Right,564.7463196198223,814.9150643515168,846.7455749738729,729.0555479991017,328.8240902220132,669.3065389718395,694.7863599178381,881.119941638317
2025-12-12 18:08:50.369640,Right,636.974467972992,918.3937889169902,956.7476663955022,822.6849208712811,665.0375007279799,756.6903190056328,780.722730706213,996.5557450415799
2025-12-12 18:08:50.373653,Right,729.3737214411376,1079.8207947064657,1117.8516198772704,957.2550273549277,684.0783742112108,885.9613780500367,917.0474490432534,1170.4683515540091
2025-12-12 18:08:50.378657,Right,709.5473605004372,1056.162542295293,1089.1680798085872,934.4697197186761,383.12133710144553,867.8669743174687,901.1632357577328,1143.7422635065159
2025-12-12 18:08:50.381658,Right,592.187246002024,857.4891356058652,889.1078510417137,767.6808582199737,306.72792144399136,712.1049222940346,736.0122738700593,931.5718011218123
2025-12-12 18:08:50.385662,Right,530.0289081695955,755.8121209394885,789.817346523283,680.8835173961706,541.5054419550579,630.7344451257959,647.2074202637887,824.3024890240049
2025-12-12 18:08:50.389688,Right,605.6212958196411,890.0519499134971,925.1396745176753,790.7124933260493,618.0348640322918,735.0485560306115,757.1788556068204,967.0012195082381
2025-12-12 18:08:50.393700,Right,707.408771904069,1051.3951746182283,1086.3883119272068,928.7439849104267,417.7876971891965,865.36816147645,895.0216973932693,1137.3407295437064
2025-12-12 18:08:50.397831,Right,682.2171845631674,992.4008225492435,1028.4978303497192,884.387193697854,351.1742220087326,823.3612225301331,847.986108428333,1074.0485465615056
2025-12-12 18:08:50.401722,Right,557.0683664045064,795.2020841116318,830.9614791737404,714.7478229136905,533.1729616249213,665.1966707319953,679.6359859976219,863.4974089644384
2025-12-12 18:08:50.405760,Right,502.1149784058798,736.6611576691503,768.6192798024276,654.4889154566918,573.226713584736,611.6075662041549,626.3599030585028,797.9639406341594
2025-12-12 18:08:50.408751,Right,582.6900420419406,872.51915813284,902.7631863238057,767.5818538555177,362.63842150603887,718.6348122871714,740.7136310229544,938.7694154174533
2025-12-12 18:08:50.413764,Right,667.8884523839224,978.5787048788043,1013.3758913234342,868.0934365974972,309.25839710916625,809.9117391706677,831.302074623527,1051.0820496322121
2025-12-12 18:08:50.417767,Right,627.4200976529391,900.9547047027154,939.4399635811569,806.6809876798652,541.4459009999409,749.5768923780415,762.8635576661909,969.4004688994028
2025-12-12 18:08:50.421787,Right,516.160363116418,757.3700960574206,790.7136571095325,673.2027623036411,618.383330463781,625.5480798257049,636.914545515785,814.1517683072016
2025-12-12 18:08:50.425790,Right,480.20906743896194,728.1443492104299,753.6104362151818,638.6663959308062,354.2291807915317,594.9494893276133,611.8643913455307,778.3390456435736
2025-12-12 18:08:50.429821,Right,545.4866336740088,807.829165847972,834.049031294533,714.3022789694369,209.67182187217986,663.725799712236,681.9494599447353,862.1253197691403
2025-12-12 18:08:50.432815,Right,600.6032814449864,861.1257723234594,893.9667916401522,771.0322498268215,455.297772822727,712.8842953322455,726.5987194745103,921.9538466702215
2025-12-12 18:08:50.436809,Right,566.8050063946284,821.1315565160476,853.8852815639693,732.0596101630945,639.9008703635191,675.5383444101317,689.7174212943064,880.6068049136084
2025-12-12 18:08:50.440839,Right,490.93971425655764,736.3875527257333,761.603614695603,647.0633642369648,398.007918723044,597.9551727849757,618.6864700886654,788.0383533530403
2025-12-12 18:08:50.445856,Right,458.3711704877205,681.0562290946255,703.4421760692494,600.1431112050777,137.471652164415,554.8013291606912,576.3847642698092,728.8789023307618
2025-12-12 18:08:50.449851,Right,483.35663259460125,688.6027486976236,716.4149171365425,616.9010215338785,314.32232878927607,569.9791986072669,584.2309304343071,741.2895116389263
2025-12-12 18:08:50.453862,Right,513.8005458129337,734.5624653459527,764.9641221421771,656.9247324692551,600.4246705289115,609.1723898415221,619.7322577014565,793.3427085076692
2025-12-12 18:08:50.457886,Right,504.51555568829644,747.292346001137,771.2926475277636,658.3601596440421,474.3781289095059,614.1268420013366,628.6715112454258,804.4129394819029
2025-12-12 18:08:50.460895,Right,459.8450900017051,681.4744282765314,698.9297283437336,600.0450248310808,159.2039380366914,560.5707293853629,575.8799624596722,731.0300096322317
2025-12-12 18:08:50.464912,Right,420.87022497539874,596.3829219234176,614.8143446791219,535.512287211488,197.82885324436938,497.9186256653629,506.41923945152666,641.997729342198
2025-12-12 18:08:50.468915,Right,421.4007547108922,592.8790193310706,613.9364027215634,535.3223954640562,465.94194715539925,496.95850338821765,502.33472043741494,642.0802032229258
2025-12-12 18:08:50.472865,Right,447.9661299372092,658.6139791090973,676.9065197424497,584.8219436604995,431.55695176665904,546.2193190044491,557.6759736457607,712.7454558080062
2025-12-12 18:08:50.477927,Right,449.6014337679371,668.8682121427264,683.4115200473461,591.3757053758018,146.64874031650834,555.3108685585903,570.046697048936,722.3563500290038
2025-12-12 18:08:50.481981,Right,402.620019425638,575.4834734097822,591.3977208535653,517.9639326747274,129.86256453808164,486.84488609607797,493.6204240974039,623.8145741138142
2025-12-12 18:08:50.485934,Right,349.8972561308183,489.2643722225912,507.3328591521131,445.5597358880332,390.7537477634032,418.99225954397116,417.51672683970537,533.6549784534145
2025-12-12 18:08:50.488982,Right,345.67132390628103,508.3128807793837,523.1040157176321,453.4327604002319,425.5723599847988,427.7479947274551,428.9215308255516,551.8814984380733
2025-12-12 18:08:50.492986,Right,376.11105433432385,565.954693524749,576.1544974010903,498.9485739978263,169.23545475001447,470.5757719221292,477.0827864893945,608.6448267435189
2025-12-12 18:08:50.496948,Right,379.06278356944676,546.5062571070157,557.4316973912064,489.3856268787058,106.39061188400956,459.29664267005865,461.6410729166819,585.7294725576648
2025-12-12 18:08:50.501006,Right,337.29062732460443,468.6629318968626,481.8988547642948,425.88910138001665,346.2107485838351,398.90844073006883,393.2036697015865,502.9450444809627
2025-12-12 18:08:50.506024,Right,299.4085599281825,434.57215374009684,444.6256446853513,386.9206400461262,413.9991160609061,365.90723169012927,360.27407892793417,464.6429796242155
2025-12-12 18:08:50.510029,Right,299.0622020435985,453.6647844782565,458.62121149513405,394.7035824415507,153.22345282306196,377.57390680373646,376.1964530600235,481.11471062980127
2025-12-12 18:08:50.514046,Right,307.5731097480748,447.79528409289196,454.062349697575,394.2662385350559,34.39107082190458,377.83104874612764,373.28206455218606,474.18791795684956
2025-12-12 18:08:50.517053,Right,291.01918257854413,402.40012571180705,413.984959008405,361.47579688578844,276.30178236518987,345.5119153979467,333.9109697024105,429.0764472828014
2025-12-12 18:08:50.521082,Right,263.9184242109768,379.26626605924685,391.047675072914,336.1201034464175,423.7518653815496,321.6686253192602,311.8648805251578,406.7581069924636
2025-12-12 18:08:50.525087,Right,251.38919183413964,385.33936870936304,392.8518108975841,333.77261380152777,186.23533259134274,320.09923219436314,318.62337662186474,413.04444332793355
2025-12-12 18:08:50.529024,Right,242.32680675393203,360.1294807284139,367.8432211477775,316.4137212597998,-20.392915203701705,302.5406110477634,301.5753172179684,387.2915323077468
2025-12-12 18:08:50.534075,Right,220.5258500269265,303.9363486771472,316.85401898715645,276.2024805144174,156.3350089902524,263.447419390548,254.34734168904833,330.8030762990238
2025-12-12 18:08:50.538107,Right,203.73895629605977,289.95047556911595,304.33811792288907,261.15640535764396,356.4295283581596,251.23484010028187,239.09242779703345,317.31596410425846
2025-12-12 18:08:50.542120,Right,207.8630363229313,323.56166256498545,333.9168933685869,282.24718217365444,184.59435180720175,274.5734256488504,267.52294445969164,351.2593950239243
2025-12-12 18:08:50.545124,Right,205.52414638368646,315.2384163456736,324.124445050722,277.9918245928129,-55.35325386526529,271.6759912703419,265.45462780608796,341.89595158735756
2025-12-12 18:08:50.549142,Right,169.36061920103384,236.22977755381726,248.61345117876772,218.78997929149773,65.23828986042645,215.48933911754284,201.90617948386353,260.8807690117974
2025-12-12 18:08:50.553155,Right,129.48072053154465,180.96520370221697,194.0977653246373,169.43296953011304,300.11036269617034,170.8954961564159,153.64666993694846,204.29545441211667
2025-12-12 18:08:50.557163,Right,131.65957186638843,211.14319816348143,219.35347287973855,185.9216552748112,197.4512736593606,190.11978663993068,177.85096470854478,234.49647750367876
2025-12-12 18:08:50.561121,Right,157.19955639430555,248.49635424290318,253.88588010054082,217.89668766094837,-51.9653065300663,221.29405609704554,211.13511376449605,271.68516829784494
2025-12-12 18:08:50.566178,Right,146.72449522902025,205.4792670623865,214.05515483370982,189.14431263302686,17.534134870569687,192.00871211232152,174.94086676556617,226.20607968606055
2025-12-12 18:08:50.570205,Right,96.25989137479337,127.59780889586546,137.96672833536286,121.64291162788868,261.86783403280424,127.30625911313109,105.35596491984325,143.827594135073
2025-12-12 18:08:50.573153,Right,65.3285809539957,109.14614669594448,115.37877876788843,95.71707240509568,198.19702906702878,104.70933122723363,87.40631081460742,121.85301946883556
2025-12-12 18:08:50.577207,Right,82.190412414202,140.55132766265888,144.05552511219867,121.11967690521851,-75.9976927790558,130.30256753938738,116.5320507066208,152.9145900073927
2025-12-12 18:08:50.581229,Right,101.65124577865936,141.70603607961675,149.27558390592458,132.46728151210118,-54.42102835670812,141.19880635500886,120.0171048414195,155.23104891111143
2025-12-12 18:08:50.585243,Right,79.12003702763468,96.8330154697178,107.72249872994144,98.02967713837279,222.98938926123083,110.90959057799773,80.12418025062652,109.50666964368429
2025-12-12 18:08:50.589213,Right,35.05713611090323,56.76561197062256,63.03679802897386,54.62421104934765,228.21503045628197,75.51767764886608,44.291382625640836,66.24477881810162
2025-12-12 18:08:50.594268,Right,14.499367654207163,41.074941825529095,41.666562457277905,36.012186873180326,-70.80837427583174,62.763041900645476,34.15224991418654,48.95677834970411
2025-12-12 18:08:50.598280,Right,21.94109379465226,29.43139674491249,32.63549678470008,34.43074157461524,-137.78896962030558,62.56478791119298,28.5254149697721,40.2620579903014
2025-12-12 18:08:50.601294,Right,28.75701812177431,22.29938928730553,31.614469738327898,35.28899837069912,138.2684952217387,64.29158821242163,21.661097249540035,37.770010860054754
2025-12-12 18:08:50.605332,Right,17.347965148161165,26.04055531026097,34.390258467698004,32.18235320103122,227.93637987831607,64.65658947330667,21.552116847014986,42.14171121339314
2025-12-12 18:08:50.609323,Right,-8.692556838679593,7.937946572899818,10.232984443136957,9.576600390020758,-62.925355362152914,45.86369978799485,6.694264306686819,19.542455326241907
2025-12-12 18:08:50.613270,Right,-36.9353456167446,-50.60427237971453,-49.31624866370112,-35.37457739317324,-230.39390853609075,1.7356734016211703,-40.3757865280495,-43.398416165378876
2025-12-12 18:08:50.617331,Right,-50.1272268970788,-91.14573426201241,-85.79943756666034,-62.69286097108852,3.769253926060628,-27.374744259635918,-76.27292318805121,-83.46092898835195
2025-12-12 18:08:50.621312,Right,-39.70272764132824,-60.28354183153715,-54.89343221927993,-40.11131867399672,189.50502766499994,-6.617416984343436,-54.493956178601366,-49.338126577902585
2025-12-12 18:08:50.626366,Right,-27.952899340481963,-18.809878342668526,-18.47572049329756,-11.376849796652095,-14.373209964629496,21.734820536366897,-19.95554469912895,-7.897739589679986
2025-12-12 18:08:50.629368,Right,-48.107372637838125,-60.02882437425433,-61.62389265128877,-42.629236553329974,-223.8125345959852,-8.493751319940202,-51.90441874525277,-54.19114319398068
2025-12-12 18:08:50.633395,Right,-89.1379713251954,-145.58208562087384,-144.18504572520033,-107.95873036084231,-61.02831541150226,-72.4658056824992,-124.31527034012834,-145.18617004554835
2025-12-12 18:08:50.637405,Right,-98.74936939001782,-151.8677531168214,-150.0601598053181,-115.80200201499974,147.4929320072406,-80.69533681112807,-133.06170450442005,-152.86243098738487
2025-12-12 18:08:50.641392,Right,-63.63764521412668,-75.78546079501393,-78.34259957825998,-58.16967450940865,-3.3155057597032283,-26.13612366837333,-69.20878015621565,-75.72097683561151
2025-12-12 18:08:50.645359,Right,-41.94415025773924,-50.86236864532111,-55.549065699015046,-35.07933383528143,-240.16788603330497,-5.953176592011005,-44.54438637095154,-52.10962486945209
2025-12-12 18:08:50.649418,Right,-78.1990167331096,-131.0084163112333,-133.20585441496223,-97.14824833566672,-137.3207012808707,-66.99877757125068,-110.99149578891229,-137.25879766786238
2025-12-12 18:08:50.654459,Right,-129.29971747826494,-202.77035236734082,-204.72080408938928,-162.3343077374011,81.78294523601653,-128.8261259670835,-175.14618828246603,-214.28295087226434
2025-12-12 18:08:50.657460,Right,-128.5261653320049,-173.66477778549597,-180.1491604624316,-148.1131333005469,-22.563691293034935,-114.77501512502204,-153.6142965213803,-187.60044950575684
2025-12-12 18:08:50.660543,Right,-90.1156987567083,-116.3644335053832,-124.931083796444,-100.19396360778774,-267.38885899095476,-71.96446866662882,-104.97122297041642,-131.05331817804836
2025-12-12 18:08:50.665537,Right,-85.05443673687114,-136.7116174572293,-141.62971419090172,-110.27194155575125,-192.65910080410686,-86.50949270956335,-123.0394187222555,-153.88932562348782
2025-12-12 18:08:50.669538,Right,-128.5316597776764,-204.90559867737466,-207.99599711045448,-169.87889238342905,60.84627648503374,-145.98208401074226,-184.86504766839062,-227.11390366381966
2025-12-12 18:08:50.673552,Right,-161.5966111680973,-224.9189625875515,-232.5536331463445,-197.75745705920417,6.806055208107864,-172.89345396805584,-203.87726156773715,-251.4891088224249
2025-12-12 18:08:50.677480,Right,-149.19007626878556,-195.20795352069763,-206.35103664160124,-174.96498676229749,-266.3974198443575,-153.29640295606805,-175.3240962703967,-222.22405935732604
2025-12-12 18:08:50.681533,Right,-129.35200302779697,-187.42465420381996,-195.1202339516076,-159.4835742051837,-248.05602476747845,-142.85503714276274,-165.3758955652247,-212.09978209712426
2025-12-12 18:08:50.684512,Right,-143.641982956231,-215.61808316461975,-219.85635198758246,-181.4313595124513,35.899122709126004,-165.50895425088993,-191.13479607551926,-239.442319091424
2025-12-12 18:08:50.688581,Right,-175.38398919936662,-235.08715307226885,-243.3203964526474,-209.31709489955392,55.28487816197048,-189.49943724911282,-210.5366477197349,-261.4887916817679
2025-12-12 18:08:50.692570,Right,-188.16580836161302,-238.38974135150784,-252.1698389675439,-219.51291511039744,-240.91244210624973,-197.1770954665226,-211.48227231419878,-267.87680209890823
2025-12-12 18:08:50.697606,Right,-182.40799791600148,-253.1002158258416,-264.98669646419876,-225.2471420248694,-320.1801909395217,-204.93970315755723,-220.3663013866244,-282.2296506769053
2025-12-12 18:08:50.701581,Right,-180.25741188934626,-268.67325921980955,-275.1261474922212,-232.0626517675555,-47.975916142982896,-214.95733408533852,-234.1609266046289,-294.3483454028319
2025-12-12 18:08:50.705623,Right,-186.51929141400615,-258.03468945540953,-265.0200588158041,-229.13681061151146,64.56994251636206,-212.751763280874,-227.68844103124866,-281.46922921427176
2025-12-12 18:08:50.708627,Right,-195.1206115384557,-249.2297207726515,-260.76190408010734,-228.7883369371266,-191.7205878958266,-211.53865240872256,-218.6559535637789,-274.09477183515264
2025-12-12 18:08:50.712623,Right,-208.06281652214238,-283.64264274142624,-294.5735906288319,-253.53190922360227,-342.01924331815826,-235.9852833581681,-243.4543223274959,-310.96098868723493
2025-12-12 18:08:50.716622,Right,-221.9893457260332,-325.3194656415726,-331.3797576124489,-282.43997319716436,-116.09413665431202,-264.9126901608979,-277.4358675596741,-352.41151188712684
2025-12-12 18:08:50.721655,Right,-221.07380186775117,-309.90735576782026,-316.05907507342636,-273.99189271740033,51.48519964514708,-256.1104738869908,-265.4514590285544,-334.7416306180821
2025-12-12 18:08:50.725651,Right,-206.92000371028553,-265.98413540321053,-277.7043731951853,-244.49277852725936,-164.0834901250346,-226.7964358945319,-226.52153025494772,-290.3601244330057
2025-12-12 18:08:50.729683,Right,-208.4171033956227,-279.7289482127235,-293.6659611899522,-253.6467604690988,-373.24928019607614,-237.00813472099253,-234.58646568021504,-306.93486008641776
2025-12-12 18:08:50.733687,Right,-235.8709935467923,-344.70025778684067,-355.80653532320866,-302.5777324603114,-200.6641191846429,-286.3413830632926,-290.0111303026206,-375.6073204277491
2025-12-12 18:08:50.736682,Right,-255.24466647827649,-364.32641479047015,-375.5550418481871,-323.0851192897826,19.823424827234703,-305.96228821447585,-310.57169870691723,-397.2604246883129
2025-12-12 18:08:50.740701,Right,-240.31080771161942,-316.3056868532731,-332.5902322459151,-290.62271702484577,-123.08675905583368,-272.7797046182677,-270.69767839609995,-349.6367689120234
2025-12-12 18:08:50.744725,Right,-219.61830548828584,-291.5807192972279,-309.802424207679,-267.6956941507524,-351.45794150276924,-249.78570048540132,-246.186664467823,-324.8073481405154
2025-12-12 18:08:50.748729,Right,-231.43993425311055,-336.030614891235,-350.2027554590604,-297.4687455051753,-230.3125059263839,-278.5445768974023,-282.25432462088065,-368.8628651347826
2025-12-12 18:08:50.753741,Right,-259.784195538552,-374.9074223306379,-386.81240041792626,-332.22056026145583,8.924756574211642,-311.2020155097416,-318.0035962256952,-406.7386497387779
2025-12-12 18:08:50.757746,Right,-262.683370142855,-349.780940478493,-364.84801995474845,-320.1369830665644,-96.7110676431621,-298.59487960886327,-298.19336128490977,-380.19718503172044
2025-12-12 18:08:50.761756,Right,-243.53516100978595,-317.9021651814692,-334.05291938968,-293.5547642784077,-366.04136877518613,-274.1208561444946,-268.158293548302,-347.0784151163534
2025-12-12 18:08:50.764770,Right,-241.51112729977467,-341.778977819602,-352.5615563974716,-305.65252610022435,-305.5599497264775,-288.01240758103086,-286.1261398253264,-370.40274487336865
2025-12-12 18:08:50.768772,Right,-261.44646161721903,-378.329257838428,-385.01934700011043,-336.2946792705334,-32.51658971502911,-317.81185920443386,-319.5372775788419,-407.52787367330166
2025-12-12 18:08:50.772784,Right,-268.2832800091419,-365.2272917710943,-375.3643049875973,-334.4664010956185,-59.115191601071274,-314.8947328099166,-310.9974391068099,-396.2347458470613
2025-12-12 18:08:50.776816,Right,-251.5758085534908,-335.2764460751787,-349.8958192587015,-311.4262009797385,-336.6811366236652,-293.8169458094053,-283.81842441210756,-368.44826322217705
2025-12-12 18:08:50.782767,Right,-241.38530952722067,-348.05977375642397,-360.8825378130423,-313.5621081588906,-347.063466493506,-299.7181703740498,-292.3175437381724,-382.35294806800084
2025-12-12 18:08:50.785775,Right,-251.15007147443248,-375.5797918283497,-385.3214327025926,-333.5623057303601,-71.97108801701688,-321.59548693161923,-317.40200637554517,-409.60175424371846
2025-12-12 18:08:50.789830,Right,-256.52757216000464,-359.84905817423714,-372.61451362964,-329.2216669250629,-27.065500537108164,-316.8404508185922,-306.4765758110443,-393.24634054867784
2025-12-12 18:08:50.792788,Right,-246.14369330735644,-329.3605902919662,-346.89655986748403,-309.56509406201076,-297.0372161338455,-297.0525057975319,-278.73727654706454,-362.64397238066886
2025-12-12 18:08:50.796915,Right,-244.13225067738676,-348.34113919897936,-364.39903397648595,-319.7116147435736,-377.69579308488755,-308.118994857301,-291.70779670763295,-381.6174694307847
2025-12-12 18:08:50.800874,Right,-260.99681986513315,-391.34382017643657,-403.0557990068919,-350.95658043189906,-119.74860868410906,-339.8975720742601,-329.3001780345803,-424.1107925796532
2025-12-12 18:08:50.804915,Right,-268.2889210408903,-382.950148798991,-395.89858616981655,-349.5358669430716,-7.096419086446986,-338.7404147843481,-325.2097405398963,-415.23736992117483
2025-12-12 18:08:50.808899,Right,-249.69762240175623,-335.86949127650587,-353.42020224861335,-314.90829653834226,-249.9852764842508,-305.63662718766136,-284.4775499389507,-368.6686839729082
2025-12-12 18:08:50.813879,Right,-234.87858957378194,-331.7202569214278,-348.76366900635185,-305.86598899011733,-392.03678837796906,-298.36313824006356,-278.1894880165346,-365.98702796333237
2025-12-12 18:08:50.817920,Right,-249.1684821699746,-375.4967175722122,-388.33928455552086,-337.7593454258749,-165.99464476661524,-329.4089506146265,-316.95747665839735,-411.46065154648386
2025-12-12 18:08:50.820947,Right,-267.9666170294513,-388.6509440469672,-402.35422874696087,-355.7708286168054,6.058554721210385,-344.479843493551,-333.23423317976994,-426.16784316609846
2025-12-12 18:08:50.824889,Right,-259.77593201352283,-351.7270958391018,-370.94298236456234,-332.540775172587,-194.9349363403162,-319.97884549369337,-303.4973546291003,-390.3471646431717
2025-12-12 18:08:50.828943,Right,-241.07917829765938,-335.0827825446031,-355.37579269876005,-313.2400513216853,-385.74853503887425,-301.77021892293124,-286.49571938614827,-373.71288638882106
2025-12-12 18:08:50.832942,Right,-244.90648903307738,-367.02085556968814,-382.89633271313505,-330.7073438342195,-199.55649669867125,-318.98135646572337,-312.34237263165414,-404.60686495137634
2025-12-12 18:08:50.836976,Right,-262.1217675874359,-386.1015641124104,-400.81951835303335,-349.46660111518577,23.07186894043116,-334.47934251104016,-330.4550678471569,-422.8207362523535
2025-12-12 18:08:50.841973,Right,-260.60766653489554,-359.3503724767943,-378.2615875970223,-335.9596851567039,-131.4605935625732,-318.23357598128496,-307.43788910494186,-396.0355018824339
2025-12-12 18:08:50.845941,Right,-242.92568131187,-339.7859604364494,-359.81062041560654,-317.99631254392443,-374.5634856726392,-301.2430673240451,-286.7723936805269,-375.9568015811965
2025-12-12 18:08:50.848997,Right,-238.1681503772852,-361.1040021116496,-376.25188545009587,-326.8695479389862,-252.28319718988496,-312.9262204625993,-302.8765926642809,-394.9845736785792
2025-12-12 18:08:50.853013,Right,-249.42862295242958,-375.94361592293717,-388.6826545383665,-339.44572394288843,7.353867308818735,-326.6911644494976,-318.2350843642489,-407.00565760361496
2025-12-12 18:08:50.857053,Right,-253.95697160460986,-352.19934758357704,-369.2800461090519,-328.3551854561083,-78.75380551358103,-315.12316274037585,-300.2872755667777,-382.14474170305766
2025-12-12 18:08:50.861041,Right,-247.7376614701352,-336.32650546578225,-356.4823399337474,-316.6185691386345,-345.78590978865395,-303.05878804577515,-284.87890221294947,-366.57875004201196
2025-12-12 18:08:50.865046,Right,-246.85161375335883,-359.12693180987844,-375.4185667914571,-328.46530096576316,-290.61894949676935,-314.7382631918299,-302.5523309985292,-388.81965100893285
2025-12-12 18:08:50.870027,Right,-248.8477414167137,-367.98184649227187,-380.5903733550804,-334.6924558134633,-14.685900780197699,-320.5466837021522,-312.4163748015417,-395.8213360644877
2025-12-12 18:08:50.874080,Right,-236.21474146691617,-325.33055271877674,-341.21461883792654,-306.3605778237106,-36.34132670593681,-293.3191028677975,-278.5242987659294,-352.2079845604021
2025-12-12 18:08:50.877056,Right,-217.28868127032183,-290.7421306715696,-310.93214172357693,-278.4300540818367,-322.43923511035973,-269.5325488249655,-247.27760477591073,-318.69056226767134
2025-12-12 18:08:50.881105,Right,-219.06251439481275,-319.98560376511887,-338.059793072287,-293.5038031479344,-347.876488964539,-289.70870267174905,-269.8855158609804,-349.2853070697747
2025-12-12 18:08:50.885092,Right,-236.25797348615015,-358.0062738311244,-372.22801304236054,-320.4278886442189,-71.16244092438137,-319.52024158090353,-304.46852564800065,-387.07874716445804
2025-12-12 18:08:50.889129,Right,-234.1775226315949,-330.7017468312406,-347.02266087476164,-303.586250995344,-5.230421058484353,-303.507208560477,-284.74530800333014,-358.5020323692588
2025-12-12 18:08:50.893129,Right,-209.7671300562797,-278.4298335520434,-299.0950077448506,-263.1190059329965,-257.07341419241857,-263.94360693212366,-239.51352863496868,-305.57276310492307
2025-12-12 18:08:50.897171,Right,-200.01585237018298,-286.0415771929547,-305.54554245923646,-262.3323270872934,-334.9684116166318,-264.03327660565265,-243.44900588179007,-313.74048221076373
2025-12-12 18:08:50.902102,Right,-215.7494389213971,-330.4107294831192,-346.29483331448864,-294.4199290612014,-77.62631262646755,-295.5142288969364,-282.6737949643284,-359.183187040966
2025-12-12 18:08:50.905161,Right,-218.798277839378,-321.0055639972561,-338.75838411203586,-292.15502874425147,41.45574042428052,-292.2561508945655,-278.2515172129497,-350.41589890094474
2025-12-12 18:08:50.909160,Right,-188.49503643339267,-261.4874835438677,-284.0691781309433,-246.37431823957013,-196.8620834616595,-247.4422675872338,-226.99541566206608,-290.6438655286329
2025-12-12 18:08:50.913197,Right,-161.63754549931036,-242.41131093987497,-264.150415490265,-222.76075460453285,-345.2459801604855,-225.5472708850284,-206.7601659402717,-270.51004407647997
2025-12-12 18:08:50.917171,Right,-172.58696510922164,-282.0789217162528,-298.6422082562931,-248.291334701702,-128.00042985385517,-250.00299256038852,-239.46282128046732,-308.77218463341706
2025-12-12 18:08:50.921225,Right,-196.50395101576578,-301.86458569427487,-317.79132758989,-269.4991131371353,43.80994797538733,-267.7923886273056,-258.56024928519037,-327.2426415194059
2025-12-12 18:08:50.925216,Right,-192.98482800583588,-269.76051350019407,-289.4012239869917,-249.6329811112373,-152.8841943385778,-246.822288264113,-231.00825020991033,-293.7597476951778
2025-12-12 18:08:50.929234,Right,-171.0860491147032,-246.75599331705598,-265.5592565644765,-225.578284854535,-343.71041659405455,-225.71570526558207,-207.91607330733677,-268.90979355736636
2025-12-12 18:08:50.932228,Right,-165.56303482619114,-264.7333858294878,-277.44190484227147,-231.66578489454696,-159.55425848974846,-235.011443843483,-222.1135314682615,-285.0288801644929
2025-12-12 18:08:50.937246,Right,-174.9913524032454,-272.18243644345785,-282.85919638338964,-240.08702609082684,65.31580159941223,-243.83120835991576,-231.10065079887863,-291.78343214839697
2025-12-12 18:08:50.941200,Right,-171.90466333623044,-240.91584238258656,-256.0410329346778,-222.11580154212425,-85.64182601339417,-225.5099564999109,-205.4260630994686,-261.222523886594
2025-12-12 18:08:50.945263,Right,-156.5154944564565,-221.3185581121943,-238.6315132380696,-204.24258977599675,-328.2988072996959,-209.2458918747725,-186.17544229963096,-242.28822551993653
2025-12-12 18:08:50.949295,Right,-152.1224571657367,-241.80296305572847,-255.42056325846352,-213.19189623004058,-202.8994160196453,-220.13307866011746,-202.64864783774829,-261.96648219251074
2025-12-12 18:08:50.953308,Right,-158.16998743772274,-251.36845759412972,-263.4206765794661,-221.99364072171738,67.66789521975443,-228.26607475359924,-213.34287546144333,-269.76309197570663
2025-12-12 18:08:50.957315,Right,-153.44936698523816,-218.69190426229034,-235.63231150922365,-203.21570370037807,-9.33373723475961,-207.12414091057144,-186.10272822948173,-235.97817789693363
2025-12-12 18:08:50.960301,Right,-139.66062906337902,-196.2349238989409,-216.4903737945133,-184.5522753073019,-280.13538881819113,-187.5081339616445,-162.69970830646344,-213.3617624134058
2025-12-12 18:08:50.964335,Right,-138.24932900315616,-221.4574656508048,-237.36140035290737,-196.1224363091169,-232.7840667325072,-199.90295120660448,-180.59329734853236,-238.15934544312768
2025-12-12 18:08:50.969333,Right,-146.09940888511483,-240.17482914659195,-250.89236123120645,-208.499381710717,49.96067297380068,-212.82871215377236,-198.169039064378,-255.87276162218768
2025-12-12 18:08:50.973302,Right,-137.8776364090736,-203.20227536797756,-215.18870857777074,-184.0844764682697,49.464840594737325,-188.26895806373795,-169.14115616766503,-218.62164701044094
2025-12-12 18:08:50.977360,Right,-114.83038786408724,-161.08554646227276,-175.85679377568886,-150.41942520515295,-220.67764132464072,-154.9928145633312,-131.4341682223603,-177.57090902456548
2025-12-12 18:08:50.981367,Right,-106.73178336786805,-175.73818277328974,-187.82226202473976,-154.53678377810866,-245.73379282542737,-159.57815350987948,-141.24475205800263,-193.21799050888512
2025-12-12 18:08:50.984386,Right,-118.11856065166648,-206.69157716375776,-214.86770542879822,-176.87815248366678,25.031471868947847,-180.93893049447797,-169.61146762256976,-223.60244661732577
2025-12-12 18:08:50.988406,Right,-118.1023021673318,-183.65470090601593,-193.69845427048858,-164.97056094225263,87.22778610792011,-167.49220039020292,-154.18405064573744,-199.08637397299754
2025-12-12 18:08:50.993429,Right,-96.20254245755496,-135.14506925223395,-148.87423809163738,-128.81663012108766,-170.48139242679463,-131.4660476342542,-113.58864408946829,-149.96770888392348
2025-12-12 18:08:50.997505,Right,-82.44586404011352,-136.5136151216575,-148.17428863822715,-123.12424969830317,-258.6335043528816,-126.84313471231144,-113.3360215848661,-151.97047354315873
2025-12-12 18:08:51.000454,Right,-92.7776539849001,-172.01779826037819,-179.13788089645095,-147.48771065077744,-7.198627020407002,-150.3487693167408,-144.93894686497515,-188.16101574065397
2025-12-12 18:08:51.004467,Right,-99.5203913426958,-164.6000573936035,-172.71925831213593,-147.4345035662991,114.28089983336395,-147.61487936263438,-141.28001324494835,-180.56075690605212
2025-12-12 18:08:51.008474,Right,-82.46426290192176,-117.86996676947456,-129.8442989126779,-114.59464114002185,-120.94576396833872,-113.44047684327234,-100.28202340751886,-132.86573941272218
2025-12-12 18:08:51.012541,Right,-66.59193481469993,-107.9243944544578,-117.78989772690693,-101.3341437849449,-267.14398972547497,-101.01810310879955,-88.20471752888989,-121.55158703238703
2025-12-12 18:08:51.017481,Right,-76.06286219065078,-141.8734386046417,-145.18323177361162,-123.4811177753727,-39.40555128568667,-123.66391102422494,-117.10223007755121,-154.07992882508552
2025-12-12 18:08:51.021560,Right,-89.37525801185984,-146.3233109351131,-148.1815903754905,-131.81604185240576,149.03138649719767,-131.3624298721552,-123.96835886855843,-157.58158922335133
2025-12-12 18:08:51.025534,Right,-78.21887953963596,-104.57631058251718,-110.53716784022981,-103.58941428543767,-44.79281329672085,-103.67437178612454,-88.20939327968517,-115.60850824811496
2025-12-12 18:08:51.028472,Right,-57.78399512096075,-85.3735795703833,-91.84302122460213,-82.77261539007304,-254.64759749744553,-85.29449075937737,-67.75595855066786,-96.27396005636547
2025-12-12 18:08:51.032531,Right,-57.20793631213019,-112.78836482402403,-114.30379815818742,-96.77599053393351,-90.66724314042949,-101.02075001545018,-89.55547637969721,-122.82783052191371
2025-12-12 18:08:51.036540,Right,-66.83668086631224,-122.95570600230712,-122.52309705910739,-107.14553584362147,133.68507013091585,-110.8412673517596,-101.18067053199047,-131.67694326053606
2025-12-12 18:08:51.040560,Right,-58.86685631060391,-86.2862405788037,-89.69033557467628,-84.12529963965062,-7.623180206690449,-86.87004699837416,-71.76371810043929,-94.19545275805285
2025-12-12 18:08:51.045590,Right,-40.365534250537166,-63.45509258785751,-68.46241014666157,-62.88094123493647,-252.20327111007646,-65.83771345962305,-50.49597287987126,-70.99786256387597
2025-12-12 18:08:51.049549,Right,-39.2124113534519,-89.96249530406203,-90.6376326562604,-75.89873414294561,-138.14299317807308,-78.8976458014804,-72.75956685311394,-96.58402564947028
2025-12-12 18:08:51.053604,Right,-50.563231425359845,-107.2102222624817,-105.14954909455264,-89.92316996271256,131.70123654650524,-91.87637820834061,-91.34818607772468,-112.38449865032453
2025-12-12 18:08:51.056605,Right,-45.37968096107943,-71.42708059132565,-72.83722742588725,-67.68675678089494,67.81976420406136,-69.57747266656952,-63.796768632368185,-76.03490872838302
2025-12-12 18:08:51.060624,Right,-25.07649267380475,-36.68852671078639,-40.93690920737572,-38.85041022434598,-192.43162366197794,-43.116507547325455,-32.61032390053151,-42.33790215739282
2025-12-12 18:08:51.066661,Right,-19.058103315532207,-54.8565849646111,-56.15859426080715,-45.47334528394276,-145.2804096180189,-52.02111482230248,-46.53083083318779,-62.03480224637315
2025-12-12 18:08:51.069668,Right,-29.470580350549426,-78.78872953826794,-77.79625446378486,-63.22544281673618,133.45960192076745,-68.9520017800387,-69.26837720739422,-86.47743748914218
2025-12-12 18:08:51.073611,Right,-27.39610787271522,-50.78738587599946,-53.92187527072383,-46.91040979209356,129.68818412692053,-49.82038222410483,-47.47452917142073,-57.79262678301893
2025-12-12 18:08:51.077690,Right,-8.336208814638667,-11.718436254770495,-19.06071736465674,-16.29595654940931,-144.06052244541934,-17.286979631346185,-11.864417448290624,-17.67565619578818
2025-12-12 18:08:51.080759,Right,-2.6283386081049684,-26.327265989908483,-30.702414458908606,-21.242618743504863,-168.38214973220602,-21.044722277554683,-21.911697854928207,-31.5216193816741
2025-12-12 18:08:51.084719,Right,-19.5851174792042,-62.91620730375871,-62.269121657067444,-49.47355216811411,113.1689002715575,-47.05363300762838,-55.819942434318364,-67.9433773556375
2025-12-12 18:08:51.088712,Right,-28.380895303940633,-50.745843059557956,-51.18622494349256,-47.61659654881805,188.08657604668406,-43.22053840957233,-49.609745654597646,-56.37103251286317
2025-12-12 18:08:51.092714,Right,-12.0753867336025,-8.091505005955696,-12.213366612559184,-16.57541446867981,-69.37221046825289,-13.245319062290946,-12.29611217204365,-14.428283198096324
2025-12-12 18:08:51.096686,Right,3.6863495708385017,-4.354419424489606,-6.512274400040042,-5.9406050343532115,-168.0619742871495,-5.678933764400426,-4.68193490683916,-9.759501797379926
2025-12-12 18:08:51.100756,Right,-1.8000532266451046,-30.883986056549475,-27.905595755262766,-21.636683408811223,77.30185618562973,-22.44373795640422,-25.5709179105761,-32.723638404451776
2025-12-12 18:08:51.105784,Right,-9.725077527575195,-22.784302858810406,-20.016335403372068,-20.119860426115338,200.59682220497052,-19.17025257178466,-19.451355713390512,-20.159107524203137
2025-12-12 18:08:51.108770,Right,-1.2524116487475112,13.86800958123058,12.299140715564135,4.624853239307413,-37.736805425869534,6.858210826147115,13.172393088083481,19.037115269282367
2025-12-12 18:08:51.112793,Right,6.828526993369451,12.803069453744683,11.229197070759255,9.213927907403558,-195.85664385046402,10.51469266595086,15.03695768021862,18.307537727698218
2025-12-12 18:08:51.116824,Right,-2.2739892770187,-23.140879420243436,-20.611194708559196,-13.006039746513125,25.731627453671535,-12.67455325613264,-16.142668882093858,-17.242651493113954
2025-12-12 18:08:51.120812,Right,-8.625797255081125,-20.90258505422389,-18.54572550501325,-13.541735593404155,220.97244269496878,-12.668323246383807,-16.90195470128674,-13.437824084656313
2025-12-12 18:08:51.124826,Right,8.591758446156746,27.605277000606293,24.979472370439908,21.681639281858224,31.8850202862086,23.039289248088608,25.394636114069726,36.43623397013289
2025-12-12 18:08:51.128768,Right,29.19649623084115,46.55395853606751,42.761949801584706,41.894166270823916,-186.3149567105429,42.914676346990746,45.58077501493972,55.38935591233894
2025-12-12 18:08:51.133850,Right,26.326051892741816,13.823737702972721,14.282480529509485,21.79918512509903,-30.23376537504373,23.702301634824835,17.845027060684515,21.778275996097364
2025-12-12 18:08:51.136845,Right,15.258731992507819,1.0453264115785714,2.4795834141259547,7.169417503639124,201.0845432315691,11.970100087492028,1.5892305785382632,7.666307220904855
2025-12-12 18:08:51.140855,Right,24.642114778485848,40.352181946946075,36.66533032472944,30.124725893168943,71.78744301651022,37.22700982016977,30.828098668018356,45.033106743649114
2025-12-12 18:08:51.144877,Right,42.645968993296265,65.07618643800379,58.66970704330015,50.6998015291756,-171.97136184052215,57.62301765661687,52.63454467072734,68.0389958677988
2025-12-12 18:08:51.148882,Right,38.59964464268705,34.54802929380094,32.08042295507039,32.831653177097905,-64.37603283625504,38.95423062876216,28.17157217868953,37.5742460746842
2025-12-12 18:08:51.152882,Right,20.642563055545907,10.42862561714719,11.001934648229508,12.868763366423082,204.86391972459387,19.660060390655417,6.7528382898599375,15.217816003510961
2025-12-12 18:08:51.156851,Right,22.87848287264933,43.321956725558266,40.96076108154375,33.48243189736968,143.50894714242895,41.112388094799826,34.99250740330899,49.497475593700074
2025-12-12 18:08:51.161923,Right,44.82156959027634,80.58053453452885,75.88822779871407,65.56213241786463,-123.69847863377072,72.21865951087966,70.16315063100774,86.14070503719267
2025-12-12 18:08:51.164930,Right,53.12940759053163,64.54967263992876,63.445272255921736,61.67048870585859,-91.12993471362279,66.78200789471157,58.128377360713785,67.9665125135507
2025-12-12 18:08:51.167880,Right,41.90130579921242,37.74797231415869,39.841669227724196,41.765096397080924,179.12649344772217,47.099541023315396,31.569734776581754,39.090808047010796
2025-12-12 18:08:51.172957,Right,40.89790642402659,60.997721851977985,59.927633803803474,53.55578925558075,173.77503570649424,60.08329632594541,47.394747978803935,61.44276056496892
2025-12-12 18:08:51.176966,Right,57.88615600588673,98.71183160235523,94.26645798096433,82.52316220010107,-107.28195901578874,88.78435576391348,80.58101790450746,99.79624447319657
2025-12-12 18:08:51.180998,Right,63.42854479642119,85.26456712262006,84.50935348009807,79.12720537815767,-146.30859048917773,83.95736131137528,71.71895051479805,88.4412633474276
2025-12-12 18:08:51.184978,Right,46.09394027014787,47.23005433162325,52.00730325077893,51.19949443396763,125.53247173182172,55.469865990264225,37.96781464027299,53.034564444067655
2025-12-12 18:08:51.188948,Right,34.581326569008525,53.40339381492231,57.10026680101873,49.19956827409624,199.78526940089796,53.24182568473043,40.435438350832555,60.85957520650118
2025-12-12 18:08:51.192943,Right,46.05480631852697,88.20848974477849,87.77036959161342,73.84631007214193,-58.05228261522279,75.5380681907991,71.3088333937485,96.05282078702294
2025-12-12 18:08:51.196061,Right,56.99342132022866,85.08834335141,86.18851548072416,78.63337222559494,-158.25725839808,76.1548064872477,71.95732760381361,93.62779497093288
2025-12-12 18:08:51.201024,Right,49.11217946224497,53.89205381082138,60.027557803856325,59.40150518757582,93.73810054708883,54.23083474529267,45.184879728156375,64.58311563264579
2025-12-12 18:08:51.205034,Right,43.068880890692526,61.26668399774644,67.31620780665253,61.11853891838109,229.8554257721844,56.14535199401871,49.26920335061732,74.5871548729192
2025-12-12 18:08:51.209065,Right,57.669647696311586,102.25553722071345,104.35512799189019,90.39070271743549,-6.310491095056932,86.25516603695723,85.8194370683268,117.19848428152909
2025-12-12 18:08:51.213005,Right,72.86636113762506,107.2014910447906,110.15477859565726,100.68162431587552,-178.05027301969676,96.17499043309363,94.3259107389531,122.75680421992729
2025-12-12 18:08:51.217064,Right,66.63170145687036,72.52632448633085,80.78283593019296,79.32342061118834,31.594452442077454,74.37051743966731,65.10772763575369,88.42887336307467
2025-12-12 18:08:51.221125,Right,55.88161722908262,68.70098151925049,77.960035374781,72.01111266038788,231.65115800601052,67.61705830403662,58.09620031990198,84.75456477016996
2025-12-12 18:08:51.224044,Right,64.33258328713782,108.56440562348871,113.88997545357415,97.47853233278147,56.70485927637128,93.28054805675856,91.05846928327082,124.39510480637546
2025-12-12 18:08:51.229100,Right,77.84536623706299,122.35331125366065,127.56980376144202,111.92624294758207,-152.3822617893129,106.6892718003619,106.23729920284677,138.00676526467578
2025-12-12 18:08:51.233129,Right,71.42502526744283,87.52964816055464,98.10833123172051,90.71065927180462,8.72533014948931,85.2127707569598,78.4499159203151,103.45347369022056
2025-12-12 18:08:51.237136,Right,57.43636807218354,71.61706356651484,84.1989289150988,75.31496687075924,248.46801080669684,71.84421652440506,62.9531095208913,87.73593316196275
2025-12-12 18:08:51.241154,Right,63.51121112683359,106.73502966031447,114.98485221714509,96.61850838151804,125.21454415658809,95.43335593405209,92.46191223772985,122.17978780093836
2025-12-12 18:08:51.245170,Right,80.5001024596695,129.33248005081623,135.4554668935889,116.85514578053517,-125.22408250090848,116.07577222946702,115.22603607590645,143.55541739665932
2025-12-12 18:08:51.249164,Right,79.07798700668263,99.1299282457021,109.7625121676333,100.10403097333165,-31.01356530486555,99.21177677555443,91.42767285708396,112.76548601095237
2025-12-12 18:08:51.252179,Right,65.3534843847001,76.07644048159727,90.32938731158993,80.84488001123646,231.7999569010135,80.9966800530965,68.74673550072202,90.0652698760066
2025-12-12 18:08:51.256187,Right,70.68463130985174,110.20579776065597,122.04362003113783,101.2563004079002,168.88151871074842,101.76951178287345,94.73551484077916,124.52516253148497
2025-12-12 18:08:51.261190,Right,92.86313328365759,148.01960451888317,158.15998593383847,132.261871433524,-105.74937957842349,130.28461056452215,127.9703266348788,162.04789604147845
2025-12-12 18:08:51.265199,Right,98.03007345627793,129.5619877008794,144.33974610212317,125.2020609061965,-81.48868175968516,119.83823870025662,113.3606039086626,143.26449650317227
2025-12-12 18:08:51.269218,Right,80.96863115509586,96.27266004106787,115.53287012307555,98.96440383294612,194.4742227128895,92.58191938307937,81.95503780820218,110.13120925443582
2025-12-12 18:08:51.273224,Right,73.33803682277176,111.25143718187246,128.13036491201638,102.60574643583095,206.76364266944165,96.82913744015968,91.30105938839915,125.30760716207078
2025-12-12 18:08:51.276249,Right,85.72771268555516,142.99662156580234,156.31926409972948,125.30134589101363,-62.884866188764136,118.64157695582253,119.58850818347855,156.8859794697346
2025-12-12 18:08:51.280251,Right,90.66102988314742,128.39624409353564,144.61355324048782,120.61257721682341,-102.63336091865858,111.52461688899348,110.0997157933125,142.23202119392226
2025-12-12 18:08:51.284270,Right,76.35270676272194,94.02773955852172,114.89301802320551,96.62525301321148,167.8585206248208,86.24094383102056,80.1556042962693,108.34406774039962
2025-12-12 18:08:51.289266,Right,69.33773189208296,106.63661609222618,125.5273047931696,101.16770541555888,243.11927110322358,91.44147807115951,89.03534874991601,121.52799937754753
2025-12-12 18:08:51.293295,Right,83.59213463859487,145.8235345188732,159.6055844624716,129.98999464277586,-22.929310933588567,121.4650040386332,125.10410053317901,161.0547144715165
2025-12-12 18:08:51.297392,Right,92.97333135653025,139.94412124552764,154.22035877035523,132.15894001656852,-141.07514885008277,125.23881660859479,125.38689376499678,155.69424459723086
2025-12-12 18:08:51.301310,Right,79.46206565095054,99.18148461497185,117.26477762850118,103.98284184198565,101.91879439815239,100.19074042233115,91.94162652827072,115.69326980240294
2025-12-12 18:08:51.304337,Right,66.5025140055368,96.12008299093577,112.59646390515263,95.44781939117092,249.41696300901094,95.0518117628526,86.87191534032172,112.79448429598415
2025-12-12 18:08:51.308325,Right,75.36562672182481,130.61505280586425,141.56029542126635,117.27432023218716,32.736810336286,117.47212721024698,115.8876096729,146.40764789409877
2025-12-12 18:08:51.312366,Right,86.56697883862216,132.10153722262476,142.68016545612772,122.60914034034067,-127.89981515384716,120.83329836738994,119.10656199233199,146.9046854499611
2025-12-12 18:08:51.316343,Right,77.57574663852574,93.77749599830713,108.90575855251518,96.64664620661642,83.966623350585,94.29595472132496,85.6290314637954,108.69272564451967
2025-12-12 18:08:51.321361,Right,65.3113370560095,86.38223589331028,101.9217997190135,85.46352982101962,282.3329127834477,85.62490159492882,75.96564659276191,102.4120463670406
2025-12-12 18:08:51.325378,Right,74.2339954562267,125.8096342891804,136.74061937110673,110.15369243612804,97.79934864486859,112.81084131069656,109.5671584798256,142.87862534014857
2025-12-12 18:08:51.328317,Right,90.25840776617406,142.6535035886336,152.88133918504172,127.25157660122204,-130.60389999939798,129.65636946100858,127.88579477550229,160.11423794731672
2025-12-12 18:08:51.332397,Right,86.49810134013387,110.57029217276431,125.99835267946764,109.10860141165904,13.294450222565501,110.05622052507533,102.0470819514303,127.95708565336827
2025-12-12 18:08:51.336395,Right,72.24785765417619,93.30043248170114,111.06502661659033,93.41276777363964,248.0703476101553,94.10506724627339,84.02392962865997,110.17522320424905
2025-12-12 18:08:51.340409,Right,73.6218023227193,123.00978060725902,136.97685098228976,109.7264810999477,124.98211212026217,110.88692894819542,106.71199738535506,138.77392810565652
2025-12-12 18:08:51.344432,Right,82.96288784958597,138.67900856488268,150.98070046617067,121.97278470259334,-130.2210790899553,123.26080400837236,121.21552238891309,153.28750690406014
2025-12-12 18:08:51.349373,Right,73.26621902397892,101.1361868463282,118.19151109101949,96.26703752622416,-39.8796219237629,98.32152663092711,89.5988491580647,115.46077561491984
2025-12-12 18:08:51.353445,Right,51.71051298830571,70.0448779247672,90.42327806084359,68.07116346081602,229.6018596237409,71.79480270910426,59.61444147051952,84.71523677192454
2025-12-12 18:08:51.356508,Right,50.85394178333809,97.04764327542216,113.6893032661028,81.26449498946022,175.66799030523543,84.94223536053323,79.90437213426048,111.44327569102461
2025-12-12 18:08:51.360510,Right,70.67744307301473,131.6509084939171,144.20772193392622,109.25501844630344,-103.40410070517828,109.6001384647825,111.25368827514467,144.71835213547456
2025-12-12 18:08:51.364524,Right,77.72131988898036,114.08744538808241,128.6282085422281,103.41193070664303,-93.83283828172716,100.13643071125261,98.32751091993123,125.58078530346393
2025-12-12 18:08:51.368511,Right,63.671221896554925,82.53472019029141,99.75071587505226,79.42945370535017,174.43316708545171,76.13456722103001,69.05977742355026,92.91279599640984
2025-12-12 18:08:51.372515,Right,56.769695752402185,97.36816951712535,111.71320152984117,83.64446415106067,189.40299672973924,83.1229428218503,78.81121922199964,107.12423876437242
2025-12-12 18:08:51.376513,Right,67.78245305229211,127.47635570215061,138.751430851873,105.63762817549286,-79.25635213839269,106.6449532037077,106.4266618276888,137.17015358165372
2025-12-12 18:08:51.381567,Right,72.02508690496325,111.47004992343136,126.6531262206554,100.53315381599532,-122.03357422438421,100.76772690584767,96.54637080190878,121.87989272466803
2025-12-12 18:08:51.384516,Right,58.77441409449966,76.23257863972685,97.46299375148374,76.19102951086825,153.88290722935199,76.0014433573815,66.38727694566478,87.80331498218584
2025-12-12 18:08:51.388557,Right,53.13174322793202,88.14075851193047,108.9670911411522,79.46604127110913,245.82884190957702,80.26293169069686,74.72813450758986,100.44798665257986
2025-12-12 18:08:51.392499,Right,68.35225020682265,127.35441318168887,144.35707381737302,106.65278193849372,-7.991189221844252,108.04486816708231,110.28741276025539,139.55621886852896
2025-12-12 18:08:51.396582,Right,79.12148885519127,122.33740813574695,140.71478188689798,107.92069451266434,-127.55490511435346,109.31309057227918,110.22184868218028,134.11172426081612
2025-12-12 18:08:51.400580,Right,68.33223656572227,83.1656474842166,106.1922664065205,80.56363481371955,110.6121069079818,83.3630964851036,76.99900821234041,94.65656212973408
2025-12-12 18:08:51.404599,Right,60.27768250874942,84.49368717557809,106.84931586970924,76.50186810562445,255.9382146398566,81.5977942780446,75.11251946988341,95.23894307922455
2025-12-12 18:08:51.409610,Right,76.38875159621239,127.80511952358938,145.3136204359762,107.35516418002953,27.89235240175185,112.37803494327818,111.98810411566228,136.58832692939905
2025-12-12 18:08:51.412626,Right,94.39193466425058,138.3437357644725,155.72562392923282,122.24067223156453,-158.8474330149329,124.5195595635887,123.98576275147207,144.44951407436747
2025-12-12 18:08:51.415608,Right,86.91308083305194,101.7916155524872,123.71902765473351,99.4357245900901,30.214410263062746,100.04490394060849,92.92004027993244,105.54911876402912
2025-12-12 18:08:51.420635,Right,69.85485392439296,87.67260745950625,109.7935468852229,83.45469331239292,225.9655642280195,85.22022062224278,77.42382940968673,89.55009427512414
2025-12-12 18:08:51.424650,Right,72.4004165524384,118.49965802866791,135.28475252893986,101.01143255816714,50.02531083118811,104.17969544188236,102.76777918964217,118.62734307991923
2025-12-12 18:08:51.428654,Right,84.22868207033025,129.28402396244928,144.16600406978978,112.72965283266967,-174.241786044724,115.98381109838374,114.81469825746899,128.19917047891067
2025-12-12 18:08:51.432678,Right,77.39686737107695,91.90877303641173,110.93951038012165,89.58053725746868,-26.70341047579859,93.77336486591958,83.41814378771232,90.97420503944159
2025-12-12 18:08:51.437685,Right,60.44481678896409,69.91001637841691,90.84901118773269,69.2672673103807,220.3543551526891,76.4512529009371,60.63937353360234,70.39209928590572
2025-12-12 18:08:51.440687,Right,62.47422967826424,99.98877826932585,117.03588296595262,85.91220711552887,108.21835394109075,95.64365415139764,83.86942375703075,102.0498096118099
2025-12-12 18:08:51.443697,Right,78.04240231754375,122.99424568391987,138.1018195465731,105.8495942701702,-152.53017463700962,115.85273594214232,106.1490661779244,126.16636226972332
2025-12-12 18:08:51.448715,Right,76.78018189416616,94.08776037034113,113.61770292225992,90.45521793345688,-77.82869676152768,100.40594254777534,84.32904527077335,98.3247989428346
2025-12-12 18:08:51.452745,Right,58.96320477119298,64.90375619477709,87.89910154917743,67.17348562060215,185.02214987114712,78.79604809184093,58.38694567572384,70.24234943039482
2025-12-12 18:08:51.456730,Right,53.320650906374794,84.47170414373977,104.62048970200703,75.96184908163559,138.3175727968337,89.5065879758622,73.72175334775238,90.23122803549631
2025-12-12 18:08:51.460769,Right,63.11032705186517,106.96955213081674,124.66498919940204,93.89689484477276,-128.0103338819099,107.444373577222,94.85050147314905,112.68064324953593
2025-12-12 18:08:51.464763,Right,62.12717518485442,80.18441477266606,101.92339266900672,80.2734319853771,-102.35476652133366,93.02951551633305,73.6907795129082,86.82084608505829
2025-12-12 18:08:51.468723,Right,46.73059282079339,47.29763484175783,73.27936498369672,56.30606260156492,186.83976008566242,69.59658346186916,43.24322254667641,56.12418120660004
2025-12-12 18:08:51.471778,Right,44.70001050099381,68.56979270433658,91.58653914506431,67.84478200129524,216.01546636367857,81.77844100139919,58.691221176690306,79.12713643288589
2025-12-12 18:08:51.476817,Right,62.7764591377927,107.37715743668377,125.20209766252083,98.77129326639988,-60.86813441821141,111.04073530965252,93.83190480331541,117.95989589198143
2025-12-12 18:08:51.480881,Right,70.95440606844204,94.4688614840561,112.95976669213269,97.26832617001492,-127.67152700293082,106.97133052561549,86.74887849697552,104.42002276671701
2025-12-12 18:08:51.484834,Right,55.32951669223257,53.65451062648208,75.18600640073419,68.84351374563994,132.7312283069914,78.86314898529963,52.27610502122843,63.901002366648754
2025-12-12 18:08:51.488834,Right,42.643855435511796,56.151799244311405,75.1835816417879,64.48599417658988,226.61097101377527,78.01462917681783,53.004314791513025,67.47245220199693
2025-12-12 18:08:51.492843,Right,50.75801635628159,88.95790661190404,102.8188705277571,86.30344434440485,-21.919856132437417,103.01184390790877,82.96845467401727,100.94921400677413
2025-12-12 18:08:51.496799,Right,57.43634610483423,82.53710827270697,96.73676007127506,86.37618096625374,-143.66629535606626,104.136100259464,80.84858078912657,94.38276557976496
2025-12-12 18:08:51.499803,Right,44.28372040086833,43.62740833024145,61.39769751240965,58.87393314111978,91.1639970633405,77.16541394915839,46.283207359258085,54.800436919147614
2025-12-12 18:08:51.503877,Right,31.464846794697223,42.510675475525204,58.26930490427185,51.12973683717428,238.94775149795896,70.15075639977294,40.352355981682194,52.54074516316177
2025-12-12 18:08:51.508891,Right,38.28798741741048,79.23698384940508,88.59511937006027,73.43759058816067,14.707226691105461,91.8239020054898,70.09569602225383,87.74635402395506
2025-12-12 18:08:51.512904,Right,45.325676125183236,81.36049717629794,89.31744221865665,78.35497036162997,-169.4116616918909,94.70672425087832,74.66815468575805,88.79643528113957
2025-12-12 18:08:51.516902,Right,31.020239465127815,39.50478873337852,51.59879950112372,50.12508089725452,28.14389740077604,65.2395569156215,40.158363069960615,47.0746129899635
2025-12-12 18:08:51.520888,Right,14.772511648508953,27.497456536759273,40.117164941490046,36.93342915854009,238.01369490416255,51.537481572071556,27.76331068572472,35.62013416955597
2025-12-12 18:08:51.523925,Right,23.63895322958706,66.99832983594388,74.40192711557029,63.00011527893366,66.7879129544599,74.50500282199937,60.29771079402417,74.39669067133218
2025-12-12 18:08:51.527947,Right,42.05719190144737,87.02431908117433,91.61445061661652,82.3936173569382,-170.49620199083438,87.3832171674876,78.01595549110789,92.21734024983016
2025-12-12 18:08:51.531898,Right,38.03269822927541,53.58555738278665,60.465237575175706,61.125110294422484,-40.30690946320101,60.83399221750733,47.38279208863969,56.764265279634856
2025-12-12 18:08:51.535950,Right,18.879781476192875,29.156752367300214,35.82177029651939,36.630333316730685,201.60045502190042,36.57401317554468,21.49631385761313,31.756272479251493
2025-12-12 18:08:51.540997,Right,15.559773822998977,54.27307359340193,55.32712079316843,46.813412492279895,93.90382178572327,50.56595557180117,41.28817822749261,57.37718634531484
2025-12-12 18:08:51.544980,Right,26.474835672444897,74.07202579553996,72.25889374030521,62.360064776352374,-164.12855577292794,68.66747090451827,62.22333280791645,78.22281038739311
2025-12-12 18:08:51.549003,Right,24.13630661739444,44.61675032075436,47.01206688080856,45.97931380539376,-86.4557105083586,52.22455819504103,40.62025583405921,50.38521379951271
2025-12-12 18:08:51.552001,Right,9.388993937434861,16.865251621391508,22.570855476689758,24.177347326287418,186.68164526313922,29.356406053193496,15.691126116857049,24.300986761503736
2025-12-12 18:08:51.556011,Right,9.822700394623098,40.095375756995054,42.075410589794046,36.121572910036775,147.416601742254,39.78306256164797,33.984218768324354,48.15686308594013
2025-12-12 18:08:51.559974,Right,25.465255373172113,66.79956679992029,64.5675553285837,56.788639143444016,-130.88929192315118,58.44297671595996,59.326591104923864,74.41760584797885
2025-12-12 18:08:51.564039,Right,26.032081370605738,40.171512352710124,39.952537294870126,41.64522710973688,-129.94038008378993,42.61835270340089,39.34784230704827,47.313404024229385
2025-12-12 18:08:51.569036,Right,7.046796523936791,1.9243271283485228,4.384372313055792,11.037999651103746,145.35733234049258,14.189811500604264,5.099770360466209,8.815579118556343
2025-12-12 18:08:51.573052,Right,-0.7446241482175537,16.52199274863233,15.258550554644899,14.413361617567716,178.03716202489886,20.51617020466074,15.241505916696042,22.57148421720194
2025-12-12 18:08:51.577069,Right,12.348185169044882,51.45159836906532,45.02467977187189,39.05048019978858,-91.95797802482411,45.65053968896973,47.1391750551993,55.86697992523841
2025-12-12 18:08:51.580129,Right,17.450108551842277,37.44739021638816,32.29507359635318,33.6988217355829,-155.722823451586,38.671710141716176,38.48177031958767,40.43591246646247
2025-12-12 18:08:51.584096,Right,1.2222534722168348,-2.942957016013679,-4.359454464996816,3.7789139109372627,110.41725961236807,7.570663319929736,2.569413782810443,-0.6177485181542579
2025-12-12 18:08:51.588112,Right,-8.63126465534151,2.5131803503027186,-1.421566989258281,1.4720983050065115,211.25129684444983,4.72341296185914,3.1673979895713273,3.939974924796843
2025-12-12 18:08:51.592063,Right,5.620582168732653,41.51778448172263,31.271163828700082,29.015642668906366,-42.75810313913098,30.790347282600123,36.05175601078372,40.88900897630083
2025-12-12 18:08:51.596135,Right,18.434794526292535,40.41348218001076,28.986987344702356,34.49784663776518,-181.8056500351231,34.679281688760966,37.497665755756316,37.59998699152493
2025-12-12 18:08:51.601135,Right,7.846762052242411,1.0816388849925715,-7.516333992374712,7.773110472713597,45.17931734301965,8.844468200346455,3.2455243844160577,-2.4931125976872863
2025-12-12 18:08:51.604165,Right,-4.675659193373576,-4.077826481443481,-14.564291505375877,-2.304758864484029,204.2588971700461,1.748130554697127,-4.817096196638886,-7.46269816676795
2025-12-12 18:08:51.608171,Right,4.580550890728773,31.3962465319928,14.662320160496165,19.637505430931924,-6.775816486588155,24.952882283672807,24.113706344738603,27.451523695184733
2025-12-12 18:08:51.612194,Right,17.373988738894695,36.78340734804806,18.411526486335788,27.665316653437912,-190.87795038964396,30.453370287679718,29.71265715289337,31.234732668439392
2025-12-12 18:08:51.616192,Right,8.70689659724303,-1.658399472857127,-16.1396433206246,2.5832280047179665,3.0678756486740895,1.20010041668138,-4.914666751457844,-8.548386601585662
2025-12-12 18:08:51.620196,Right,-5.564313782961108,-13.948287251550937,-27.652703054103767,-10.71304301561031,219.39569281393779,-15.394819750545139,-19.728725660592318,-20.859876547692693
2025-12-12 18:08:51.624228,Right,1.7937258837628178,22.430142676530522,4.4938855385407805,12.831049261789303,58.21040818352776,5.513513668403903,11.043706244621717,16.88072085719614
2025-12-12 18:08:51.629244,Right,18.118225305559463,39.45734110640478,20.53547316302138,30.485699437529547,-177.98774388892343,20.80149099160917,30.566097453520342,36.447578640450956
2025-12-12 18:08:51.632246,Right,13.887496295428718,5.108433244022308,-8.91699955981312,10.356525128736394,-51.05885207747633,-0.019559901935281232,4.528881990663649,5.4217094612977235
2025-12-12 18:08:51.635263,Right,-3.0273980000420124,-16.997715919846087,-28.445089037064463,-9.760992405397701,193.55800114530575,-19.088417098617356,-16.28901822239277,-13.813402628380572
2025-12-12 18:08:51.640262,Right,-3.0099438156175893,13.341518928471487,-1.725146379423677,6.780008580382855,88.195117500989,-2.5909613268231624,7.895980539629818,17.497842103693984
2025-12-12 18:08:51.644279,Right,9.512575060405652,37.50746449214057,20.2802795628304,26.977901610654953,-179.54051221074042,14.99742148508085,31.058574409566063,40.68179508497997
2025-12-12 18:08:51.648299,Right,4.782042240542069,7.34008803726465,-5.720600684137025,9.793465870454384,-115.44387383641879,-4.908199129786226,7.235328528418904,8.825480936808162
2025-12-12 18:08:51.652300,Right,-14.726345659015351,-24.2298842043092,-34.06075702238013,-16.513328215754882,158.55874814120034,-31.861573109577876,-22.97075862866768,-24.425112453405745
2025-12-12 18:08:51.657339,Right,-16.360555830979138,-0.8599752928566886,-14.60843368357746,-6.117460576402664,133.42887973516918,-21.767165389595903,-7.317351089121075,-3.2074118504533544
2025-12-12 18:08:51.660323,Right,2.691705990167975,32.434319179657905,13.815267691708868,19.01930456834816,-134.96951686707325,1.354468001773057,20.615112060288084,27.11205446508393
2025-12-12 18:08:51.663329,Right,9.280060260927712,13.411119062002399,-3.994917877978878,10.146488699800102,-133.52164606002043,-9.301821374749125,4.445657044161635,5.110586027891259
2025-12-12 18:08:51.668285,Right,-5.768291293476068,-21.634703313706268,-36.61271909188508,-17.379119326738873,142.62231846358918,-35.6423268133949,-29.04104168456979,-31.738201547304925
2025-12-12 18:08:51.672372,Right,-12.932105505860818,-7.1497474239440635,-25.58837127091101,-13.846394291285833,177.66560659399693,-29.618731699425553,-20.299220049011637,-17.838015298679238
2025-12-12 18:08:51.676383,Right,-0.15366939490195364,28.46416522753134,4.883392701143748,11.156942158631864,-99.25036178939627,-4.468862492482003,11.0668902767502,17.36549875162018
2025-12-12 18:08:51.680435,Right,5.8446719924941135,16.654532958898926,-6.112981187121477,7.141954049009655,-179.73406873194472,-10.414685567087872,3.08239562385279,4.754426490420883
2025-12-12 18:08:51.684404,Right,-9.027444144878245,-22.93145714165439,-42.088789061857824,-22.50530261478707,74.69965914253044,-40.72579696180401,-32.81383376142185,-35.45960867886606
2025-12-12 18:08:51.688443,Right,-20.10181613385066,-20.561853400649852,-41.084728234236536,-27.508839684043778,176.76402232014516,-44.32494920254612,-34.11550676284969,-32.82825718032109
2025-12-12 18:08:51.691437,Right,-11.47646061053456,11.69804648495483,-12.785786282027402,-5.503691508318298,-71.06895516741133,-21.107580958319886,-4.923790029537486,0.6941062023834093
2025-12-12 18:08:51.696365,Right,-6.209511542976543,3.1749938190478133,-20.09493622388618,-5.929167580245121,-204.9815578580492,-21.164154722559033,-7.57770814691321,-6.011563503241632
2025-12-12 18:08:51.700504,Right,-21.5691304227621,-40.34544371404627,-59.43148279973684,-35.70828690255439,31.165396058702754,-49.63317196469143,-44.065517432169145,-48.09669734934869
2025-12-12 18:08:51.704507,Right,-34.00990333176378,-44.3837011220603,-65.04715556689916,-44.501564256970596,203.54414607856233,-56.26848315309326,-50.433320341715444,-52.00205997777812
2025-12-12 18:08:51.708501,Right,-21.103560668445425,-3.50850618093682,-30.38453120099075,-17.991606986957777,-3.2448004772413697,-29.396713854101108,-15.496003015432507,-12.105508145636122
2025-12-12 18:08:51.712518,Right,-3.5829160495995893,7.844126773823518,-20.23749260513432,-5.115005372623273,-199.31526913896596,-18.310741772544134,-2.2328647904796526,-1.4626478205173044
2025-12-12 18:08:51.716494,Right,-9.415500737926777,-28.43776826553949,-51.69263092373876,-28.696133200526674,-20.417534131956927,-42.808218062548804,-32.411860827123746,-37.241398499194474
2025-12-12 18:08:51.719544,Right,-24.95618379912412,-43.58488039897202,-65.17007098932572,-45.219994727107405,192.95644150078078,-58.32865962739925,-48.89427742071712,-51.46658310906423
2025-12-12 18:08:51.723505,Right,-21.499619340353092,-11.269829017153825,-37.008897350949155,-26.6314339328419,36.921232083150244,-39.79828172006091,-23.321331264472974,-19.22632311518828
2025-12-12 18:08:51.728460,Right,-7.162666370626539,5.215613027776271,-22.42520175302934,-11.00422783711474,-198.14000872336328,-26.84553091945952,-7.156619223587768,-3.747326609929587
2025-12-12 18:08:51.732528,Right,-8.88749194585398,-25.926365230363444,-50.0318195918926,-28.86283691402423,-72.87453846864446,-47.029525029845786,-32.35568010326642,-35.402632729041215
2025-12-12 18:08:51.736525,Right,-20.598799735123976,-44.48116685424611,-67.28969969121397,-44.865256178927666,175.30624164654728,-62.47913715585128,-49.77263373848473,-53.234732361259375
2025-12-12 18:08:51.740553,Right,-16.17826441472971,-12.722376964484283,-40.269671400954394,-25.275494996181806,75.09857508615823,-41.409603856845024,-22.213565259444294,-20.142969958083995
2025-12-12 18:08:51.744582,Right,-1.8338338126704912,10.7332976062753,-19.99078809429102,-4.041847614082144,-194.3658909375372,-20.375253069462815,2.6203090967937896,4.399395630014624
2025-12-12 18:08:51.747561,Right,-6.634270754733734,-21.265121134165383,-48.63187481928344,-21.510927567929684,-134.39633480261182,-38.34880588278975,-21.64542354135483,-27.33143701131121
2025-12-12 18:08:51.752558,Right,-26.99327059197276,-55.10719208196679,-79.52715760333558,-48.878538119512996,143.79174041301303,-64.11624019407827,-53.887709575428744,-62.32120148645299
2025-12-12 18:08:51.756589,Right,-29.743160009460553,-33.35002007231742,-61.10501325374753,-39.683901038388285,127.99533089652869,-52.92365178658656,-40.26212256615872,-43.27355798691133
2025-12-12 18:08:51.760550,Right,-10.766137821035954,1.0372448324778816,-30.180770579016098,-13.90391628888392,-140.2731763131378,-27.913264981229077,-11.684830144806256,-12.137559243026772
2025-12-12 18:08:51.764611,Right,-1.8885156792421185,-13.992182511219653,-42.25561744960396,-19.401795158243203,-150.42942949997814,-35.61999168677539,-23.7239768764739,-29.28656058461638
2025-12-12 18:08:51.768618,Right,-13.450253818635247,-45.17041821894236,-69.38601718369864,-43.28744785877808,116.47745413293524,-59.32070873758494,-52.3720184414226,-60.529526359760894
2025-12-12 18:08:51.772644,Right,-18.58103924439183,-29.53676256648214,-55.6556676621658,-38.399872038977946,153.4748507588738,-51.95471324458413,-40.739574552482736,-43.403475128059654
2025-12-12 18:08:51.775649,Right,-6.054716854878279,5.060697234539475,-24.276417585497256,-13.595744025674776,-117.08589872358607,-25.75923389874879,-7.786025913910748,-6.786190341890233
2025-12-12 18:08:51.779680,Right,-1.3031497221113568,-8.18937914286289,-34.338124502475694,-17.427169018641507,-192.39594636106267,-29.97599865930897,-14.048820820213223,-17.99778597324439
2025-12-12 18:08:51.784617,Right,-17.31408924934567,-48.766591085662185,-69.21266333806489,-46.40239611262041,71.31688443959865,-58.781357113181,-48.75439070559423,-56.887376413396964
2025-12-12 18:08:51.788683,Right,-28.547935120976263,-45.458649368732495,-66.53963240536541,-50.18152766048479,187.51287827312626,-61.5748243751259,-49.61504823509222,-53.0769423158747
2025-12-12 18:08:51.792627,Right,-17.217241474776188,-7.755902829518618,-33.641033403600886,-24.09664544533007,-54.37729542782381,-35.94772450677556,-17.901383053256723,-16.449542152813592
2025-12-12 18:08:51.796728,Right,-6.240269188807787,-7.385129181597222,-33.131658390382654,-17.035005689451282,-198.66836506118761,-30.707373415028997,-14.593025694953212,-17.566243847541045
2025-12-12 18:08:51.799719,Right,-17.07449356726829,-44.791218696785336,-65.86659039941878,-40.45175528736763,22.9033141128466,-54.40758396874298,-45.66558490136504,-55.01679347565732
2025-12-12 18:08:51.803730,Right,-29.986951769312327,-49.12297054645069,-69.33455825817873,-47.86595748522086,190.49610724776176,-60.16024499455307,-50.81628561495563,-57.36588681443027
2025-12-12 18:08:51.807745,Right,-21.162947041685584,-11.739291183085697,-34.97484630095278,-23.189067451916344,-16.140371785879324,-35.14105836770614,-17.20412986246629,-16.930171803192934
2025-12-12 18:08:51.811747,Right,-7.718464001437951,-3.36857533327111,-25.255549553818128,-12.254879786414676,-216.45974711207737,-26.324207081688655,-5.137701969877526,-5.565324942361258
2025-12-12 18:08:51.816754,Right,-15.704534050828443,-41.6672658405314,-57.351783715799684,-37.10204226144924,-40.63415441990719,-52.18268770798386,-36.00345772312903,-41.72002696923846
2025-12-12 18:08:51.820764,Right,-31.045981728903826,-57.40570085064974,-70.97257319706114,-53.65384093861576,178.49120111065167,-66.11560767313495,-52.1183011717676,-57.03241055280159
2025-12-12 18:08:51.824782,Right,-25.742361443727532,-23.291305718374133,-40.844937732115795,-32.98102312807896,29.604430987868454,-42.01214138685464,-24.216418586031068,-24.52955357859355
2025-12-12 18:08:51.827791,Right,-9.915753299383141,-4.11330138127596,-22.975738750814344,-14.233233043141809,-206.12926856300237,-22.530842513311654,-5.15958871071598,-7.698726800745135
2025-12-12 18:08:51.831791,Right,-12.219791095927576,-34.72087504494448,-48.660014503548155,-30.700293776873878,-82.07536022851014,-39.93123128746083,-29.756948048869162,-39.385965565736115
2025-12-12 18:08:51.835809,Right,-25.906783178325895,-54.89931700597117,-65.6671592815037,-47.99918093226006,175.57678052459374,-57.200111076839676,-49.1757280439997,-59.08276189868411
2025-12-12 18:08:51.839827,Right,-21.85112486199978,-23.154967698912515,-36.98931618274946,-29.89303174762972,88.80283962929127,-38.57780486424599,-23.197039099453832,-27.031234840502293
2025-12-12 18:08:51.843839,Right,-3.902405742708652,4.070920882120845,-11.863755316189781,-7.802381889294338,-178.50758270816482,-16.97738332371955,2.7491729182656854,-1.0010779832518892
2025-12-12 18:08:51.848847,Right,-2.518022598929747,-23.088704592140857,-35.145161853062746,-23.023235411288624,-126.51566716824073,-32.35501786045643,-18.9400549136044,-30.35105776385899
2025-12-12 18:08:51.851854,Right,-18.10929414111706,-54.51960500000132,-63.53228286442027,-49.07227802110356,146.55150503947016,-56.55983859681146,-49.11347110850329,-63.87056160483917
2025-12-12 18:08:51.855815,Right,-20.24468706882726,-33.08234362897929,-45.64179339801922,-39.943061069294345,129.34937841484543,-45.556440295076754,-33.96344936278547,-43.803505452688114
2025-12-12 18:08:51.859818,Right,-4.799891562426637,-1.096038674506417,-17.291247595916502,-15.253723674431967,-145.31225065318267,-21.527364899106033,-4.387126524812629,-11.807352776992047
2025-12-12 18:08:51.863884,Right,-1.987624066796343,-21.191865995668195,-34.05508336558705,-23.413754581823014,-162.78717963370218,-31.148579408116348,-17.439426891833136,-29.919960499046283
2025-12-12 18:08:51.867849,Right,-19.86068692226945,-59.35907664016486,-67.17680491729698,-51.55598084648591,109.13637572381049,-58.30492049189343,-49.745382722663635,-64.85572529653291
2025-12-12 18:08:51.871911,Right,-28.651293184329916,-48.465247686999646,-57.100388256731094,-50.007148005155614,160.18441542894197,-54.29181327738479,-41.824227754146705,-51.29896815237589
2025-12-12 18:08:51.876911,Right,-15.215794544239543,-12.934252602015476,-24.006844089512015,-24.74043777152474,-106.41797906084958,-28.595221166993724,-9.490660605846642,-14.407405105903308
2025-12-12 18:08:51.879881,Right,-6.505227061055848,-21.89681881618526,-29.100764756047283,-25.112591544497263,-192.2337886066207,-30.815190108609386,-13.88386529442505,-22.22976038104389
2025-12-12 18:08:51.883943,Right,-18.555811568216086,-58.96591252170401,-59.65884546985035,-50.34714600132793,63.66372098764532,-57.508155833085766,-46.36671563642085,-57.620771640089515
2025-12-12 18:08:51.887975,Right,-26.507421321204674,-52.665616065376526,-53.25344134626357,-50.4304578516676,183.59865135261862,-58.178961829245964,-44.06314738967558,-50.05365076158705
2025-12-12 18:08:51.891976,Right,-11.822615012792085,-10.831122385243361,-15.76020172850258,-20.362473960223724,-54.67606750386585,-29.748598841579224,-7.6701778406823,-8.407229324460786
2025-12-12 18:08:51.895980,Right,1.9091214709224005,-7.259878817261779,-11.80336128766794,-11.181012129578448,-202.78801925206062,-22.82718776476395,-1.1498352296257508,-5.873290586070652
2025-12-12 18:08:51.899946,Right,-8.348229489140067,-45.602207225532766,-45.355968131290865,-36.627529520155804,17.863137557535083,-48.002371298513026,-33.62715900662806,-44.52496546666225
2025-12-12 18:08:51.905021,Right,-23.303811828187463,-54.442502979392884,-53.369885114872886,-49.138860118197044,194.21024132053572,-57.26948283720412,-43.785365603769606,-52.27273689177673
2025-12-12 18:08:51.907974,Right,-17.75053181037947,-21.235171007218014,-23.44166836715158,-28.89913917832746,-5.1182202485179005,-34.39188679718063,-14.785241166384367,-17.31735106636188
2025-12-12 18:08:51.910980,Right,-6.686655694138608,-13.790517762041418,-15.075470244591997,-18.90236254355841,-209.74824981687743,-24.21780730591854,-4.077732068664773,-8.397274229799223
2025-12-12 18:08:51.916028,Right,-15.208860462051234,-50.04209740864462,-45.525187341503624,-41.3442534816495,-41.84836973437632,-46.6191364949118,-33.25967570285138,-43.817451735492796
2025-12-12 18:08:51.920065,Right,-29.877045131561317,-62.26865128053032,-55.86175601789728,-54.09371088804619,176.59504877043582,-57.94646054580517,-46.33866930744625,-56.314256822333846
2025-12-12 18:08:51.924080,Right,-23.52488702955452,-24.144332892850798,-21.84750595146761,-29.927089787139266,29.10320421732831,-33.01574592284305,-15.347800846335304,-20.022697323620378
2025-12-12 18:08:51.928083,Right,-6.768652621005458,-2.2487921029387508,-1.4381464016987593,-9.57992656649003,-212.1326047217608,-13.813666023947007,5.208134563868953,-0.8075706480740337
2025-12-12 18:08:51.933112,Right,-9.243953649904142,-34.296929883770645,-28.856290002753667,-28.097473893969436,-93.82921282023926,-32.937578762779594,-21.905813911089353,-34.72699802212446
2025-12-12 18:08:51.936101,Right,-24.741873877977923,-59.83907605708373,-51.61208700534917,-50.38907668655156,168.78209694875295,-53.32029050777055,-47.53472519962088,-60.552787055079534
2025-12-12 18:08:51.939080,Right,-22.861155827082257,-32.56468300324195,-27.82947340409737,-36.093305431662884,91.12296854119995,-36.6999602515134,-26.75710874989818,-32.667101644059585
2025-12-12 18:08:51.944118,Right,-6.294030922454112,-5.506332476019452,-3.0977756399661303,-13.776890588000242,-177.22772069748135,-14.135961821135425,-1.3740894805232529,-4.888761765745585
2025-12-12 18:08:51.948120,Right,-6.138310239253769,-30.328542748800828,-23.653263111984415,-26.18738647337159,-134.12060780859792,-26.964139536445145,-20.399818627243803,-28.825239228041028
2025-12-12 18:08:51.952150,Right,-23.642138030034403,-60.145140452128544,-49.39769977702963,-49.74029408973729,135.6143994434733,-49.1543405737757,-47.96203273840365,-57.43373857666302
2025-12-12 18:08:51.956159,Right,-27.803330339385866,-38.49570763538941,-30.355196436532424,-39.621064635779476,120.91777321278096,-37.13693845051603,-31.598320399138174,-34.64543794725614
2025-12-12 18:08:51.960115,Right,-12.908035071322956,-6.337645944448013,-1.7825378039269708,-14.829687605924846,-157.4067327542616,-12.549624838029558,-1.6341484600307012,-1.6552779083067435
2025-12-12 18:08:51.964161,Right,-8.71677484914835,-25.887691733485553,-18.74692953962949,-23.151106359910045,-185.7322267190175,-21.88863424459123,-14.792550117985229,-20.147818090459623
2025-12-12 18:08:51.967199,Right,-25.37487745098406,-64.43280927250453,-53.05291743043199,-52.00153521577886,81.41950858946075,-49.198216602919274,-48.19263144850993,-56.936277717257326
2025-12-12 18:08:51.971153,Right,-35.57302486144545,-55.326407872395066,-45.31826314893988,-51.86020584637299,138.95476555351706,-45.50238942181022,-42.02794200338758,-45.95748915481818
2025-12-12 18:08:51.976217,Right,-25.793440553778055,-21.50281171187089,-14.562450678437017,-28.04084669855365,-119.58069271253044,-19.69749300587864,-10.657162045354198,-11.161882960244839
2025-12-12 18:08:51.980278,Right,-19.93068965693601,-30.2788754668436,-20.44277177969343,-28.92946061114344,-201.69467164708112,-20.876767268957337,-14.109549214856088,-20.06312796635757
2025-12-12 18:08:51.984192,Right,-31.947606175883266,-65.08978203260631,-49.769298100720334,-53.53119978165341,57.84812163483366,-45.5982992359277,-44.11063001823641,-55.61367704640725
2025-12-12 18:08:51.988265,Right,-38.33974448548179,-56.31550255309412,-41.42628450739721,-53.04484233134281,181.00156724326007,-44.469618718809215,-39.675446050430764,-48.00031216299976
2025-12-12 18:08:51.991275,Right,-23.132261271206517,-13.959231485874625,-3.2845444685735856,-23.92421467614622,-62.59284766104611,-15.845321697554027,-3.4861037253867835,-7.228086055067251
2025-12-12 18:08:51.995286,Right,-10.210087990115426,-11.937353814035305,-0.3941669383275439,-16.80609070679202,-223.46296750891634,-10.204134741739836,0.5151269577945641,-6.661431385989999
2025-12-12 18:08:51.999279,Right,-20.415148984928237,-51.282954505237285,-34.62415980150399,-42.871153359737946,-9.131224384447705,-35.97666195049533,-34.239713025777746,-46.71154145465698
2025-12-12 18:08:52.004316,Right,-32.42532765454234,-57.486188517657865,-40.31915473698609,-52.153209229050844,173.53385749760128,-42.8662235931406,-43.477833405617275,-53.22238590653433
2025-12-12 18:08:52.008316,Right,-21.17093540076894,-17.814828049275093,-4.963881815936475,-25.131985726613493,-17.75398779679381,-14.686618198713404,-10.037411300971144,-14.392537546729727
2025-12-12 18:08:52.012261,Right,-3.8533853376029583,-3.7424471650156192,8.89662752966251,-8.082944554887945,-220.84577802027707,0.5109454023477156,5.3530640470235085,-1.8380619547169772
2025-12-12 18:08:52.016325,Right,-8.499649229906936,-37.39793881501828,-19.419754306763934,-26.98182822200033,-48.567438276975736,-20.785750373859628,-22.700076664470544,-36.71114853018662
2025-12-12 18:08:52.019338,Right,-22.667250987055013,-50.6988140918329,-30.67375275012455,-39.996997051654034,185.40469654435947,-34.35974550157334,-37.53212632034774,-50.20732713540929
2025-12-12 18:08:52.023337,Right,-17.016801550598757,-12.965266094659455,2.9503424053073104,-16.492722588060133,52.277855142943736,-10.705159706718405,-6.809650330222212,-12.318472210310574
2025-12-12 18:08:52.027340,Right,0.2559791070307256,11.288261941961537,25.186580200672324,5.189626174134901,-191.0728915589716,10.280057285730436,16.591460411564185,11.4087604994711
2025-12-12 18:08:52.032367,Right,-0.6435385847325961,-17.664065690602,0.26977975954287103,-10.84250540028006,-84.71529207732237,-6.252731675813266,-7.196407799830922,-18.68838023126591
2025-12-12 18:08:52.036321,Right,-15.43147578760545,-41.606001740430656,-20.98626890176456,-31.387714745273115,173.30004016249586,-26.240474028742028,-31.621016339457128,-43.658995627796685
2025-12-12 18:08:52.040375,Right,-14.719588808045955,-14.528020906102029,2.9201776867157605,-17.056581581513456,100.74244137884307,-12.241338219697354,-11.95656525252707,-17.083029011679173
2025-12-12 18:08:52.044405,Right,0.5296295840234961,11.823614134693344,27.09287925063836,4.374321626008168,-162.04134364146375,6.550741825834848,11.701723634076188,9.463104775335523
2025-12-12 18:08:52.047360,Right,2.0707580997550394,-12.36013132964581,6.624326472527173,-7.902814788823889,-114.4857027540711,-8.229520437656902,-7.538527768923814,-13.761987587058684
2025-12-12 18:08:52.051409,Right,-10.834376633894863,-39.09888183627481,-17.321882043521327,-29.32457257169517,163.05004087145062,-29.196391576424503,-32.913849897271575,-39.36359153762896
2025-12-12 18:08:52.055437,Right,-9.237954937620088,-12.239273377461359,5.3942172717324866,-15.755133827755344,155.0494941554607,-13.620186432552146,-12.55789361529969,-12.30062317372358
2025-12-12 18:08:52.060489,Right,10.291554976360203,25.300407552407705,38.23778972441505,12.441045009203663,-125.95772525796929,14.982365176336316,21.515666407540266,24.232186992332572
2025-12-12 18:08:52.064483,Right,16.718924417298695,8.661081774400373,23.895801912967727,6.405594433115766,-160.69667712361843,7.900473036625044,10.491628684834723,6.597359896681155
2025-12-12 18:08:52.068451,Right,0.2994642420526361,-29.523732660098176,-9.883277415610792,-20.87268365442287,109.39420603828694,-19.700439412721607,-22.875878331160493,-31.27276159189205
2025-12-12 18:08:52.072488,Right,-9.48985002774134,-19.273145927079895,-1.264217819152691,-17.830267023549823,175.4857553027723,-16.44261589668895,-15.906053629663802,-19.62611992011807
2025-12-12 18:08:52.075500,Right,2.369417110872746,18.31078478686686,32.15210023216059,11.068548572056898,-86.65563078478954,11.557927996484068,18.942544044220995,19.269391629612073
2025-12-12 18:08:52.079450,Right,10.534735103690764,12.71828758866468,28.02911787265475,14.855081540885294,-186.17869924155093,14.029822372773197,18.8848252366588,14.35992205626826
2025-12-12 18:08:52.083509,Right,-1.3040377831821388,-23.13223784371803,-3.3819823537960474,-8.493821974956518,62.49546107956485,-8.960660077362263,-11.713173162290332,-21.370642274876445
2025-12-12 18:08:52.087547,Right,-9.315360901357053,-17.961214994102193,0.7467877348899492,-9.435718568900484,192.6527689441973,-8.471284633327741,-11.168176453553315,-16.915310765332833
2025-12-12 18:08:52.092536,Right,5.313860628284601,23.04664994943596,36.8854143372555,19.01276932331166,-39.820499818273674,19.811416900976837,22.307175462628948,22.12617676544687
2025-12-12 18:08:52.096557,Right,20.601189382272423,27.536668311589892,41.25290172630412,27.79224802697354,-200.45061621339482,26.96994375383838,27.172399826911715,23.733197858389758
2025-12-12 18:08:52.100575,Right,14.189445304858964,-8.682540207537386,8.978691567001079,3.60059754546819,7.352773647373397,3.049970570325968,-5.421037776039157,-15.420806002097379
2025-12-12 18:08:52.103591,Right,3.83166503252869,-14.609250144727412,2.403741566486133,-6.720542245384422,185.52085296615041,-3.9531858905102126,-14.902476956802275,-23.932932323310524
2025-12-12 18:08:52.107535,Right,12.617322290476295,21.92559328704374,33.47126916340858,15.53284944758343,-11.139272660089773,21.677783218929108,14.730363877610216,10.389578919021005
2025-12-12 18:08:52.111601,Right,24.630288607520924,30.826783677403,41.11170160730762,25.948657134344103,-224.10520476569582,33.09948762629028,24.40966930862487,18.07402440335136
2025-12-12 18:08:52.115601,Right,14.551011269384617,-8.70394798770576,6.291704921386554,1.0734067581943236,-58.73577752114579,7.811252291046912,-9.117948611714382,-20.77936683536609
2025-12-12 18:08:52.119642,Right,-3.8741699579477427,-27.799291407682176,-10.856787193271884,-16.177374710063305,177.10437242396438,-10.17589577749186,-28.358577491093456,-37.5723807521681
2025-12-12 18:08:52.124675,Right,-1.9033381415174517,4.680456842714193,17.61709179360696,4.118749643115734,46.37662831655689,8.299375180136849,-1.0353463269566419,-2.3196306796817225
2025-12-12 18:08:52.128648,Right,11.782964916834317,24.579910925316653,35.46706254202945,22.71935635295813,-202.51673098452375,24.55731527928492,20.376736489652103,20.585323503557447
2025-12-12 18:08:52.131686,Right,8.309511084979022,-7.27566695630594,7.36037268909422,4.113692778890254,-102.63231406029809,6.256861461626613,-3.1797891335554596,-7.595604896072473
2025-12-12 18:08:52.135701,Right,-6.904108580547472,-31.786411563636648,-15.189027850110506,-17.195011227773648,157.66526891152535,-10.880885911187761,-24.999722098746133,-28.70522884507227
2025-12-12 18:08:52.139715,Right,-4.375671032539685,-2.1593367853602103,9.981603836600698,-0.7340910536222509,88.66044859226531,10.083286072700048,-0.9676185425923904,2.0015673257985327
2025-12-12 18:08:52.143697,Right,13.486713231974136,28.342382366303355,36.9517691826386,24.67110325469548,-183.49215160744643,36.71626411093348,26.89451241702045,30.769191031507944
2025-12-12 18:08:52.147731,Right,14.982078274802916,4.772193265715032,16.49584441643674,13.740429318764654,-153.12619339332196,24.92473895727244,7.648539780340798,4.481420019019424
2025-12-12 18:08:52.152739,Right,-3.3950920962524833,-28.27641510286776,-13.526535096529187,-12.448931534034273,118.790480401065,-1.2800841149760345,-24.137268831971596,-30.411389036140463
2025-12-12 18:08:52.155739,Right,-10.489088954713225,-10.483990138392983,0.37136432901752414,-6.6614761791606725,119.76143526536907,4.804033622524116,-12.473093569395132,-13.513200090135797
2025-12-12 18:08:52.159766,Right,2.5910701823777345,22.212308832778945,27.9758931137967,17.00122214980547,-153.98087674954695,26.843424935013843,16.893216123935417,18.683177338243695
2025-12-12 18:08:52.163756,Right,7.618780299668288,6.544263286716159,13.858599590699669,11.587221618836338,-190.47509565736982,18.708273718711553,6.6226397722766706,3.246735221513518
2025-12-12 18:08:52.167766,Right,-6.725522157048545,-28.188886603125866,-16.751270097522138,-12.89164154574246,78.23263145265992,-6.775627404145553,-23.522005665148754,-30.15642486213619
2025-12-12 18:08:52.173786,Right,-13.761782791938458,-14.756828932069766,-4.5045400986600725,-7.945475558279213,147.67981746619262,-0.7775739207145307,-13.724507001385064,-14.97142388949942
2025-12-12 18:08:52.176801,Right,0.05081433831946924,24.948896992784285,31.607237851290847,21.06987338277031,-114.01726717541351,29.42893283621879,22.390653139405913,26.021065680208267
2025-12-12 18:08:52.180824,Right,8.557576702645747,19.250417111026763,27.44038771157284,22.97556539796824,-216.8746473348856,32.40397994728255,21.170570343818326,20.887455085496185
2025-12-12 18:08:52.183809,Right,-4.915962086481159,-19.602604661500663,-7.488664728043659,-3.990446163035813,35.81636547897324,7.709285817545606,-12.816857283318313,-18.17139780672005
2025-12-12 18:08:52.186835,Right,-14.947517279535532,-17.575389799912955,-7.367809376371952,-7.9002141570235835,179.45388419297342,6.328303942450475,-14.763326592848898,-17.36768254663548
2025-12-12 18:08:52.191838,Right,-0.7763914367787947,23.151203593661194,27.61091787710029,20.514549848256138,-43.32949863731301,34.75928334902619,19.75260227388935,21.209017908371607
2025-12-12 18:08:52.195838,Right,14.477530651725829,28.232201126644213,32.21776011694601,30.47821713792291,-203.0093482372995,42.512408824454724,26.88466495776629,24.233783282699733
2025-12-12 18:08:52.199861,Right,5.757897429448349,-10.309220004954113,-1.7742110312010482,5.397512407454997,10.001773433517883,16.553623688112566,-5.927314358497824,-14.95882334720227
2025-12-12 18:08:52.203866,Right,-9.162830633984413,-20.641177522607904,-11.397368008389094,-7.537647872530215,204.07560974426997,5.313951034188904,-17.23769536954569,-24.251426712231478
2025-12-12 18:08:52.207868,Right,-4.303826694038435,13.491953563079733,18.613040568270662,13.551359587185289,19.268714770823863,27.891814115519082,12.789099865913158,11.784487082377382
2025-12-12 18:08:52.211896,Right,6.798041170488432,23.39241219673204,27.96728266752507,25.334471897849653,-198.76722030416568,39.26329254378106,25.930492701876574,23.629415991414135
2025-12-12 18:08:52.214901,Right,-1.6232689895368821,-14.263795894094073,-4.903076736645744,1.882953222209835,-44.930973812903176,15.604693534443868,-4.403459956942243,-12.506174049620313
2025-12-12 18:08:52.219930,Right,-17.79118043611743,-32.41128936859968,-21.40453062096094,-15.963747158657497,189.3698829254372,-0.672064563146705,-23.29063911182675,-30.139483339971775
2025-12-12 18:08:52.223925,Right,-13.45370838234885,1.8927029453880095,8.33607687816766,3.444687722888375,63.62596623406898,19.93351735528995,3.1771417488107545,3.3271076933506265
2025-12-12 18:08:52.227922,Right,3.0265037623285025,25.37139967953044,29.095439001101113,22.87313784032358,-187.03721340628545,38.154243112954646,24.256163357917103,25.400151419178655
2025-12-12 18:08:52.231892,Right,0.7500835174178064,-5.286534326431138,1.8344237142446218,4.265375350292743,-92.18672768167562,17.700436065873873,-1.6763725332930335,-5.708880476691775
2025-12-12 18:08:52.235955,Right,-17.304524563616724,-34.39889552777095,-25.069990547559428,-21.1992154550162,174.0659304249457,-7.892193560308442,-30.150814447873927,-33.74476665722614
2025-12-12 18:08:52.239953,Right,-19.516014391268982,-11.12045253942415,-5.899623841236462,-10.628273026972238,119.9445484762864,3.1753272469723015,-12.958363002355327,-8.864882907888386
2025-12-12 18:08:52.242989,Right,-2.703313804559002,18.382958670426888,19.801637906004544,13.064629963244442,-144.29485965943513,25.87355448522794,14.358511361298952,21.699247941867725
2025-12-12 18:08:52.246997,Right,4.175250161606527,0.7898608125142346,4.654670128480575,7.051692562202334,-116.62416563601164,18.319106580936932,2.0770471515479585,4.7062848231398675
2025-12-12 18:08:52.251990,Right,-5.446077680631788,-23.60300593680222,-16.86513565682526,-10.345242005127147,151.81910436966564,0.915282394094902,-19.57006883352915,-19.122504275977917
2025-12-12 18:08:52.255957,Right,-6.0675923119652,0.6383702526964043,4.172974338304812,3.463673458420544,149.82161043700853,15.342166800955965,0.5403624712416786,5.610347659643594
2025-12-12 18:08:52.260017,Right,7.726487529427686,34.715056789098526,34.183168928369014,30.61368782786576,-134.29533138629222,41.44133604426497,33.600958508468466,40.251247984977454
2025-12-12 18:08:52.264052,Right,8.131277983913606,14.411866740862024,16.0632156543561,22.416043239141345,-184.3417124899297,31.158971187596762,20.660758599071414,21.111764110615695
2025-12-12 18:08:52.267032,Right,-12.87824123336759,-28.664312086031714,-23.23450833773768,-9.358234581462057,83.58421157084786,-1.3965680812689243,-17.349971615994946,-20.591650661195672
2025-12-12 18:08:52.271067,Right,-24.719643313264896,-22.063613631131375,-19.194872006562946,-11.487776951504657,167.70399711422579,-3.480549420683019,-16.245443455502027,-13.98847105997811
2025-12-12 18:08:52.275090,Right,-11.546544996830562,16.05975610319547,13.749555673846771,14.549396153817725,-79.65145414842823,21.000733661649065,14.637254468240826,22.113504202516197
2025-12-12 18:08:52.280072,Right,0.25109520436853927,13.118295851603762,11.684316040579688,17.56181953425562,-179.6548804400544,21.383764954296566,12.541339469019476,16.680770162863155
2025-12-12 18:08:52.284024,Right,-9.388238149491372,-23.240295315674302,-19.976318876121695,-8.020604595641089,70.10623260630688,-4.7602937821357045,-21.134211769572175,-20.816323838937024
2025-12-12 18:08:52.288104,Right,-19.650175930468322,-22.679537494201213,-19.52921570018043,-13.925986688354328,212.09184930365348,-8.853640716175505,-25.18785402858157,-20.057195294781195
2025-12-12 18:08:52.292117,Right,-10.069717956377644,14.522027804920072,13.974877164149802,10.748104485009435,-16.579686111369256,16.814972710215443,6.258296462551698,17.861400795171903
2025-12-12 18:08:52.295062,Right,0.7469825327316357,18.62020550210582,19.541162643045027,20.061051115955536,-192.003478386795,25.086670088840037,13.770527606483483,23.446664216257886
2025-12-12 18:08:52.299100,Right,-9.366161915109842,-17.83549437799229,-10.583151057246141,-1.804209474606978,5.359931887768653,2.518654783285456,-15.265969424517607,-10.37730828172107
2025-12-12 18:08:52.303129,Right,-23.248316717063062,-25.050161102040875,-15.926990921932884,-10.73822360671511,196.18870911047634,-5.584465462208755,-22.90416743161768,-15.203041744408893
2025-12-12 18:08:52.307232,Right,-15.359175926954777,13.401883163232924,18.232205951354445,13.701663563487728,15.725586319867944,19.511741515245376,9.898366720944978,23.299461153671018
2025-12-12 18:08:52.312183,Right,0.44532108864768816,28.706454090786792,31.483777834242574,28.18375285365846,-200.87204499260724,33.93179228261215,25.700216679320874,36.101915688739155
2025-12-12 18:08:52.316169,Right,-3.7008165393708623,-5.389537591278895,0.2142291272220973,5.7226261884,-45.66299562291624,12.567420499792206,-3.191190555013236,-1.2599301606487643
2025-12-12 18:08:52.320221,Right,-18.01014370018129,-23.821442521369136,-17.934904290663326,-13.372928807185872,196.17634988697046,-4.043707329979952,-22.79875048331496,-22.10237451175135
2025-12-12 18:08:52.323197,Right,-13.57156096241306,8.297396612068042,9.382057205660203,4.5115800853009205,78.40152957392183,14.821052084575058,2.657417079600691,8.761177617614067
2025-12-12 18:08:52.327234,Right,3.9382231179697555,31.733428209480735,30.735380439097753,25.475566385432103,-171.01270976721116,33.72409759617949,25.739962731270225,31.894097632303556
2025-12-12 18:08:52.331218,Right,5.388028487657721,5.38166431535592,8.531508289794147,12.921009971858894,-77.47322941689617,18.909183169820608,6.071902936285369,6.144025498062987
2025-12-12 18:08:52.335236,Right,-7.67095511336629,-17.101630824464337,-11.506429225443753,-4.709599911575424,188.7830308506691,1.9804263484838884,-14.567463829376948,-15.239818568852911
2025-12-12 18:08:52.340277,Right,-7.278651475951847,10.126374603799377,11.370945875587495,10.231887878047473,128.81342179358126,19.368192511719826,7.145754960808745,12.737960277737784
2025-12-12 18:08:52.344241,Right,6.9302709804778715,36.47255778548788,33.81551608001064,31.15375570760807,-149.14210430207277,41.5060937700182,32.00219979521239,39.202006709994066
2025-12-12 18:08:52.349219,Right,6.4903876096122985,8.541629251356426,8.838974940899789,15.999460592797732,-126.34015076344713,26.601335445830046,10.50741287630251,11.287412265700596
2025-12-12 18:08:52.353294,Right,-10.698373390145207,-27.11154307967081,-23.176443584825392,-11.25865006037202,159.41354069539557,0.6531636869003705,-21.860413767230852,-24.227283019221886
2025-12-12 18:08:52.356303,Right,-13.368269356702513,-6.411886787064759,-5.474175605011624,-0.988747117231469,182.33087233759034,12.736789382135612,-6.618193058068698,-3.765313631870413
2025-12-12 18:08:52.359299,Right,5.97724937305793,34.60131092798292,30.912400454902127,31.279433952302497,-93.3512780582605,45.44967349204671,30.41413540654704,36.59304653209392
2025-12-12 18:08:52.363261,Right,15.709356960878722,25.282204331885623,23.31811458561242,31.87316961437955,-151.59204126104305,46.07289855493218,25.58193120170688,27.2454256344422
2025-12-12 18:08:52.368330,Right,1.1746322107792366,-12.274275839296024,-9.74741961924974,4.727807442644007,109.6112691419221,20.982881580639514,-8.012678305851978,-8.880429209570593
2025-12-12 18:08:52.372358,Right,-10.741080874464387,-9.03999629797795,-7.171310614981849,-0.1550131231897467,193.4029777089927,19.269826260271657,-9.127500499242501,-3.2998757404438948
2025-12-12 18:08:52.376348,Right,-2.4081368227070925,21.227684417751334,19.957429063399104,19.132688399372455,-58.53123308841896,39.40858915468198,16.496761296659315,29.110105993038815
2025-12-12 18:08:52.379390,Right,3.846522555561023,11.667415643605409,12.430805485004385,16.476349164684507,-167.63598835467383,35.1236137265405,10.557995610954094,21.06598838980881
2025-12-12 18:08:52.383391,Right,-9.256124687653937,-27.350717570452503,-21.9353006404981,-10.819930961036334,80.56431749462172,7.238069265960803,-23.593557272123917,-16.894788376191173
2025-12-12 18:08:52.387416,Right,-19.66702742283269,-24.904133222231565,-20.663906948584554,-13.956720452589252,227.5149717280874,5.646580947231996,-24.385257197752708,-13.872048293358603
2025-12-12 18:08:52.391333,Right,-7.322662271217268,17.07349775677423,15.969581070262393,15.820479756984241,-3.673264269833453,36.08607237749311,12.13830797052151,28.064261337820426
2025-12-12 18:08:52.395413,Right,6.995654774194918,24.822217514914996,23.457465471517025,28.527007363509256,-188.0029974095014,47.11481659630954,22.405427712958954,35.60358101417751
2025-12-12 18:08:52.400483,Right,-1.0901590058056172,-12.020159549772188,-8.580218288455399,6.023362726928099,10.601579011916328,23.24820484445081,-8.31462496896529,-0.9042915346908558
2025-12-12 18:08:52.403489,Right,-15.426558162182118,-23.12141572377959,-19.228872842879355,-6.552465107390162,214.1723139220412,11.460182235459797,-20.225373624661188,-11.311222205790727
2025-12-12 18:08:52.407472,Right,-10.443815707865724,10.00939866757767,8.142012462736602,13.481371746526747,39.63986684291376,32.33037425796283,8.300400412703766,22.185714184908647
2025-12-12 18:08:52.411480,Right,1.485171577656729,20.26333807539413,15.12126638468635,24.579346240007908,-185.05703577997156,42.1951837907327,20.89390064163308,32.650285687042924
2025-12-12 18:08:52.415424,Right,-4.774862261361704,-16.801614881911064,-19.538235828588313,1.2943561695219614,-36.50943585609639,16.7013270782536,-9.39329909023445,-3.9566901928192237
2025-12-12 18:08:52.419492,Right,-17.699985526863202,-34.056083083120484,-36.3088421826601,-14.974853240134507,210.7855835609389,-1.3630993433253025,-27.427647457681815,-21.349266805974366
2025-12-12 18:08:52.423491,Right,-9.473720279164809,3.4771320326358364,-3.8008568758632464,8.514549797518157,97.55812891851383,19.740821536370277,2.2149049477666267,14.26412755279398
2025-12-12 18:08:52.427498,Right,10.970531566225873,32.525829282772975,22.06720229998973,34.116955052108096,-162.33811492824861,41.76451806282785,28.52992600606194,40.24506639381798
2025-12-12 18:08:52.431522,Right,11.767076505031582,6.730062941778215,-0.6055477503127804,21.292697893272816,-83.65642981151905,26.31404212648522,7.144000415674782,12.355791605310515
2025-12-12 18:08:52.434556,Right,-5.08027976664016,-20.224005623502308,-25.071841518947622,-0.9390326983275372,182.9686971871688,3.797124383967457,-19.327391691388584,-14.906092549665118
2025-12-12 18:08:52.439533,Right,-8.223614995658409,3.631663709817076,-4.784089659444362,10.227597434376548,136.02748895797413,14.479760183741746,-1.8901287025155398,8.894132561623337
2025-12-12 18:08:52.443519,Right,5.896646847041211,32.9682945516779,21.141170349450476,32.37313280226954,-136.03645031993983,33.222897986881435,24.59517733806115,36.901915665170236
2025-12-12 18:08:52.447590,Right,9.017062581096525,13.123284558101659,4.072374956195745,22.389921348602,-122.00573718332635,18.694660692333855,9.233095428678098,14.862926250236342
2025-12-12 18:08:52.451601,Right,-4.089490017426442,-15.477838042345866,-21.29169767703661,-0.730963547643114,150.872420116817,-6.549783528766056,-17.903770544475265,-15.631075931585656
2025-12-12 18:08:52.455634,Right,-5.965017541116367,6.314059511484629,-2.70459942523712,8.503957599073146,165.2708646928786,2.988116890368474,-2.5395241438718585,4.968788847785618
2025-12-12 18:08:52.459616,Right,9.954829627604568,42.501997702808694,28.785446816408694,34.77628862444544,-115.86669346789677,29.557656998857055,29.838656127407376,40.85815737647317
2025-12-12 18:08:52.462625,Right,14.66564436219528,26.24211657095111,14.142161681455491,28.260612047013637,-175.00092222344392,23.046073909856204,19.375370285255485,25.64864085615227
2025-12-12 18:08:52.467591,Right,-2.9268084171790747,-15.742278577424258,-23.553000336028617,-2.9009386700790856,95.38148529065256,-7.075255917103277,-16.57850215253802,-14.324962065080399
2025-12-12 18:08:52.471657,Right,-14.327852825807682,-11.483803898711813,-20.418214681437348,-6.880714230053854,192.42864624888352,-9.963879591114164,-14.593172845589834,-8.568918957276765
2025-12-12 18:08:52.475605,Right,-3.069538060503419,24.11795114211418,11.228566424636938,16.650127342592896,-58.53191990103551,12.312417784407444,18.023950475597303,27.332604698813157
2025-12-12 18:08:52.479679,Right,5.808402111111832,19.071880874662384,7.648005648590242,17.47605207729339,-181.48066973662026,10.501914858055898,18.17877938564834,22.596345746760562
2025-12-12 18:08:52.483694,Right,-7.0825266702285035,-20.53551670120396,-26.793449299812437,-10.595437004661107,56.74115130484461,-17.882434269445184,-14.833300860625968,-15.484385856183508
2025-12-12 18:08:52.487724,Right,-19.282792900766935,-22.212241054103288,-28.285183479511943,-18.073250056982943,210.8401517769671,-22.865100251342483,-18.4465067730398,-15.275031244354977
2025-12-12 18:08:52.490724,Right,-8.26094380379709,17.228919075681915,6.73965618082093,7.811310957011301,-7.5656071576268005,4.845563295457396,15.956830576194989,24.721631189586333
2025-12-12 18:08:52.495767,Right,6.614499655912823,25.735581139391797,14.686572957912176,19.248352767367578,-189.8649922595796,15.908631115294611,26.891947076457654,32.35260042952905
2025-12-12 18:08:52.499690,Right,0.3760434917917337,-9.087784155119152,-16.36483208135178,-2.731787070968494,2.769646380616905,-6.383199164783036,-2.0170882551337854,-3.5712617567278357
2025-12-12 18:08:52.503751,Right,-10.862385964893292,-16.941128231637776,-24.466156682246492,-12.861368941984438,202.61608331324533,-15.644230183049785,-11.175656892706684,-12.250615896968156
2025-12-12 18:08:52.507769,Right,-0.9768162560608289,22.3070784270094,9.265125015892863,12.566033297759532,23.75249838914351,9.86764766883607,22.618534911021925,25.929647450526318
2025-12-12 18:08:52.511789,Right,15.71793715253898,39.04061064612688,23.67318677558751,29.511206893887902,-211.99508406755922,25.441329795594584,41.031118739756494,41.15676737501235
2025-12-12 18:08:52.514782,Right,10.24913943591855,3.120808276667958,-8.888522290497804,7.339013776105276,-72.80045844560664,2.9605736458140655,11.967427596951893,3.656365916465802
2025-12-12 18:08:52.518739,Right,-6.727624878194547,-19.43930969723806,-30.39939483234275,-13.934905670324952,178.0723301146827,-16.390768034969305,-10.88027228131432,-20.67244749281417
2025-12-12 18:08:52.522808,Right,-3.709889766924789,11.601559758919393,-3.968000340253411,2.78336031069648,74.92929924017699,1.567119904353035,12.265435990366313,7.912872258997595
2025-12-12 18:08:52.527809,Right,14.137812773501537,37.27788973328643,19.162841197401804,23.975898081925152,-182.80648026027484,20.837899161878795,34.41344866996042,30.87246425401645
2025-12-12 18:08:52.531841,Right,14.940065970422438,10.061763644529492,-4.140783542638019,8.641492538356033,-109.05709371725789,2.3552223641222554,10.653022214421071,1.9324876404334645
2025-12-12 18:08:52.535838,Right,-1.2426500935507647,-18.42569566662678,-29.552474682365755,-15.899198438630265,156.72209884640142,-23.912557142778496,-17.78553748781087,-26.886561466777493
2025-12-12 18:08:52.539853,Right,-3.8036737659131177,4.725909967364714,-9.618697783320613,-6.157093504246404,111.90444728350485,-15.532307286821833,-0.7438565768825356,-3.3747675766608154
2025-12-12 18:08:52.543869,Right,10.532491117784957,34.58999233770737,17.471501462335027,16.0164673737645,-165.18980978731088,3.875505263240939,27.431951284737806,27.356690639295266
2025-12-12 18:08:52.546871,Right,12.147635458334662,13.750532953527,0.958264930235714,5.510314622437363,-159.72988530628936,-8.931013669016465,13.203325846567168,8.503537689028235
2025-12-12 18:08:52.550900,Right,-5.016933259159487,-19.153119727581725,-26.229461191025734,-20.40717149649845,115.6691263782086,-33.9880120583739,-15.444946213609,-21.562141225156665
2025-12-12 18:08:52.554921,Right,-11.96819409653017,-2.647109358395028,-10.337104076000742,-14.982630210788557,144.6451266690001,-25.88054190470484,-2.828618690231451,-3.052341447546496
2025-12-12 18:08:52.559907,Right,0.5812955991787021,30.55402621505891,19.81771466020075,8.89944162687243,-123.70240293928327,-0.9029107704345734,27.779032504493443,30.214038388347035
2025-12-12 18:08:52.563934,Right,4.876063023462848,14.088610295206308,5.245927171220842,2.3475545728952056,-176.66870204609404,-8.289965358379959,16.697431018868883,13.098755345348764
2025-12-12 18:08:52.567930,Right,-11.109431740875152,-26.522158226442116,-31.86684005639046,-26.86882479047108,101.71731800778798,-38.13648809867209,-19.31238969082733,-26.975979433062093
2025-12-12 18:08:52.570955,Right,-19.958579465917865,-19.191377975605064,-27.002353573681603,-26.99324395230269,208.7340552865462,-38.451834988681185,-16.054047618434197,-18.199926520976078
2025-12-12 18:08:52.574960,Right,-5.16450532757699,21.846193070659865,8.603822605998914,2.171360874545826,-42.40131125435073,-10.538262181333266,20.029135284450604,23.34439423515323
2025-12-12 18:08:52.579003,Right,8.09597627027324,23.064428424091602,9.937074742158416,8.793968780261821,-177.2901931981014,-5.618821225272768,24.400251280409066,23.54840626002988
2025-12-12 18:08:52.582980,Right,-1.0060545246360562,-12.588444752609576,-21.74489697870206,-15.708459109608157,51.95428303614608,-29.984966386851738,-6.498712804301249,-13.62008337417501
2025-12-12 18:08:52.588004,Right,-11.864596621622695,-14.328611504601213,-24.357426279131346,-22.897739686644854,208.58152593772684,-35.54578784817568,-11.449164941674098,-16.650710125462865
2025-12-12 18:08:52.591992,Right,-1.9575484127708478,22.51627103519968,7.3535567808505675,1.5377279525341692,-4.226245660243876,-10.861006331353565,19.834487293273924,19.076236849477937
2025-12-12 18:08:52.596020,Right,11.751694730626696,29.001057502580807,13.207854412516099,12.615348421612907,-185.87477440993462,-1.2950484425800823,28.876221746957526,24.76583980045325
2025-12-12 18:08:52.599019,Right,5.9607568810261,-6.2716851481636695,-17.693356570144488,-8.13144582861969,7.746096345710612,-22.285666514006152,-0.19282545180249144,-10.804312771384502
