timestamp,label,FC3,C3,CP3,Cz,FCz,FC4,C4,CP4
2025-12-12 18:11:11.131090,Right,2172.0963970787325,2775.5657135322167,2844.838006316605,2575.009897711383,1624.4629359844969,2399.208595785954,2508.0439746716224,2938.4864763273636
2025-12-12 18:11:11.148125,Right,11694.97542923846,14943.596874026829,15316.697218399031,13864.905253652614,8800.111782303618,12918.323059871153,13503.223669157036,15821.441607174867
2025-12-12 18:11:11.151138,Right,26789.116157240176,34231.27378160403,35085.323325438425,31762.185972468396,20327.3312648914,29594.25583621524,30930.977446694895,36244.09855150344
2025-12-12 18:11:11.154138,Right,33496.46345575615,42809.486507083115,43872.729344888576,39720.348538943465,25678.052312464377,37011.806654276006,38678.72807784446,45329.39703212998
2025-12-12 18:11:11.159157,Right,22716.361879193515,29049.346751485835,29756.492705213546,26943.803405848026,17560.158017200425,25112.787309431296,26239.296728687244,30760.89119286681
2025-12-12 18:11:11.162160,Right,2688.4863817777077,3457.9790869182616,3512.9951845034084,3191.8510803888203,1955.281406461363,2986.0505927478953,3113.839154066023,3662.816587252106
2025-12-12 18:11:11.166188,Right,-12399.690671940916,-15850.03145249252,-16278.020465993672,-14710.678452690889,-9848.069133652258,-13696.817738996964,-14325.02951301419,-16778.91841738159
2025-12-12 18:11:11.170192,Right,-16237.745536801114,-20782.412245792162,-21322.562992927735,-19265.546951427532,-12518.301403954305,-17946.881107137713,-18773.156143752043,-21994.836971811717
2025-12-12 18:11:11.175210,Right,-11637.402871748433,-14897.18446144578,-15282.786615193356,-13802.720513889915,-8613.713952518301,-12859.95717999601,-13455.795843733067,-15760.971052681562
2025-12-12 18:11:11.178214,Right,-5007.655350005603,-6400.591250258847,-6577.184672642848,-5936.298848083592,-3675.318491458951,-5529.825254445546,-5784.67650986847,-6770.68366520165
2025-12-12 18:11:11.182223,Right,-1383.175539812888,-1766.5718954281183,-1831.1322746371152,-1643.922171534272,-1268.943134010944,-1531.5039289538981,-1598.9812528099865,-1870.2781040964182
2025-12-12 18:11:11.186227,Right,-2146.0213115379447,-2757.244024317828,-2842.7985671572387,-2552.678995359456,-1775.0755288455985,-2381.5628670135047,-2490.9446584573016,-2918.369717620779
2025-12-12 18:11:11.190238,Right,-5168.702557043987,-6618.402016586973,-6796.653314153315,-6131.247171686264,-3745.9997696755454,-5716.084031900158,-5980.287757468293,-7004.488933271612
2025-12-12 18:11:11.194192,Right,-7078.3524819492595,-9040.760629019001,-9282.403231351986,-8390.183458917192,-5275.333667853498,-7817.527579447138,-8172.936017642729,-9572.354477639543
2025-12-12 18:11:11.198271,Right,-6281.484729548451,-8022.139582764008,-8240.06029409112,-7449.04367627122,-5027.110240409966,-6940.096908840467,-7251.2451695384225,-8496.543997273198
2025-12-12 18:11:11.203307,Right,-4123.886539461557,-5283.113510733703,-5426.049823632347,-4894.459376150044,-3338.5921276039444,-4563.750625155866,-4770.110481853946,-5592.167123122141
2025-12-12 18:11:11.206274,Right,-3017.145119703724,-3870.0797947134124,-3971.1045899309684,-3576.4872029686812,-2105.800513693597,-3337.614668646129,-3491.869567272486,-4090.504530406557
2025-12-12 18:11:11.209352,Right,-3685.4041066841455,-4704.411921093939,-4828.601811343338,-4363.2131715407595,-2607.404244003934,-4067.3741643917747,-4250.407094949856,-4975.353152530501
2025-12-12 18:11:11.214318,Right,-4679.269452980952,-5970.662870948203,-6130.379604412243,-5547.448000699864,-3773.0835254347185,-5168.028845434426,-5395.6868731179275,-6320.023404139094
2025-12-12 18:11:11.218331,Right,-4465.602274139761,-5718.196936271619,-5866.6228791889735,-5302.567022995092,-3681.0270309891785,-4941.858317887294,-5162.7191772987135,-6050.316258716164
2025-12-12 18:11:11.222343,Right,-3305.1651071433444,-4242.606249012053,-4346.504258932546,-3924.022086181445,-2379.4972612756537,-3659.7467633360066,-3828.4279293711297,-4482.95621260535
2025-12-12 18:11:11.226362,Right,-2661.0955019970424,-3398.8048757240176,-3483.1527475356124,-3153.1444933819585,-1735.7054464973044,-2940.0007991254097,-3072.7670612153597,-3591.9339823867194
2025-12-12 18:11:11.230346,Right,-3153.94914048363,-4016.5202346660662,-4122.505162173649,-3740.749480813509,-2501.8092291787034,-3486.1031301828334,-3635.439078598749,-4253.472899910063
2025-12-12 18:11:11.233391,Right,-3811.428067900357,-4875.0312213348225,-5000.27690662141,-4529.901473713806,-3226.0090906493133,-4224.196954326821,-4407.0973018005025,-5164.160205450142
2025-12-12 18:11:11.237368,Right,-3483.293900855817,-4471.075428712182,-4577.876673731953,-4140.623077478958,-2634.988311087014,-3864.4535670299083,-4038.020023660967,-4732.183612691471
2025-12-12 18:11:11.242373,Right,-2418.1884235539474,-3094.4449465505313,-3165.8551589101553,-2868.5892765740864,-1554.948710934259,-2677.296525362879,-2797.877942694584,-3274.611467824783
2025-12-12 18:11:11.246404,Right,-1883.4838413882535,-2392.4726857948117,-2452.98329381831,-2232.463870947715,-1437.23699184414,-2080.9103856292786,-2168.380949950777,-2537.3854831284843
2025-12-12 18:11:11.250419,Right,-2403.7563430537703,-3067.2920737646054,-3145.9157929632347,-2856.4168304572813,-2130.7184680978535,-2662.5849695871584,-2775.529859888833,-3254.5019761729054
2025-12-12 18:11:11.254413,Right,-3051.7217872245237,-3912.5933893476613,-4005.8622096185572,-3626.899443039205,-2379.9583324320847,-3382.8460220267298,-3534.6454234858975,-4145.973164490657
2025-12-12 18:11:11.258436,Right,-2748.1157627953216,-3516.464723291807,-3597.6294828422833,-3261.1993727337103,-1827.1471202052198,-3040.5888125725323,-3178.777714134427,-3725.7958089679014
2025-12-12 18:11:11.261442,Right,-1747.8829120753799,-2221.194004465593,-2275.7149435803294,-2074.7844226423185,-1260.7819790305803,-1930.6376573628513,-2013.102034305106,-2359.685081769014
2025-12-12 18:11:11.265453,Right,-1254.0263790477766,-1596.9763623343315,-1638.3802772646304,-1497.251346342382,-1217.5242825151654,-1391.3024052991532,-1446.974034810206,-1700.6394139269833
2025-12-12 18:11:11.270450,Right,-1736.063098904211,-2230.448895584559,-2282.0752050052397,-2071.045292231487,-1431.3210918203695,-1928.6793198802043,-2012.9554449225543,-2364.594350617612
2025-12-12 18:11:11.274424,Right,-2321.094058255083,-2971.619378737407,-3038.2527901527938,-2755.2232659178553,-1539.6465028924868,-2567.4621293479577,-2681.4615169600584,-3143.1381929127965
2025-12-12 18:11:11.278473,Right,-2056.582706683199,-2612.3786927310284,-2674.188355389284,-2433.760179838282,-1461.4207920305198,-2266.721931548789,-2359.969674201915,-2764.8038470831234
2025-12-12 18:11:11.282493,Right,-1208.6030888512032,-1528.5181254330091,-1565.5411047248635,-1430.84090228274,-1164.6659902090905,-1333.1374255381525,-1379.4129960804712,-1620.8802958340384
2025-12-12 18:11:11.285523,Right,-809.930949222995,-1035.8743890045444,-1054.8346727987519,-960.7307132619899,-767.0963147381553,-898.4657439434668,-929.6302877838025,-1097.0852222876856
2025-12-12 18:11:11.289524,Right,-1204.6343341753818,-1539.2832939621294,-1566.4114491065266,-1423.2840454513207,-695.7856952828588,-1329.7546471668174,-1385.4468803509371,-1627.5859537306242
2025-12-12 18:11:11.293527,Right,-1652.3432709595654,-2093.508521771757,-2139.0318989871303,-1950.5306100677699,-1082.5293612548849,-1817.3185360222124,-1892.4056123612681,-2218.742443377967
2025-12-12 18:11:11.297531,Right,-1422.490274391952,-1799.9264756095363,-1843.0407194647705,-1684.7097056430066,-1286.2735910156043,-1568.365635490627,-1628.7013568260008,-1913.496048957808
2025-12-12 18:11:11.302532,Right,-753.8115696008317,-965.7517317836173,-984.3394989874214,-898.6235043891938,-774.3759024875471,-839.9019383256091,-870.8906288086437,-1028.9933534178417
2025-12-12 18:11:11.306560,Right,-426.91955235030036,-552.4430752639892,-555.6383922956884,-507.1765129722189,-139.2860736370203,-478.3713515877025,-497.62543274008203,-588.0506498882314
2025-12-12 18:11:11.310569,Right,-690.8084705622168,-871.4295625503873,-885.8421291465638,-814.5753780206433,-294.77862619870575,-762.7207788426895,-792.4779710738221,-929.1389039404457
2025-12-12 18:11:11.313579,Right,-1018.3848990466213,-1285.2110670233378,-1315.105763755273,-1208.0528173106723,-933.0599584173178,-1126.4738361908821,-1169.1856135174166,-1372.8782435471658
2025-12-12 18:11:11.317599,Right,-877.267099684861,-1125.0183487193426,-1147.1109301625984,-1048.8184516574256,-924.0536939193844,-979.0620992813492,-1019.2445840622531,-1201.0775029176148
2025-12-12 18:11:11.321605,Right,-393.73978553677443,-516.6937504517846,-516.1874911631458,-472.7348527266877,-170.19768010877306,-443.5867360174889,-465.5519531997852,-549.8671167768771
2025-12-12 18:11:11.325571,Right,-107.20376376784407,-132.48421819054056,-123.80592403421178,-124.60828487959225,210.2105652996106,-116.80634867656045,-120.92859775741817,-142.05488204967696
2025-12-12 18:11:11.330645,Right,-252.62781149015063,-306.1823793092044,-309.17374398570973,-297.7752391869435,-259.42633834661683,-275.8219124514144,-279.1918812431977,-330.73797487141564
2025-12-12 18:11:11.334631,Right,-506.9859067669022,-647.2181767051807,-659.2849196671741,-606.4683974880609,-666.3277994772652,-565.7520967191085,-582.1392242832808,-692.3374338777503
2025-12-12 18:11:11.338615,Right,-447.7989644992631,-585.3798122635344,-590.3389256186201,-535.0911580790998,-295.20116024356685,-502.4512670353288,-522.6060865337495,-622.2700179817621
2025-12-12 18:11:11.341646,Right,-89.28543704125332,-112.30763519287575,-105.62734062940581,-101.56759483093629,236.38492784582195,-96.93570672709029,-99.8738312984351,-120.92944516940042
2025-12-12 18:11:11.345659,Right,171.92092831031187,238.4208757689339,247.62464417802403,208.8499453169643,152.5405975849717,195.99707910226425,211.46743777091615,245.47806065290933
2025-12-12 18:11:11.349626,Right,92.90977700799704,125.72778787685093,131.63064537395258,107.0830090509262,-195.00557122009923,100.85600877122488,112.13562503660796,125.1901384354569
2025-12-12 18:11:11.353706,Right,-112.16705706555513,-154.98516836907947,-149.36275917067542,-138.24545062240213,-104.1905196896405,-130.51028566955938,-136.39638995341375,-166.88364555395674
2025-12-12 18:11:11.357710,Right,-87.62514307914535,-115.99207736697281,-107.57200227194699,-102.22736214185716,232.77202673107968,-96.18759727134602,-102.88805671458249,-124.00392053445103
2025-12-12 18:11:11.362712,Right,182.08056838417542,246.02095607385854,256.91474560601637,219.90156993686105,234.29402666057285,207.10572026640875,219.3347247589263,253.69511520990636
2025-12-12 18:11:11.366738,Right,386.9981100431178,500.88409935872187,514.6551862131018,456.2695560808643,50.04374812346214,426.4347419960686,450.8359748001094,520.2347240264353
2025-12-12 18:11:11.369745,Right,344.30164248023357,427.5977907341876,444.2384364096797,403.3207687323811,178.50542532051622,372.4256856977081,389.2173449631082,447.1639250578519
2025-12-12 18:11:11.373751,Right,222.16934716588548,276.3461346834565,291.5184712958644,266.2286033917653,441.86779764849416,243.1427102187372,251.2539514116943,291.1935244069791
2025-12-12 18:11:11.377788,Right,254.17773482142002,336.834919058645,346.9598944370664,308.8916625703205,344.718116132477,285.82339280892484,300.7356169278937,352.3973920766002
2025-12-12 18:11:11.381771,Right,418.0574597107043,543.8756239045324,553.3421421524981,496.8241247913393,95.40659792206134,462.1075837505341,488.4911516719876,568.3375101917482
2025-12-12 18:11:11.385812,Right,530.3380915533344,667.0931353725027,682.4127564533264,624.0066512441845,259.65779646404553,577.6074943326967,605.1497090383637,701.7064945305756
2025-12-12 18:11:11.390737,Right,531.9230896689114,668.2232323276985,687.1531907037715,629.8305382431718,655.7036287100636,580.9473921303579,605.7024522395222,706.05761663054
2025-12-12 18:11:11.394807,Right,515.453972548974,666.2675558541087,681.7150305289833,614.4556190061849,625.6810101580922,568.2785717416264,597.7447143831523,701.0753411691694
2025-12-12 18:11:11.397791,Right,538.3732342014555,697.5017053519259,710.5051546038012,636.3704087512451,251.85624867965817,590.3071596540394,625.4267293862067,731.7790058298851
2025-12-12 18:11:11.401825,Right,573.1285646811593,721.7096150075668,740.4632035991526,672.2991333392565,245.49383813969325,623.3649350681808,654.8306143106893,763.4566984210978
2025-12-12 18:11:11.405827,Right,615.2864016585518,770.4551674419781,796.7377757239738,728.2993331829784,662.4390896548284,677.1345245271223,703.7968466217862,823.4902458707802
2025-12-12 18:11:11.409889,Right,688.9285092856153,885.1223236405058,912.0017099324032,824.8036197072361,802.3829542892345,772.2945354133262,805.034457580361,945.6598868371802
2025-12-12 18:11:11.413858,Right,747.9244644942228,971.2410565656028,995.5050461434294,893.9335647845292,481.2372969604912,840.0145923142554,881.4168691594386,1033.1086794822477
2025-12-12 18:11:11.418882,Right,716.5071826244239,916.229774553387,943.0679077917594,851.1786062957835,336.847411065537,797.7351743244217,835.4073002105579,976.2491929794196
2025-12-12 18:11:11.422898,Right,643.8963439617655,815.137232115725,847.9700813820818,767.8359825165244,637.3082467369968,716.8121118010604,744.9499870762229,873.9282075937372
2025-12-12 18:11:11.425887,Right,674.3359761601314,870.8679931334918,906.2828013114631,810.8607480428182,821.5576705161366,758.225212846417,789.19689627568,931.7448291369947
2025-12-12 18:11:11.429908,Right,821.3714730109787,1070.467046490754,1106.7865262646228,983.0991677236743,586.4150985634187,921.415100760234,965.2090440813918,1137.0613192857709
2025-12-12 18:11:11.433914,Right,912.8534233442624,1172.0361821809784,1213.2367798398482,1083.6062447902514,441.3789685613592,1013.6651672350708,1060.7169975023717,1243.4080806935672
2025-12-12 18:11:11.437933,Right,837.3437956296839,1061.652765296516,1108.0660571097396,994.7205744339153,703.3583407779806,927.7626715912484,965.3132537271595,1130.638688692823
2025-12-12 18:11:11.441968,Right,721.8558995667845,927.8207962095039,972.481038426049,866.124976585852,875.8007813419099,808.7385431813309,841.9570267676609,989.0207191351801
2025-12-12 18:11:11.445946,Right,753.2560746739618,984.0569237141171,1024.2467545198742,904.6573983596172,615.7358569619828,847.2923326917225,889.514806169318,1043.0573095609434
2025-12-12 18:11:11.451010,Right,909.0078343569767,1171.492361191078,1214.4275863276562,1082.1364254811779,435.23199826385826,1011.261742321658,1062.288843600545,1239.5526124974713
2025-12-12 18:11:11.453965,Right,995.7871243116679,1264.0648957617814,1313.5872008230072,1183.4087652240414,743.2616776660434,1101.717071393272,1150.4500087362248,1341.7485877504805
2025-12-12 18:11:11.457027,Right,920.897766381735,1176.1177192516625,1223.2120496790158,1101.6074788946426,1014.4039585825521,1025.6273346529342,1067.8470457247458,1249.8050621970324
2025-12-12 18:11:11.462021,Right,803.4213647104334,1043.227684800513,1079.7257939592237,964.2471054388443,726.5801455104956,901.6248170066392,941.2862198244547,1103.2906889382284
2025-12-12 18:11:11.465984,Right,803.2440233023372,1034.8082140664337,1068.3390254388796,956.2760951025411,379.022853456554,895.7306357395137,933.7264329765458,1090.5288489743834
2025-12-12 18:11:11.470018,Right,924.9793238354614,1168.8129306272604,1212.0003036141861,1096.4717099053087,635.9153350448469,1024.4464662502287,1059.4128129711607,1236.358391311951
2025-12-12 18:11:11.473972,Right,1027.1312735517276,1301.0583723941818,1351.639914860949,1223.5954988483572,1093.1037838932825,1143.0179580157856,1178.8098390582018,1380.4739354354097
2025-12-12 18:11:11.478029,Right,992.0363580817357,1274.3897919289302,1319.455240486539,1185.8521569852019,957.5833160993643,1111.2470753781963,1150.8813822224038,1349.8040730676148
2025-12-12 18:11:11.481045,Right,863.4967826805077,1107.9880850372138,1145.0419955069665,1027.2325056561967,467.4706322400598,964.8657716824673,1001.6889372195583,1171.2205297637265
2025-12-12 18:11:11.486041,Right,806.2088465878041,1015.0163710224442,1054.9946096504573,954.5392269206932,481.3459908863297,895.2334191798,922.9755682492396,1077.580816901056
2025-12-12 18:11:11.490047,Right,908.3046623164555,1145.4475595472613,1194.5042481324635,1081.938770268578,959.5647567356937,1014.5516155660152,1040.8266688426957,1221.7559427253436
2025-12-12 18:11:11.494076,Right,1046.6421754137846,1343.4288289551623,1394.7114249209408,1252.932151832385,1060.6835496248677,1179.3988910237094,1214.2713335354347,1430.5199198017363
2025-12-12 18:11:11.498097,Right,1025.0536478515714,1319.9800447567832,1366.4345167081337,1223.304491091054,642.3022300496232,1156.3914261043537,1192.248285656795,1402.270019478863
2025-12-12 18:11:11.502117,Right,852.0938325561583,1078.6734705138952,1122.759566121269,1011.792525082943,458.8876965352101,959.2565926943207,979.9028287312249,1148.94579681498
2025-12-12 18:11:11.505088,Right,761.2605230972404,955.1324723062571,1001.3142070218455,908.1071303101489,782.2746722629527,862.7656823240686,870.6073686484015,1022.2309124513995
2025-12-12 18:11:11.509113,Right,888.133108121925,1135.4073146602605,1182.2103622690775,1066.4237078222213,984.8217030062806,1014.3516302533681,1028.7487354844343,1210.5758514741901
2025-12-12 18:11:11.513131,Right,1054.417038751184,1356.8426820398308,1401.3276082575321,1261.7688100275118,741.187514761812,1199.3502902478212,1225.7685867012478,1438.7646342820954
2025-12-12 18:11:11.518139,Right,1012.1131599852815,1285.533993015997,1328.2243446004577,1204.7360175838694,562.7291801287793,1142.9817758823046,1164.4630884173093,1362.6625702788588
2025-12-12 18:11:11.522136,Right,812.8240719252499,1019.7032591556199,1060.7287261222955,970.2327163801529,764.0499929273501,919.0617986454163,925.5144763530698,1085.1534506613389
2025-12-12 18:11:11.526177,Right,738.6746174214641,940.5378795899451,977.8763392888941,889.4164458094165,895.5591507722856,842.2469734969782,848.1152634364553,1000.45423904364
2025-12-12 18:11:11.530173,Right,884.3678721237229,1139.4756122054532,1174.84628179227,1060.4362538256682,670.7546273294138,1001.9739594240673,1022.5954483239911,1205.2929232935421
2025-12-12 18:11:11.533180,Right,1023.0319372754311,1302.5788074394222,1341.4778461745009,1216.4079512334429,534.6025049422169,1144.428028257913,1172.0263332761824,1376.9200184412766
2025-12-12 18:11:11.537176,Right,951.0206579670776,1196.2797543653287,1238.1252243542112,1130.880614562193,767.5650427861838,1060.402130295406,1079.1510660329368,1269.542700523045
2025-12-12 18:11:11.541194,Right,776.0757358961273,985.432311945362,1022.1013333864976,931.6740921118762,891.5257970148232,873.9243343316484,885.8347241731826,1048.1283481502905
2025-12-12 18:11:11.546156,Right,733.3318281705724,947.0035186752211,976.1314145158976,882.4217082601972,585.1342477197759,828.9407705992926,847.6443692075554,1002.8632686545607
2025-12-12 18:11:11.550226,Right,845.4133163070073,1079.71307914285,1110.2781807370484,1007.3965535333846,367.89048614539206,943.0211980980821,970.6420044973493,1141.002517597517
2025-12-12 18:11:11.554227,Right,926.2080627359683,1165.8051063714083,1203.59822939476,1100.3228841728996,663.1572105026571,1025.5087497476488,1052.9174027310219,1235.7464346853085
2025-12-12 18:11:11.558273,Right,863.100644675782,1094.714814972831,1131.3977030483074,1032.284064553678,950.3624098805012,961.9352137674578,986.477106187027,1162.4031114261597
2025-12-12 18:11:11.561250,Right,742.5495148338377,961.4191526796203,987.4711080612615,892.8030049290974,669.2532546492293,835.1155934042763,861.8769024065696,1018.169858758105
2025-12-12 18:11:11.565271,Right,696.9857855916489,899.637641744921,920.3357833968475,833.3482474146876,274.11259957472794,780.3882291303016,809.4401992689818,952.9863818676677
2025-12-12 18:11:11.569222,Right,743.1158992635319,940.9226160563994,967.8488614740781,885.8848528219387,451.4436221966753,827.1012534261681,854.2880706849974,1004.5150408453774
2025-12-12 18:11:11.573299,Right,798.2044450484682,1015.1329165229108,1047.4974563620053,958.2894712956622,872.8538534374675,894.7911546227988,922.3426464891527,1089.0715827986132
2025-12-12 18:11:11.578300,Right,786.7419474214548,1019.0119839794934,1046.4005281834397,948.1713267387822,771.8866196521558,888.6038295468315,921.1717925046105,1089.7650818084367
2025-12-12 18:11:11.582313,Right,709.2259122085525,916.5747298572678,937.2164230507333,847.8755678541493,321.5206456851447,795.3544735672185,828.3577952075284,975.6221823054366
2025-12-12 18:11:11.586311,Right,640.1018417922314,806.1533419333864,829.0141988175455,758.2016943641938,309.82056739204563,707.2882979606511,733.3302228616085,859.4512107656337
2025-12-12 18:11:11.589276,Right,652.4471479268977,819.9898689892143,848.8587457260583,776.9487129845656,715.6109954274725,721.8111516713398,746.2220074548386,876.5165593533311
2025-12-12 18:11:11.593324,Right,719.8911865006667,927.4839796284214,955.8373712562025,862.5877050519921,778.2506178542972,803.5200351706007,838.0615362226963,986.3747087663505
2025-12-12 18:11:11.597297,Right,730.388297747355,946.9990859876852,970.8545950686093,869.8884577774443,392.5399474204751,811.7595396471443,853.8957863599062,1001.2165669705719
2025-12-12 18:11:11.601358,Right,638.4115767917829,811.3198639631737,835.4097409597598,753.2058472495992,260.166600615019,700.0739289199701,735.2278782706708,858.7097505142447
2025-12-12 18:11:11.606373,Right,546.9638979029842,688.2174592902884,715.7038181663956,647.7878994182684,574.613147043623,599.019277774496,624.5793238256592,732.8028574900236
2025-12-12 18:11:11.610394,Right,565.5422630308894,730.6187760983594,757.2717685550451,676.7567805438302,699.609330762527,627.4423432426993,656.8980895138811,775.6327409364749
2025-12-12 18:11:11.614408,Right,641.4652769502718,836.5321850732435,859.6016812582966,763.6078214412555,387.94745851960033,709.9117867955938,749.134383493918,881.1931278819684
2025-12-12 18:11:11.617433,Right,638.3313400006155,814.0202716123313,837.2570675651077,750.9881050032564,226.07655267370865,695.3178220159607,732.633836904075,855.862035686383
2025-12-12 18:11:11.621415,Right,547.503050789237,684.3281634266023,709.3092191992328,642.7307225116529,499.54546222893987,590.9513485428179,618.3022334483685,721.3917262591422
2025-12-12 18:11:11.625433,Right,492.57058871525805,627.8513079702388,649.4149964405224,583.2763840353582,648.9890327319736,536.3233890796546,563.3320191806415,659.7624510324094
2025-12-12 18:11:11.629455,Right,525.9407251363155,683.844059413299,699.6533819423057,622.0830110183451,341.02367458934896,574.6019863565452,610.8562140699942,713.1068416894414
2025-12-12 18:11:11.633454,Right,556.2349667528179,711.1588617297821,727.2256223501172,653.1374741843902,115.79791875334922,602.2896073306911,640.6491744768573,742.0869017660152
2025-12-12 18:11:11.638407,Right,510.5592655761866,641.5931789623573,661.9748724182136,603.5584902927512,372.8099242352182,554.2334492723458,584.6626382956747,675.7743697229307
2025-12-12 18:11:11.642512,Right,443.674115607515,571.5372356954031,590.6127446989994,536.2994568675058,603.1423129340401,494.1004453886999,521.3309365758905,605.8793401047587
2025-12-12 18:11:11.645523,Right,425.97442507580854,567.4428614912322,579.8141017917078,518.4625992776128,332.8489653543802,481.65679391496815,514.9220137144439,598.9869593966287
2025-12-12 18:11:11.649517,Right,430.1010394045152,563.363863442908,573.9608984292718,515.3744901882019,21.852400145144202,478.040887084906,513.8334209411405,593.7947546450887
2025-12-12 18:11:11.653531,Right,404.9380431548925,513.2885806383565,529.003348936676,482.2449507516576,220.06623592425603,442.35576101823244,472.59224599273875,545.5335314550903
2025-12-12 18:11:11.657525,Right,374.05461135925725,481.6647743199719,499.39769286918454,452.6138775043655,540.8515099667711,412.4079832575517,441.28019179962575,514.2476535217138
2025-12-12 18:11:11.661538,Right,375.5293612233363,502.95149786164984,515.5560916905524,457.8156121640932,371.74791514582466,418.4106321124127,454.87466880853754,531.7803293372272
2025-12-12 18:11:11.666505,Right,375.1391692201141,497.1651369029423,506.04092094139196,450.13134000170976,7.400428897642996,410.9537214713637,450.71200334257446,521.6272091220599
2025-12-12 18:11:11.670548,Right,330.29283602978103,418.9627174944617,430.4082783984486,391.3519029287854,96.6723992630723,353.78914222691674,385.66487273806706,441.9313347347779
2025-12-12 18:11:11.673563,Right,283.25620974285994,359.4992613197537,372.3366508745821,339.57695045985747,435.9430764884455,305.85918594594114,331.9917026895564,381.8763844621135
2025-12-12 18:11:11.677571,Right,294.0937087300699,391.4657732232008,399.1437217919156,354.609913444845,356.98118615860585,323.17668781406246,355.55650507065,411.1073477708269
2025-12-12 18:11:11.681597,Right,325.18311869795434,429.9327132520266,432.7306608535582,383.10187426104676,-22.509031839319505,350.07506783062126,388.9986458310159,445.84304024954326
2025-12-12 18:11:11.685589,Right,296.0932259927504,372.31415546976496,376.49434960563667,341.067006893456,-25.146661686187144,306.4981561895693,340.2541548088193,385.6571485984605
2025-12-12 18:11:11.689606,Right,223.82919521059375,277.53928375500254,283.30430377437733,259.5972428359091,314.2508078869432,227.20152843964752,253.4026544271037,288.3351355891209
2025-12-12 18:11:11.693610,Right,198.97241233533714,265.78054748789873,267.17428060702514,236.34559699555393,319.9981956646661,206.59575977164786,235.7366077674087,272.8327665992547
2025-12-12 18:11:11.698615,Right,233.9819050563965,316.0585358979879,313.11122789315414,273.82758595084306,-46.910760224214755,242.70551743765827,277.96565737959463,320.7186638956191
2025-12-12 18:11:11.701627,Right,245.5608360792976,312.4184151344234,312.04491646320093,281.0413710861467,-112.09445154381683,247.17219796101563,278.35315190500114,317.869482105365
2025-12-12 18:11:11.705578,Right,194.6271262750961,240.11202658282127,243.1426999765681,224.25808891875204,236.66147665819153,192.20089099055622,214.6112989031244,245.78224093001336
2025-12-12 18:11:11.709657,Right,140.32844491035212,188.16276832146104,186.8104503613431,166.7162728884723,323.3629201304866,140.30114507256076,163.21289377228823,189.84114233625587
2025-12-12 18:11:11.713670,Right,133.17106474435423,187.0153631287394,178.64543748903088,154.00872108642943,-49.86081446899334,130.72527416958474,160.04668535932433,184.47189802129287
2025-12-12 18:11:11.717630,Right,145.4339000125765,183.2138337418437,175.57463138655294,157.95428086421452,-215.02377636689926,133.76785713119898,161.44726746412925,182.47130964661483
2025-12-12 18:11:11.721640,Right,137.77687122760108,158.8587478926638,156.58587085269392,147.369886484812,122.72194468195084,123.63903517124709,143.0392276739003,163.6615175929619
2025-12-12 18:11:11.725701,Right,116.37983971653739,145.1448841090314,141.5738129997626,128.2092592046829,321.7566838967032,109.53130791609874,127.07153091300279,150.96654809080064
2025-12-12 18:11:11.728660,Right,92.68492483475711,128.37874820653815,117.44025231397245,99.78094566438813,-15.827499473758508,87.15196913137333,108.54328738659387,129.39233877987135
2025-12-12 18:11:11.733729,Right,58.1792826182791,71.31494678044692,58.04899573465809,52.274672692932654,-301.1221448351862,42.24145519017475,60.85068835952552,69.46604882203974
2025-12-12 18:11:11.737746,Right,27.668306726263836,17.537234107847326,8.706907467567362,17.22857599396957,-39.052078178559896,6.6655294224619865,17.184383819054347,19.19499667175114
2025-12-12 18:11:11.741692,Right,34.56151929148473,38.36448346427642,30.748371604655404,34.57052079803543,262.86417439280194,23.320277986174915,34.21741207741434,44.281190959969535
2025-12-12 18:11:11.745756,Right,56.86023867485346,83.7349684049841,70.8181771664531,62.94215266947867,35.60826301338966,52.48934138932964,71.69868993683485,88.09003131842474
2025-12-12 18:11:11.749814,Right,29.007517177204136,37.821359406167176,21.589745740348008,21.60667615197599,-310.186958756909,13.414592359331436,33.07666461163899,36.661187044286635
2025-12-12 18:11:11.753787,Right,-42.255747253482696,-72.83017182268668,-86.42304702516412,-66.43243271741085,-158.87355578577262,-71.97942470700946,-62.017478810681496,-77.43286920525134
2025-12-12 18:11:11.756787,Right,-65.17234696849482,-95.68983077519806,-108.06191847851733,-86.66767452983186,179.08895161759574,-91.34770619118353,-84.94264823989943,-100.6143804625608
2025-12-12 18:11:11.760832,Right,-11.22986018564552,-6.643400577362627,-23.45151170087047,-18.615492787619587,66.63220580123016,-25.114112235605717,-10.841993941750843,-12.382472867320757
2025-12-12 18:11:11.765813,Right,20.285963996720966,30.95370284485398,10.744680616771802,13.023575229453854,-280.1308013187663,5.208276676363312,22.74059166951338,22.197902754880488
2025-12-12 18:11:11.769773,Right,-44.20349684281973,-69.75782148860162,-87.7997396219871,-66.92561134148855,-225.791699028312,-71.5097301369533,-63.83808697841596,-82.19347892107908
2025-12-12 18:11:11.773829,Right,-125.33680941190687,-170.84643687831704,-187.16425498545868,-156.54848512803437,86.67160831895308,-155.279982855689,-155.6368035748019,-186.0661624079221
2025-12-12 18:11:11.777847,Right,-114.09423190102098,-136.41133451106725,-155.81854089046828,-138.24776000351994,27.027925440081162,-135.26533968775766,-129.57880140459747,-152.59238581021782
2025-12-12 18:11:11.782838,Right,-49.50714662365499,-53.876838023395976,-75.27023320927401,-67.80836787767475,-316.33917364134686,-68.89370021256036,-54.97212767030578,-68.53383847541409
2025-12-12 18:11:11.785886,Right,-53.70037364627933,-80.55047105817357,-98.70875967398752,-79.11457058708766,-303.7698012984183,-83.12302295921836,-73.35703062120592,-92.96500978362747
2025-12-12 18:11:11.788886,Right,-134.13151109131286,-187.71819257782772,-204.36646566385753,-169.1754155603703,34.350285534674185,-169.69420464726863,-168.65115008500288,-200.96534767729463
2025-12-12 18:11:11.793881,Right,-181.4409628629801,-228.18953642586712,-250.38013510138262,-216.7497162448417,41.16331195796374,-212.116446541826,-209.74149676793604,-245.34374980124994
2025-12-12 18:11:11.797898,Right,-151.64026702630508,-181.91593405604362,-209.1481134990172,-182.1181208732014,-324.957777698095,-177.850639023658,-168.8587719782954,-200.5197201264964
2025-12-12 18:11:11.801940,Right,-122.38378520219703,-160.31269288004842,-184.3809176501818,-151.24534815638617,-396.28821159001745,-150.7780388994579,-143.56449000963767,-175.06815604722942
2025-12-12 18:11:11.805932,Right,-152.27151780424174,-205.34845857607434,-224.61997111114033,-182.32418926987157,-50.20515791219441,-181.12823786314402,-181.22065847861813,-216.60152909172757
2025-12-12 18:11:11.809045,Right,-198.04573091819475,-247.5464156910748,-270.06526574677264,-230.79832717924728,43.289600858810445,-223.34580699240178,-223.65936710876122,-261.6105767042318
2025-12-12 18:11:11.813022,Right,-206.8580705123968,-251.5218533627194,-280.59116935998463,-246.96119897004974,-327.7631036247076,-234.85773574549967,-230.0939274841512,-270.9332837351685
2025-12-12 18:11:11.817069,Right,-196.24917708282737,-256.9632331449975,-284.84179328476966,-245.4338193128715,-501.090256387346,-233.81520673576233,-230.43780581827014,-276.2505329957712
2025-12-12 18:11:11.820954,Right,-199.506879815126,-273.8993854511027,-295.06026403505746,-249.42228792975038,-161.2666935889938,-238.54279296624918,-241.55286592462835,-288.1758681029569
2025-12-12 18:11:11.826080,Right,-209.641158603858,-269.6067522703779,-289.8571298496463,-252.22735977603952,62.8350985514262,-238.07690595443273,-240.74085472408296,-282.0824004552178
2025-12-12 18:11:11.829998,Right,-219.2190827337472,-263.5269485850222,-289.09736895876995,-260.60622692433753,-249.359007033956,-242.1113638294555,-239.06162624603894,-280.15221684558855
2025-12-12 18:11:11.834044,Right,-245.90947630398296,-307.2784328436974,-334.1416370536608,-297.07280690850166,-533.8748902985826,-277.4920816169615,-276.0720263478652,-328.04528370371554
2025-12-12 18:11:11.837024,Right,-280.26012430599803,-366.03987593986676,-388.3647071147134,-337.3955749931338,-282.92793662365875,-319.3070241849491,-326.11380726207426,-386.78219170066586
2025-12-12 18:11:11.841045,Right,-277.9532062722137,-353.22383630333934,-374.5034507506207,-327.9791172238474,24.103731267605326,-311.1318973304733,-318.4026886390202,-373.19737832795363
2025-12-12 18:11:11.845045,Right,-242.14165991994378,-292.45770756660204,-318.78902736256714,-286.32302001134667,-182.76673736247176,-269.95077981060604,-268.7174614628457,-314.40478553758294
2025-12-12 18:11:11.849059,Right,-239.39540010645578,-300.60935825351044,-329.2520445899572,-293.3247635220323,-514.7868503188365,-277.0310427666118,-273.8761079757387,-324.70299729311955
2025-12-12 18:11:11.854073,Right,-289.8111534591153,-386.27043546913774,-410.90934618748724,-357.2722214529349,-362.0281604909396,-340.15201762437937,-345.8823640226037,-409.36892688600346
2025-12-12 18:11:11.858077,Right,-320.2944412068755,-420.2868897499284,-442.77093427607906,-385.62330276629655,-25.85891388132586,-367.6363272666349,-377.59720092697535,-441.16177004552446
2025-12-12 18:11:11.862024,Right,-284.3895545491541,-354.52608534222236,-381.0258551328734,-337.4345538109774,-141.15408092513098,-320.7226883909025,-323.0276170144207,-375.5630775067257
2025-12-12 18:11:11.865130,Right,-248.5759204312053,-310.7886075952556,-339.9408213335555,-299.8825542148552,-487.6531513808586,-285.4678410210472,-282.70501151063945,-333.91728562055505
2025-12-12 18:11:11.869113,Right,-283.01975329368724,-373.04680462682154,-398.5644644049753,-344.52764571044827,-413.99080611401587,-329.0323297280993,-333.85291351540945,-397.6430179851013
2025-12-12 18:11:11.873117,Right,-339.63433965988224,-443.8075403443945,-466.37867498677224,-405.91982583125355,-64.27278651759843,-385.48574226588244,-398.1170682682714,-469.3171647772542
2025-12-12 18:11:11.877137,Right,-333.707326749136,-417.1146460172604,-442.84406372136436,-394.616104560846,-101.64163796970388,-371.03605149133364,-379.71511138865026,-443.95331328577595
2025-12-12 18:11:11.882098,Right,-288.0379481545533,-358.6181528593297,-386.9974161943537,-346.78782012942247,-455.8987128159206,-325.3817295691115,-328.1927894547698,-385.5761126813595
2025-12-12 18:11:11.886152,Right,-288.34806419577217,-379.21053697081516,-403.6538073394331,-352.92658304574434,-454.1431667964498,-334.7993940106244,-342.38078674848657,-403.7812646946404
2025-12-12 18:11:11.890160,Right,-335.05818728153827,-441.48937639419455,-461.7530602273182,-401.7328223044751,-89.79380823089741,-382.8444985850365,-397.7520477552316,-463.89899400481954
2025-12-12 18:11:11.893170,Right,-352.56472344411304,-441.7762440969236,-464.78155885549495,-412.7768349558464,-42.28834463088424,-390.97864040732384,-402.7335512501304,-464.9870440849918
2025-12-12 18:11:11.897182,Right,-326.55959496996365,-399.43314474791987,-426.389273339184,-382.76500721636694,-403.47725332327536,-360.6746267658309,-365.46436658181483,-423.8426039883634
2025-12-12 18:11:11.901200,Right,-319.5651592844515,-407.70383195311297,-431.39198537461925,-379.71007957152324,-499.5127190614585,-359.0216531099286,-366.80969368387014,-429.7225551598822
2025-12-12 18:11:11.905217,Right,-350.1822681663325,-455.52732752478914,-473.2140495585045,-412.3884589766385,-149.6244569637056,-390.22308949247235,-405.9984131610836,-473.31122282892466
2025-12-12 18:11:11.909218,Right,-364.47123847634066,-456.38680131244473,-474.7683455661754,-421.9135258033057,-8.092100582609419,-395.70636862388346,-410.12737917125924,-473.15271868143464
2025-12-12 18:11:11.914249,Right,-343.50139557389775,-418.2575234924443,-441.37425214477116,-399.89062482787995,-344.6466742604389,-371.81013339053607,-378.65144563355716,-437.2354726988124
2025-12-12 18:11:11.918246,Right,-337.72160895209527,-426.839730987791,-449.2352772313752,-402.5495575061068,-539.7771266769269,-375.7422508689342,-383.33682988147484,-446.53473965998273
2025-12-12 18:11:11.921258,Right,-365.54905731551116,-476.16162584652193,-493.51450408640085,-436.6222673372249,-239.6045932577108,-410.50995250273263,-425.93245808553183,-493.9864087869646
2025-12-12 18:11:11.925265,Right,-374.6826539998292,-474.53963630262297,-491.5575240661856,-440.87593496532645,-13.410842694109306,-413.44171583792195,-429.3618661755463,-491.53438296640525
2025-12-12 18:11:11.929269,Right,-343.4196808956913,-420.4496982804267,-441.4159449651488,-403.84362832451006,-285.9854648238397,-375.6202525359695,-384.56539633485954,-438.43554579344345
2025-12-12 18:11:11.933227,Right,-328.27282901405124,-413.9667340524611,-434.0984244282008,-393.1880697653978,-542.7435029862681,-365.4914424024173,-374.6082451932016,-431.40229433303466
2025-12-12 18:11:11.937294,Right,-361.4172710275161,-473.40903469908517,-487.63955023052404,-433.40064068348147,-293.6344550283975,-404.82500927662477,-423.10761492332676,-488.3450753540965
2025-12-12 18:11:11.941311,Right,-386.5934545965865,-496.3807731757988,-509.2794674781617,-456.5808786523994,8.386829292401671,-425.1579278477584,-446.781013370608,-510.9425227197353
2025-12-12 18:11:11.946271,Right,-357.2759305104264,-442.8835614825366,-460.86858966050204,-422.20990158838686,-187.99014511250425,-389.6067468262627,-404.5597694729222,-460.5548975734273
2025-12-12 18:11:11.949323,Right,-320.88073249714216,-406.8572301348904,-426.7182933524018,-389.7304456792772,-505.0849007311044,-359.1243424741551,-371.57280924823135,-427.1205006435048
2025-12-12 18:11:11.953298,Right,-334.5915938713006,-445.78378192463424,-460.674908816698,-411.4661073636962,-346.547676647373,-382.33656735380646,-402.6962571494514,-465.68031901691575
2025-12-12 18:11:11.957348,Right,-366.12557616550475,-481.755629445659,-493.52076741529163,-441.74891989369644,-12.949776749243028,-411.3356884632376,-436.6671744523919,-501.13235644367523
2025-12-12 18:11:11.961375,Right,-358.0146979658166,-450.5282003781758,-465.4782388561871,-425.05708666937426,-133.06457892846083,-394.27262050722493,-413.0879494159599,-471.07224887190387
2025-12-12 18:11:11.965371,Right,-331.48906822805293,-416.07169650972355,-432.459703154047,-395.3074615644291,-479.2610663481173,-368.2628621561453,-380.4570716180606,-436.4508203401929
2025-12-12 18:11:11.969390,Right,-339.7723896634416,-442.54301141703036,-453.65057837066706,-405.9198737302795,-392.40240802709013,-383.3771428639884,-398.46681012265617,-459.7445653654868
2025-12-12 18:11:11.973389,Right,-366.3518131900346,-473.38049318571575,-480.6007385465782,-430.0157756083645,-23.852922851161566,-407.90672812977573,-426.14045810571406,-488.5680044324836
2025-12-12 18:11:11.976412,Right,-360.040761789307,-444.4781643424649,-455.608021023334,-417.45339346968103,-62.64024411595892,-392.89253109972924,-405.49046887876466,-462.27794678893406
2025-12-12 18:11:11.982449,Right,-333.92709645279683,-409.39647583581973,-424.7365032316884,-392.5223522055894,-447.6818185826414,-367.08929376816377,-374.77067253459245,-430.7830732126022
2025-12-12 18:11:11.985434,Right,-337.7099417297286,-435.0729147248203,-446.88824871799443,-403.59397238190286,-472.19273226411315,-378.9425084454706,-393.0344746405026,-455.96848592790775
2025-12-12 18:11:11.989443,Right,-359.18303938920144,-468.7054285192862,-475.25468635745347,-424.95233732729685,-93.62044208723819,-399.25669482938247,-422.42737378319725,-486.880479473155
2025-12-12 18:11:11.993450,Right,-346.80889917031163,-435.5539993853308,-444.1509079315001,-404.6543125192402,-10.173627987271175,-375.76942000875715,-398.11532112176064,-454.11660827090964
2025-12-12 18:11:11.997457,Right,-312.34553936193697,-386.3453536101151,-400.21472970058676,-369.78239387238864,-363.72401116910623,-338.1982210922288,-356.29008956160396,-408.27846901712473
2025-12-12 18:11:12.000471,Right,-314.39304453152,-408.7869180138223,-421.9985480190953,-382.25838689447846,-485.4580302813556,-348.7038216555957,-372.1236376655288,-432.38285195536446
2025-12-12 18:11:12.004486,Right,-346.8831412635045,-460.09148282092065,-469.2134880707599,-419.5923508389387,-147.85662094829604,-383.39788716624025,-416.2268040627241,-482.68314506777097
2025-12-12 18:11:12.009501,Right,-344.20882038777927,-438.44580975780264,-448.68577375775203,-408.1992329740897,18.377667053428013,-370.3041843280662,-401.94934386061504,-460.74803536979016
2025-12-12 18:11:12.013507,Right,-302.6342786352034,-372.10281749931164,-386.84317120653577,-358.93225562071893,-289.1403568292735,-322.88122058985755,-345.86381200689357,-395.40012970392127
2025-12-12 18:11:12.017543,Right,-292.554789261776,-374.6312505583046,-388.5539110836107,-353.92033164645545,-480.8814341223333,-321.0813531097956,-343.4373761159368,-397.0886990727158
2025-12-12 18:11:12.021527,Right,-329.9985055841971,-438.17660642322153,-447.00176862301305,-398.39479639404453,-184.3450970981503,-365.5282706518192,-395.01771454385016,-457.72090863017365
2025-12-12 18:11:12.025540,Right,-341.5255940455827,-442.13303680333775,-450.52037245826796,-405.7444978347048,56.62509873689851,-370.5409592303913,-399.91393193555996,-460.24082581710536
2025-12-12 18:11:12.029548,Right,-294.1271381669212,-368.08837110584136,-380.70712740626186,-350.11210128013045,-199.2865657491493,-315.67354957200587,-336.30425219226163,-387.1170781236142
2025-12-12 18:11:12.032557,Right,-258.04430586798117,-333.79567132366356,-346.3470724353101,-314.67477529356256,-465.3875147929066,-284.43804822443053,-302.8072711699642,-353.0692137645092
2025-12-12 18:11:12.036602,Right,-285.26746855827514,-384.4023911252152,-391.67107452929486,-346.80422856716905,-240.88091808889294,-318.4516871330561,-344.51194604637567,-402.433220399078
2025-12-12 18:11:12.041586,Right,-318.991602488386,-417.03888225054834,-422.9132846147986,-377.71709116140846,51.1624829620705,-347.0425417786464,-376.0066301772604,-435.1262651733123
2025-12-12 18:11:12.045587,Right,-295.05319829378277,-368.6207884263713,-378.91332065849565,-346.79431988252327,-138.49715454911347,-314.7336423279485,-336.2584460390499,-388.48728474858217
2025-12-12 18:11:12.049553,Right,-251.544591583719,-321.653196668718,-332.9265944097424,-303.8161768205464,-449.56573223072337,-274.322462243028,-291.7796747259563,-341.5693337834673
2025-12-12 18:11:12.053616,Right,-254.60708516906016,-345.86394503409974,-351.4907184934709,-312.4135488405591,-286.75575792457676,-285.26583229680546,-309.1397121011978,-363.2313512818655
2025-12-12 18:11:12.057643,Right,-283.6142618143349,-377.8689507287927,-380.30685114266817,-340.7321932793129,57.52032013470307,-311.82261692686006,-340.11547966930084,-394.29249306663405
2025-12-12 18:11:12.060623,Right,-279.56073687720345,-351.1266185279237,-357.36105974717066,-331.6061021989444,-55.41532667184947,-299.6424836310325,-322.0562368314713,-370.2488374680979
2025-12-12 18:11:12.064636,Right,-253.2418406458455,-317.5543978626374,-326.0551975185517,-306.3397971796803,-411.20860338635975,-274.1636218553176,-291.6538678499637,-338.41644588904455
2025-12-12 18:11:12.068671,Right,-253.5851041750284,-336.79557749361265,-340.3319896956673,-311.3778502289206,-335.5988431828446,-280.4805666508619,-303.26710663118865,-354.56423689296935
2025-12-12 18:11:12.073649,Right,-269.9414341963129,-358.0329900428187,-357.16551653516944,-324.5169858675217,46.10779621475376,-293.12774161761627,-321.2250779143069,-371.6382420278387
2025-12-12 18:11:12.077663,Right,-257.31319798901677,-322.43252097070217,-324.72108393278904,-303.0593893225305,37.97448643844109,-270.7140413513407,-293.8224317569984,-336.160884220968
2025-12-12 18:11:12.081694,Right,-227.96713804098545,-282.55627490603365,-289.07799664500635,-272.9056175010046,-331.5788496650057,-242.5221203037072,-259.32463680312503,-299.031400103122
2025-12-12 18:11:12.084702,Right,-227.9714650780079,-303.0236434445251,-307.0143942668801,-280.1602004134329,-364.1085317557445,-253.54679278447293,-273.96941981103737,-319.8441901077749
2025-12-12 18:11:12.088711,Right,-244.64934789965628,-331.20149144681636,-330.87408726639114,-297.84276633523405,7.781909185228869,-272.6421824187273,-298.9040293028811,-346.2446191436611
2025-12-12 18:11:12.092713,Right,-228.03250419383403,-292.414240072947,-293.94050991279073,-273.4277665698901,99.29394558159402,-246.99405747815035,-269.2276814681245,-307.5845278290799
2025-12-12 18:11:12.096728,Right,-190.91396802169038,-237.47452594607603,-242.8302208618261,-233.77088423306122,-246.4877405455336,-206.91888739028946,-222.0743526876904,-254.7925431173062
2025-12-12 18:11:12.101691,Right,-192.59026664838893,-256.89635263360105,-259.58698121772613,-242.55563792877365,-368.78556590067456,-216.77117789769545,-235.44930447486695,-274.7409595029894
2025-12-12 18:11:12.105751,Right,-226.21731492661638,-309.36774807120673,-306.21535353793297,-278.3234487689333,-27.03269923350308,-252.52460548706586,-279.9035164862871,-325.16848655301146
2025-12-12 18:11:12.109774,Right,-222.25660997634986,-287.7033063445706,-284.625501217437,-263.7483970603207,149.34196342492942,-236.84919325850205,-262.6898929111194,-301.44363291352056
2025-12-12 18:11:12.112779,Right,-173.04988528357353,-213.02298545150552,-213.88041103293654,-204.73210287222173,-162.58342483721208,-178.4311065521324,-195.26232957735192,-225.51671391294803
2025-12-12 18:11:12.116795,Right,-151.56372885545716,-200.9353195449803,-200.4067792937858,-185.6400575088337,-378.5176764386124,-161.4949271393707,-177.5467345425859,-211.2737083908869
2025-12-12 18:11:12.120797,Right,-183.496722206939,-255.50082793436013,-249.5012605114607,-222.207046982483,-101.46551698824624,-198.4511964083067,-221.6769704526523,-263.3750596587779
2025-12-12 18:11:12.124801,Right,-202.54900148976594,-265.0132542127976,-259.1015419276664,-235.99903167958837,140.54468529310543,-210.5612265371019,-233.79594624962192,-273.0935385527555
2025-12-12 18:11:12.129810,Right,-170.38102112611523,-205.5762323148083,-205.32731277984567,-196.0180263031507,-109.05536259582732,-170.5505125320051,-185.07942106307019,-215.80613000236917
2025-12-12 18:11:12.133825,Right,-142.98583632078953,-179.7474975285586,-180.78748048376292,-170.27208329853602,-376.86829937493894,-147.49372754065553,-159.3992296551587,-189.5054927531164
2025-12-12 18:11:12.137836,Right,-165.19074783171527,-224.9671616043197,-221.14919104997534,-197.8558794343844,-148.78288024902577,-176.81915415055119,-195.73797123227268,-230.7841435461305
2025-12-12 18:11:12.140846,Right,-189.18333037255798,-247.45882378448732,-241.99827092478517,-218.81162306125043,161.79743906937074,-197.02752398361918,-218.4192882181378,-250.5792892962927
2025-12-12 18:11:12.144864,Right,-164.04212509089848,-197.8514880288858,-196.92266936879605,-186.31318652897608,-15.473708677280229,-164.89737277827226,-178.94823287904728,-202.28284017404076
2025-12-12 18:11:12.148888,Right,-128.13934059959138,-159.3026235596044,-160.34921386127826,-150.52728052437305,-339.7754662974039,-132.61974318895955,-143.02894196473062,-165.89509726676624
2025-12-12 18:11:12.152877,Right,-135.71840287733357,-189.15170950000174,-185.80881295050494,-162.49306415440515,-195.64763011981267,-147.73975841503125,-164.9298365013674,-195.50865113991313
2025-12-12 18:11:12.156883,Right,-157.18625556648476,-213.5291819081176,-207.76891977444757,-180.74745900195558,154.50121590238996,-166.01848349708598,-187.21458478522254,-218.77201175771188
2025-12-12 18:11:12.161904,Right,-137.52227588603273,-169.23100824700668,-167.7867352584144,-152.74113728763768,60.316419045906514,-137.8135840158211,-151.35826754540903,-174.72191645693965
2025-12-12 18:11:12.165923,Right,-100.17243516654707,-122.84551993955392,-124.55126859777374,-114.42931310913991,-298.53155297233025,-102.20127826556563,-108.47055616381112,-128.52133954374585
2025-12-12 18:11:12.168963,Right,-101.83321647014236,-144.0341412476264,-141.92357900983188,-121.38525603461312,-245.8391698708292,-112.06245286890771,-122.54157174692955,-148.34278621454723
2025-12-12 18:11:12.173007,Right,-125.45134938386036,-174.00048882851843,-168.43466319254367,-143.71483503450872,127.92346228443785,-133.52488148515113,-150.26736699877074,-177.92052338831127
2025-12-12 18:11:12.176998,Right,-113.02843306359136,-137.41429913725005,-135.71621263487032,-123.28055741410935,134.1063098119048,-110.218641520245,-123.73497356264852,-144.2463792092749
2025-12-12 18:11:12.181000,Right,-75.53705527394777,-86.35013434151188,-89.42175894032698,-84.57824693300063,-228.5286595567013,-71.04279781115474,-79.39097810606472,-96.34585047455039
2025-12-12 18:11:12.185015,Right,-72.2707651942037,-103.33655078010634,-103.9155991235748,-88.84789026586805,-273.3307288508804,-76.97909963416168,-89.33493162685772,-112.59928903519176
2025-12-12 18:11:12.188985,Right,-98.13351387809962,-144.07130846893415,-139.6484867965919,-116.77303699427284,90.4640264165937,-105.46842601313256,-123.51116980065126,-150.47115509788273
2025-12-12 18:11:12.194008,Right,-91.91200217203004,-117.23052008805098,-113.72869935748167,-102.27134503686102,190.4145327921142,-90.75987999641802,-103.81172242522007,-123.50482430576812
2025-12-12 18:11:12.197024,Right,-51.876275375136174,-55.495934147096705,-55.428840245178435,-56.94082490541041,-149.3418593404931,-47.065416705503594,-51.3860853703809,-64.28250416915398
2025-12-12 18:11:12.201971,Right,-41.62364691414405,-57.696450176881626,-55.33455010293983,-51.59603364317445,-279.4577748667216,-43.99479500553571,-50.502152368135285,-67.27825671056053
2025-12-12 18:11:12.204978,Right,-72.33799687970895,-106.67259103269316,-99.22778895398369,-85.9551035866607,57.75703210319625,-77.73665059200721,-93.0566061520367,-114.60557652096031
2025-12-12 18:11:12.209107,Right,-80.44678130268585,-101.04429116356187,-94.5636586866458,-88.27299997239606,244.33107283036225,-77.45644855633145,-92.7876204684726,-108.52833736478351
2025-12-12 18:11:12.213069,Right,-44.08111759851454,-42.268753699434455,-40.719729594828095,-46.823896767396946,-57.84343944650027,-35.84535530320136,-43.84112927678507,-51.291645730205346
2025-12-12 18:11:12.218077,Right,-22.19957176729804,-29.00085287197726,-26.844494866149034,-29.307527647120878,-275.0027251698775,-20.836835053225514,-29.036678016767837,-38.31589090405032
2025-12-12 18:11:12.221093,Right,-44.54353675682796,-71.87174137245165,-64.21293953817803,-55.99194692308083,4.019727788952878,-48.323488533787895,-64.52704920014367,-79.83308895677328
2025-12-12 18:11:12.224108,Right,-58.51666696165921,-76.27558652637526,-67.77371505770134,-64.35187325876905,259.6865759007924,-54.83225360827055,-71.92822622245876,-84.72864487004699
2025-12-12 18:11:12.229091,Right,-29.505500870931428,-21.967970774392597,-18.012588747253176,-28.009725731855724,17.771367605339037,-18.356372958398424,-26.68939528980991,-32.91419506224338
2025-12-12 18:11:12.233120,Right,-4.364040255488362,0.05330065230373293,3.2346059894771315,-4.597234869375825,-260.56319894763874,1.5835892720497213,-2.4749621083028615,-10.756217047630344
2025-12-12 18:11:12.237121,Right,-20.850600478821434,-39.062373063119594,-31.28959604172269,-24.919699105608743,-43.233693969465094,-21.856525804148987,-30.699130331806373,-45.79240525944624
2025-12-12 18:11:12.241134,Right,-35.76868859899696,-50.702055826201104,-42.172444379131775,-34.65101352176862,272.1434636397171,-31.496317913988605,-41.67420404328732,-54.55790965317283
2025-12-12 18:11:12.245143,Right,-7.676826278795488,3.0837479696492665,5.763686182675883,1.0054227084037848,97.79623983346391,4.639669483702164,1.5652878269320354,-2.3706277671735734
2025-12-12 18:11:12.249159,Right,21.980225539708044,34.43432543508243,33.90842707839329,27.78707733680494,-243.95275685930392,29.548320178320864,29.657417972688563,26.95223667297978
2025-12-12 18:11:12.252151,Right,4.623257651255699,-7.554843367775902,-4.094704884104431,2.34393657365581,-118.50530234945472,2.39109575402108,-4.371264213172253,-13.298168797569815
2025-12-12 18:11:12.256122,Right,-22.841019198327558,-38.946339337853715,-32.51003597531235,-23.718225634249393,238.8607530957088,-22.211702467669966,-33.48086404876085,-41.49856035551056
2025-12-12 18:11:12.261170,Right,-4.672770684177522,5.167610377713572,8.275346261681989,3.2124213775387034,164.73653036830365,7.200931972503895,2.060292972251773,3.703210433362983
2025-12-12 18:11:12.265198,Right,29.600491422752384,49.31948886072496,50.466692358255386,38.83584944481845,-192.75705303178984,42.85277941712411,43.11275272196508,48.3195008028415
2025-12-12 18:11:12.269211,Right,19.58525395471952,17.38725681399228,24.092001760203857,22.322336638142588,-153.39871560614847,25.264572113926988,20.165504980337573,18.678042325773276
2025-12-12 18:11:12.273250,Right,-12.352901600854238,-24.595502220734488,-12.146969930909108,-9.758645377965877,220.94407243438764,-5.845910750300391,-17.08034675361705,-21.26419868390076
2025-12-12 18:11:12.277183,Right,-0.7568951886205468,10.661288090603193,21.332692204538034,10.419460526492912,240.71553382738784,15.951999410899589,9.352787906391313,13.044750401692
2025-12-12 18:11:12.280242,Right,41.49499836360337,69.83509152007173,77.01631235418608,56.21820075073629,-123.30566499235283,60.791106920310995,61.16684577256092,70.46325439767679
2025-12-12 18:11:12.285278,Right,45.297768631455256,56.300124191417126,66.56955149839632,53.91412126540672,-187.21775779470045,56.547604274586774,53.38379550707759,57.75858452930697
2025-12-12 18:11:12.289273,Right,11.922682974574855,7.3066635712457355,22.77628615865251,17.216634159209207,166.71570438823255,20.80108037852915,10.205720705300337,10.337165640899912
2025-12-12 18:11:12.293282,Right,10.867823375185253,24.19199131289497,38.520492482348345,21.787065208045533,273.8474247228587,27.938948509196052,19.740259695070563,25.443342677433975
2025-12-12 18:11:12.297230,Right,52.65271907579154,86.16454790055286,96.57962857268285,67.43796982974163,-62.09173577876936,73.17170395632274,72.51916600880213,83.55286247146432
2025-12-12 18:11:12.301310,Right,70.81280033613439,91.63767821033252,104.07241041041561,81.46249309988343,-197.33449056377867,84.02391064816038,82.02382034665789,88.14065364951966
2025-12-12 18:11:12.304249,Right,44.16350937905372,46.110485107434215,63.58281043168972,53.129945713997586,142.59509266808163,54.51654225937091,45.142237964464584,45.20181338908151
2025-12-12 18:11:12.308305,Right,32.18097849781043,46.626683670066996,62.745890058606165,48.84559389579226,338.9748760694347,52.01777876200504,43.220089622889645,47.30167670460651
2025-12-12 18:11:12.312342,Right,62.237925968976924,98.13402131633484,108.3096842856321,85.33653897431213,32.83995464606414,88.94877289533906,87.17137498068041,97.78591847742791
2025-12-12 18:11:12.317359,Right,81.973958892675,108.34299884169013,118.10177650852711,101.37023282857263,-198.68435707738536,102.34115693443164,99.70513520255918,107.55358668460394
2025-12-12 18:11:12.321344,Right,61.75215405684139,65.63889435277088,80.54936050562537,76.6972272166604,85.45180280770728,76.021389166257,64.17953134904383,66.39708590239752
2025-12-12 18:11:12.325312,Right,50.4080596499407,60.99612583624548,76.750015576632,69.94200424272276,368.561819270697,71.52509009066853,56.17548910144251,62.60058276425116
2025-12-12 18:11:12.329380,Right,80.37898548593512,113.39843777334318,124.20377349034243,104.87754991998372,140.66834261130862,109.62897294170398,98.8309883845941,114.27510250048363
2025-12-12 18:11:12.332385,Right,104.24563069542637,131.03866912872763,140.4529572683532,123.10087437077891,-152.56504316802602,128.66764152326505,117.36247701161483,132.96756655510399
2025-12-12 18:11:12.336393,Right,84.1956803406938,84.41018695867388,98.53573083518131,94.84957216342445,52.01207350621917,100.46804575510032,80.56993034499465,90.47701761823555
2025-12-12 18:11:12.340416,Right,65.13212050542643,65.138225120696,81.22387752957002,78.3198804903368,379.47291107421916,85.26963184388296,62.28353243389574,74.42763454269152
2025-12-12 18:11:12.344431,Right,91.38138992074528,116.22400227164326,128.04509023897117,112.43113630995504,217.77091276825377,120.24416502446547,104.37354408149258,125.09883462129801
2025-12-12 18:11:12.349415,Right,122.38442451089213,150.3043969260616,160.05586768040666,142.6321980858629,-136.82886303672785,149.50190427162306,136.97003786676214,158.2810977474728
2025-12-12 18:11:12.353393,Right,106.95098717857036,111.10391334838641,125.46383066778071,120.72326279951085,-31.654795146676406,127.53858237795066,107.12232735349971,120.82149614958325
2025-12-12 18:11:12.357450,Right,78.46703091241943,77.95733025172376,95.73538423510035,94.05353707366157,326.58334916599233,103.82202333567693,77.04478037163062,89.72862899446045
2025-12-12 18:11:12.360453,Right,92.82652567185869,117.79881525869132,132.2426189573307,117.34522958801972,263.8605240529205,130.4511209083721,108.08002576228319,128.8209075317718
2025-12-12 18:11:12.364498,Right,124.27423773011833,160.27651621920086,171.63649024088227,150.86183404962503,-99.86672870278471,164.68788043013046,146.1209731908748,169.40742414622218
2025-12-12 18:11:12.368497,Right,113.72735356200428,129.1627544252915,144.01370399695588,134.85880361602904,-80.14142631545656,148.19712754253487,122.3276864737345,138.07638605561806
2025-12-12 18:11:12.372502,Right,80.39277094190766,85.54494165564392,104.26083162953728,102.27685599549295,286.5416445805604,116.0159496340093,82.22656751268369,94.5485571658719
2025-12-12 18:11:12.377517,Right,88.22279996470388,115.44383374610698,131.45499886513426,119.34707169988542,310.8355025388082,132.3648524834989,102.625772739877,122.55380669917213
2025-12-12 18:11:12.381466,Right,128.09629110864626,170.359147227613,182.55235325417925,163.2827849897094,-56.311529183110906,172.14616360641048,150.14892400830286,175.72960728493126
2025-12-12 18:11:12.385528,Right,134.2868954716414,157.2989115393866,172.04406205649593,163.902649426037,-129.42008047939999,168.04108699823215,143.84772160680768,164.40810835203956
2025-12-12 18:11:12.388485,Right,104.46619244110843,109.92550580310854,128.75394405885618,131.52305733512253,229.19093780444382,134.7613586552361,104.28930531437982,120.64276779626562
2025-12-12 18:11:12.392554,Right,100.99872196679962,122.96194019535733,139.1369817961995,134.45760895244257,351.683038475785,139.54894015807986,112.45464135840172,135.28467619525463
2025-12-12 18:11:12.396568,Right,133.3437994338392,174.75212167732843,185.5245278541206,170.57901874758136,13.626704403792246,175.71788576784456,157.75389461503164,187.4375150261517
2025-12-12 18:11:12.400590,Right,140.7735945713539,168.55366464518738,180.3221566164757,172.0595765799917,-147.81885742819577,175.02345936016354,158.20768898319147,183.8729716390444
2025-12-12 18:11:12.404593,Right,106.35396684249281,113.67677903731601,130.1254923032102,132.73823181125408,172.52689025066138,134.8943626514265,113.48992540963445,132.7514272941844
2025-12-12 18:11:12.409705,Right,89.8243946978946,109.14052188447386,124.2397917972703,120.97328382913838,375.79337545268936,124.04697254855273,106.03048115824276,128.49297149373888
2025-12-12 18:11:12.413613,Right,117.95166467507443,160.86691466118282,169.87336163365399,154.19021073475596,78.06258219521987,156.35467723837064,148.5464145917358,177.16565354901104
2025-12-12 18:11:12.416635,Right,135.9597974234821,172.3287769912131,180.49922512928606,167.99392186041223,-171.59240595589654,166.97044107360125,161.69560785712383,187.34604481410497
2025-12-12 18:11:12.420657,Right,110.15804746399226,124.88278480312147,137.80070544141927,136.63834880234208,84.10165552567923,133.79056523151667,122.67401225521462,141.88893449803436
2025-12-12 18:11:12.424654,Right,89.5035810726622,110.2360013001744,123.67982234577357,119.29647317543277,359.2132330864915,116.70860806943529,106.2051002029184,128.19973901194317
2025-12-12 18:11:12.430674,Right,111.77881412004353,155.84356927951012,163.75260225642705,146.78927271925204,136.52542021231056,143.1054478445003,142.32561054007965,171.5407837814928
2025-12-12 18:11:12.433669,Right,132.32933529384172,173.1077325473525,178.6133722687373,163.4857192469426,-166.16122693039506,156.75849733763607,159.82267915675766,186.75099202315323
2025-12-12 18:11:12.436686,Right,109.44624138653307,126.02466872947116,135.22490337207273,133.8321907538775,17.285669297227287,126.00413582241163,122.12841510760336,140.23814843661967
2025-12-12 18:11:12.441775,Right,84.9788335952544,102.18537585064769,112.68383040650224,112.06215502723353,337.3228954782535,106.21930955548305,99.53120953650796,117.12993740479578
2025-12-12 18:11:12.444669,Right,107.20309815487417,150.22649556778197,155.96962404300575,141.80383054041886,181.48504218998278,136.6710587420821,139.1852562631102,164.0912922189018
2025-12-12 18:11:12.448735,Right,138.99012368283002,186.46098457393236,189.600097238741,171.98074786769575,-176.79528874305106,163.83499522742932,174.1959054590552,199.51942618816975
2025-12-12 18:11:12.452719,Right,124.18845938172308,147.36303366621723,154.56860563407827,148.27180309368123,-84.40470456327603,137.30235708324471,144.08977311034687,161.29413126484724
2025-12-12 18:11:12.456745,Right,90.50838360715716,106.04022889076441,115.9855285758531,112.37817027537676,275.33392661252583,102.07749836749281,104.8458576573612,119.67137372556317
2025-12-12 18:11:12.460747,Right,98.0394829648867,136.4528092288965,142.05552516340686,125.14160999751766,229.91503451563767,115.93117066401464,124.67812310416775,146.36895677367283
2025-12-12 18:11:12.465817,Right,129.70414915904985,178.85713934793603,180.32398165061022,156.92813651511096,-124.30594306023704,145.68170896416996,160.5927293709974,184.64691227930598
2025-12-12 18:11:12.468789,Right,126.62682669264905,155.58740548070637,159.9429254787683,147.54639817036514,-108.1832304251293,133.46467961612507,143.72455852976418,160.453458083226
2025-12-12 18:11:12.471807,Right,99.69047855658573,117.5870286408026,125.53071406946401,120.18980301154079,261.258764619648,105.9432953291689,109.87697002159257,122.84674634582188
2025-12-12 18:11:12.476829,Right,107.44614480531891,146.6322527939774,151.29245405360416,135.17266593550448,297.3141602922551,121.30744782848342,129.79656712134602,149.6478251637309
2025-12-12 18:11:12.480836,Right,143.0234194528166,198.17147162585752,198.17660845984938,172.423211587462,-71.00385609720252,155.49124273881898,172.42523480510863,197.36588380733156
2025-12-12 18:11:12.484847,Right,144.64955442133942,182.280416739668,184.71752921218285,166.59414798564103,-161.7944681932131,144.81162278709235,161.26638790940342,180.4771416282165
2025-12-12 18:11:12.488853,Right,111.25721328258805,132.10908356313303,139.62134804573725,130.12831530628318,188.22440793922578,106.64540111670794,118.97185288804758,132.56806408177363
2025-12-12 18:11:12.493867,Right,105.4580726189597,142.68225759780034,148.43963287366205,131.59170300967526,320.8591496148001,109.55207495909417,126.59340512736526,144.91930377174867
2025-12-12 18:11:12.496850,Right,137.35393608402228,193.74306478974177,193.40843913995195,168.1892502632254,-12.368172024012893,146.4499012821907,171.92476396635175,195.79631524224533
2025-12-12 18:11:12.499897,Right,146.07267701385717,188.21141943355906,186.88124131780933,170.84979283084976,-188.55489758137264,147.51713762350846,170.95345422519313,190.18691505416064
2025-12-12 18:11:12.504838,Right,113.32394354316057,134.24617244981346,136.33087826668634,132.8869792121841,118.0370749157737,109.1642003186862,123.79050510388333,136.74085818248568
2025-12-12 18:11:12.508903,Right,97.27014025914832,130.5038953399926,132.1880472933408,122.59860724164173,325.95059825746284,99.63871467536956,115.12927351529652,132.3500997182855
2025-12-12 18:11:12.512911,Right,123.13977452422841,181.13058037374867,179.34332585905213,155.54589938401477,36.34890541032655,131.12583362296573,157.2618327200762,182.21529890038073
2025-12-12 18:11:12.516996,Right,134.98844786341942,186.26719027233776,186.34228635768523,164.42919672038988,-217.76733146843617,136.7474716684519,167.13872011445346,190.06940014846623
2025-12-12 18:11:12.520990,Right,100.40988584831939,128.1373709079926,134.71610921408865,124.31107914660242,32.6563895373838,96.1420753790735,121.02329377891147,137.62531830492662
2025-12-12 18:11:12.523994,Right,72.38215252126975,105.17240571678849,113.07227836819948,99.57787713376456,314.49302448454546,74.48972701079038,98.29803509416524,118.18443606828805
2025-12-12 18:11:12.527933,Right,91.16219960880699,148.9587931711867,151.61475297104334,124.15385993136442,96.98508346398012,100.91327635587368,132.67354984974372,161.3848843628948
2025-12-12 18:11:12.531978,Right,110.31103438459104,166.6242298388097,167.02864186221268,139.69226686292677,-215.5981909983966,114.83410981482302,150.3825746406801,178.21100813601515
2025-12-12 18:11:12.536978,Right,85.67825797504338,116.35338117406354,120.51543728960678,107.17529513043701,-41.09924403841433,81.23132752717356,110.62794695846969,129.22395756290643
2025-12-12 18:11:12.540992,Right,59.30841139300901,86.41372486070031,91.77962583242333,81.29261076429975,291.6458585252258,57.4500288348936,83.25819702504668,99.671126186935
2025-12-12 18:11:12.544998,Right,80.1548140358791,129.59455581667135,130.0854810011224,107.58024224833935,160.1099292763538,85.49247722637665,117.4670460781781,140.32668348166044
2025-12-12 18:11:12.548972,Right,110.2603642892791,163.32010629714932,161.42328065732727,135.3162867417268,-185.7008859183843,111.52053942743805,147.9708015868382,171.95013454629225
2025-12-12 18:11:12.553032,Right,93.29867796621693,122.95435800999985,125.97600576496916,110.41299897350837,-91.97456146165496,84.28207938506966,115.59826105544926,132.5137247996754
2025-12-12 18:11:12.555984,Right,58.95557410649781,82.18666874268092,89.23403193548438,75.81017070086091,272.57979669778433,50.259479695072514,77.82823265163461,92.60662455001147
2025-12-12 18:11:12.560054,Right,68.40654134808574,115.33325720569701,119.03064422964235,91.78705796698341,229.2851002728712,68.10607964570227,102.17461434495635,123.43664699755027
2025-12-12 18:11:12.565058,Right,102.13966254195839,158.9863232144853,158.78647859679768,124.68008428317262,-141.69669887093187,101.14207525107486,140.82253290872904,164.13910606413265
2025-12-12 18:11:12.569063,Right,98.31078281898226,131.3261960578675,133.88668452829006,111.06593615945894,-150.18763331968512,87.321465706249,120.29220725657069,135.98777823671116
2025-12-12 18:11:12.573081,Right,68.02414588704414,84.74718569454853,91.02966638008365,76.08471010491485,215.09923189278925,54.39203703770181,78.07034614143777,88.98526164231589
2025-12-12 18:11:12.577036,Right,72.3332149393973,106.65204240966705,110.00596947653685,85.0218524315278,268.18279513578454,65.50884423703246,91.4560707626224,107.2242573853
2025-12-12 18:11:12.580059,Right,106.05469123306102,155.41621264914284,154.02856982705998,120.20070175040746,-89.45113715174375,99.35622240995872,132.64965208736248,151.3505254863121
2025-12-12 18:11:12.584114,Right,106.5642211730883,138.1901521354157,138.31905956601258,113.68890973785892,-184.82045386686514,89.77719239075668,120.78305450163316,132.75530308290035
2025-12-12 18:11:12.588128,Right,71.42091094393982,84.76643814097042,88.62332865266944,74.60083533910802,167.24831375677604,50.53453895394341,73.52221727723372,80.4508002094517
2025-12-12 18:11:12.593125,Right,64.71025359752821,92.77040142245824,93.84078991037677,73.04233564483002,317.20891630662663,51.53823382309929,75.12190609954996,88.26448560858262
2025-12-12 18:11:12.597095,Right,98.642997288669,146.04108147445368,140.86084550831583,109.99269014311722,-6.32604298327351,89.62916442057758,120.1826613197918,140.26373508319375
2025-12-12 18:11:12.601164,Right,110.63113656212226,144.8959438773163,139.4762870146078,115.68607560847886,-192.89735520409886,94.56447025379748,124.40179624265875,140.33811726566637
2025-12-12 18:11:12.605185,Right,79.01691104832571,91.4403521239874,90.27545303018996,79.29565353720682,104.60404124208435,58.96004356039339,81.34041680471273,90.34260246393387
2025-12-12 18:11:12.608213,Right,61.8719144454808,83.71333875868004,81.7179281519202,67.60174006281886,321.4999449655734,49.650541816605255,71.883065825823,83.90928474551765
2025-12-12 18:11:12.612230,Right,87.42780688308994,130.82326436493895,123.13448323096964,98.71922478513443,42.28635112178745,80.92205324316456,110.42740127001889,129.0829189782089
2025-12-12 18:11:12.616214,Right,102.0184827222838,136.31334866414545,127.62139408520306,108.31369344703853,-218.3707331105834,88.1930144145881,117.70364247375983,133.37004203090328
2025-12-12 18:11:12.620245,Right,72.60469894994458,81.13418565044412,77.19021196448011,71.84365440288093,21.313034574966878,51.250214963496546,71.70949843514245,79.57253551168833
2025-12-12 18:11:12.625282,Right,50.51955647469731,62.33202473810525,59.63622727189795,52.94496619669371,306.31646049507253,35.165601876113215,52.88458841614192,61.847825000964804
2025-12-12 18:11:12.629239,Right,75.72068910949747,112.74450944850105,105.74719298220589,85.41018391330726,94.05073274931055,69.98613594842027,95.87612665645429,111.79933967778925
2025-12-12 18:11:12.633301,Right,100.25864801267744,137.72280120820506,129.8853226340725,108.35247601990704,-230.31985619319312,92.59022610059765,122.95805681197089,137.91263753231033
2025-12-12 18:11:12.636259,Right,75.4503077801055,88.5421228359337,86.1238054028945,77.05511716616456,-71.8878941442672,60.94873838721833,84.99010408757022,92.48054488521302
2025-12-12 18:11:12.640292,Right,42.157025718988734,51.24305068148533,51.174123083561426,44.95608440693468,264.340233615294,30.488170756128966,49.894755141926,57.21798135674908
2025-12-12 18:11:12.644302,Right,56.03158818749944,86.4295946729253,81.21983856023871,64.66448281737394,145.95411967251857,51.345947846537456,75.49103696414386,90.02944487493369
2025-12-12 18:11:12.648292,Right,85.91653288094676,118.90260388230672,109.866851543542,92.09299646056024,-204.91150667206966,77.5949975635449,104.25091820492526,119.51238798408303
2025-12-12 18:11:12.652315,Right,73.0440489534667,80.90785811498063,75.35257148029632,70.63478887101519,-130.99030499663786,55.48839317902457,74.02864934768877,81.88069142121822
2025-12-12 18:11:12.657314,Right,39.47079744297662,38.86171024281066,36.65211404659203,36.376593393215444,227.74145610744017,23.533955426857574,34.91727928625187,41.33193172997562
2025-12-12 18:11:12.661345,Right,45.13097939448198,67.70152134870295,61.93892601146945,49.09992719744332,197.2229058642697,38.48611869363231,54.458771223115036,69.04742204863578
2025-12-12 18:11:12.664348,Right,76.16187800331682,110.1673994391167,100.07960578470374,80.41054455356789,-166.5809438089782,68.46700439532287,90.83790410350775,109.13395768037299
2025-12-12 18:11:12.668346,Right,72.86725377693074,84.54308462343761,76.4003154632519,68.3338274107955,-182.16752477221598,53.73976407109876,71.82220371888252,83.14032420204603
2025-12-12 18:11:12.672375,Right,42.44779648739495,37.917505645309575,32.83741467114305,34.442515889852075,178.6720287231292,19.754617124272045,30.551261776767205,37.06506764606456
2025-12-12 18:11:12.676383,Right,43.766133529978106,56.770367551012896,48.85954694604152,42.59186464935192,234.03244029949565,29.047764936767635,42.76079900772311,54.72082315821899
2025-12-12 18:11:12.680400,Right,73.85187609127024,102.81611590864486,91.1555502951378,76.96728599643393,-131.91330504926736,62.10312868645997,83.28275488404324,99.73239725906751
2025-12-12 18:11:12.685397,Right,71.69040337800106,83.63845818891423,75.01276744363713,69.92572354734875,-247.07717069326463,52.25052752874035,72.02207814689609,83.07461819369928
2025-12-12 18:11:12.689431,Right,33.80495343862276,26.871872805582825,23.41156832323759,28.8268243164639,96.76551589630253,10.906883073272184,24.25778646004619,30.250738023634767
2025-12-12 18:11:12.692441,Right,23.780407326950808,30.653824655571952,25.363125254458282,23.933911273852573,256.4012293749256,8.474594113096828,23.371724191325484,34.50274416303728
2025-12-12 18:11:12.696430,Right,55.46190753139672,81.69808258421835,70.65685463984846,58.825997887397534,-62.55438116090954,45.071708908100845,66.0274157733511,82.81439310722635
2025-12-12 18:11:12.700456,Right,67.23120366531657,80.68122408646741,69.72933273375384,64.70866307186952,-261.4795010318194,51.135646012451616,68.92290099180536,80.21093790489249
2025-12-12 18:11:12.704477,Right,35.63402279962611,26.98642657592427,20.735429980239132,28.463238966971403,26.52630362680793,15.934995853822329,23.99343441001838,26.769022563268663
2025-12-12 18:11:12.708491,Right,16.92732695818995,17.646856144361664,11.139739312638994,15.019598610961111,252.01128015395807,4.448082740796963,11.63462246893323,16.089035396726103
2025-12-12 18:11:12.713500,Right,40.3224106754933,63.84992283748579,52.06102543184534,43.607838076364715,-15.878941760653106,33.12648904240632,48.47036941093393,59.1601418054488
2025-12-12 18:11:12.716502,Right,53.430433857720345,69.56680791405961,56.909686597718974,51.09508861070208,-276.96172943503916,38.93612809748447,56.110812549173716,64.42373346723616
2025-12-12 18:11:12.719495,Right,21.823322495503817,12.73614660295425,4.927334835359943,11.631251687576878,-34.65994005866378,-0.2199645459477324,9.638072360408842,11.167566498770611
2025-12-12 18:11:12.724517,Right,-4.152120128361275,-10.486030565371038,-16.930124940670794,-11.895387494761962,270.43837961107056,-20.690596076994552,-12.8567843571509,-9.188418670513784
2025-12-12 18:11:12.728524,Right,18.4915241219569,37.106060470978264,26.121375537783024,17.31526049868262,77.85391781776707,9.956189313175855,25.901904821002972,37.402193086760235
2025-12-12 18:11:12.732576,Right,45.245683509638184,64.60076616115111,51.990082988355425,41.66601589751372,-249.7203188898493,31.806610561849084,52.40762013226049,63.01913543349656
2025-12-12 18:11:12.736540,Right,25.609797690354753,20.745467978151282,12.733963451668387,14.909935980191221,-106.32988383439806,2.669561424801941,17.35504590976052,19.409610248229
2025-12-12 18:11:12.740566,Right,-5.031298037341912,-13.55616904195631,-19.337863144246512,-14.159347079723375,227.10672560551757,-24.68604840915941,-14.841963854705682,-14.301330455942662
2025-12-12 18:11:12.745586,Right,6.7777360171457985,21.37787886284059,11.008378227823414,5.390811690929695,114.84833104034624,-1.703061388383503,12.27236394524516,19.654916989806225
2025-12-12 18:11:12.748591,Right,33.20937678667542,53.23528384626843,39.60673292829597,32.02599650732009,-238.84265066228545,25.820008339287597,42.534509391116444,51.02963210924645
2025-12-12 18:11:12.752590,Right,19.800744991749525,16.21692602314579,6.462027352696168,11.867582245424273,-170.44025263224466,4.546294117346406,14.68087775062304,15.802617306399043
2025-12-12 18:11:12.756607,Right,-10.300035753884003,-23.022749139898224,-28.79316870184266,-18.580922372857458,199.38393992650526,-26.320925367079326,-21.20017000331427,-22.035279053176055
2025-12-12 18:11:12.760622,Right,0.625572405217099,10.137988613016205,1.9319647137599532,-0.8834968615701655,187.88505573309521,-9.135837801120942,2.3623468445730396,9.348816767931567
2025-12-12 18:11:12.764622,Right,35.091119195581996,56.513512197110686,45.41263613614137,34.20384972993634,-176.58317905434524,23.665172675740905,42.307270654680906,53.055785667776945
2025-12-12 18:11:12.768583,Right,30.60207556790556,31.006152004614705,23.272177357430337,22.15343613686855,-210.92662922315503,10.040913139557233,23.858036833786173,27.510973335418385
2025-12-12 18:11:12.772639,Right,-4.73828165960731,-19.657562552645686,-23.473549518545042,-15.54155346135667,143.8448652461011,-25.590720058622537,-20.306394623199594,-22.062918370123953
2025-12-12 18:11:12.775607,Right,-6.980282999982592,-3.9576743710786104,-10.994979187715217,-11.019660879697767,214.2850911270507,-18.121132748266973,-10.820108630723553,-7.734904185781488
2025-12-12 18:11:12.779668,Right,24.63234161217406,43.936913585159346,31.622569899700466,23.63879142065707,-141.60919409259805,15.902230278312345,30.23586148621689,37.56904112835764
2025-12-12 18:11:12.784665,Right,25.841172959291725,27.98607615068613,17.434809395170305,18.800931774443598,-264.6373555735627,8.396439885924337,20.333371179629466,21.933174527832307
2025-12-12 18:11:12.788640,Right,-13.19935397055815,-30.422283544321544,-35.53459207138803,-22.761585041254875,75.40546214647475,-32.9720701717597,-29.132944402488647,-33.57072302643792
2025-12-12 18:11:12.792701,Right,-28.74701436374744,-31.442910645302618,-37.05890226652264,-30.05545312477625,250.3830826835765,-37.51457804031088,-32.739525705677806,-33.25354335321754
2025-12-12 18:11:12.796709,Right,0.35875001257954864,19.339492810249794,8.819037372348248,5.677494720643153,-52.620636266772635,-1.1181553784190328,11.53770809721027,16.339082631107885
2025-12-12 18:11:12.799677,Right,16.49138820472581,24.21700219665945,13.634335598777398,16.59867223524634,-251.0130980273061,7.7605890967388405,20.149591775189037,20.437412194514764
2025-12-12 18:11:12.803760,Right,-8.080940929074131,-23.37374554661801,-29.60991914920305,-14.830172158726782,36.40912454815407,-24.351626440649852,-20.232713552009955,-26.722456817748025
2025-12-12 18:11:12.807756,Right,-22.05819739180879,-29.423489214503206,-35.68987180431577,-25.529284463824297,271.81766726247224,-33.20869143560412,-30.410612109757494,-33.40328828601923
2025-12-12 18:11:12.812774,Right,3.7767072957067285,19.719634138207766,9.021536252192163,6.27996201258793,6.4045414603024255,-0.35806575647438876,9.80413055477402,14.397765470072045
2025-12-12 18:11:12.816824,Right,17.993642883644497,28.187450173980324,17.691900845042255,17.72449581145338,-273.4769934516262,10.368015784682939,22.14208619637793,24.363832377901417
2025-12-12 18:11:12.820730,Right,-14.96167764980055,-29.3944570530075,-34.12021341518994,-20.373485475494817,-51.027539081449504,-26.72075972257153,-22.39727547654911,-28.711883207128267
2025-12-12 18:11:12.824829,Right,-45.09609039233328,-57.048781847443024,-59.756978185141634,-46.26133078584826,255.4316204459974,-48.76637500911602,-46.94551602110005,-53.358796087464725
2025-12-12 18:11:12.827816,Right,-26.95396145505947,-13.38228478795645,-20.31860868919466,-20.1190537142611,73.61019670942187,-20.107233931506926,-11.024627086102555,-10.325593460787786
2025-12-12 18:11:12.831820,Right,-1.9780471237681923,13.520442925495445,4.828669020178495,3.4572826054136385,-255.23964056540353,2.1309004214708693,14.277234734974627,15.325181614098256
2025-12-12 18:11:12.835839,Right,-20.120280335519055,-29.040673107941984,-33.50555790332146,-22.122939741973823,-116.87052074253734,-25.374842688084755,-21.419361845881213,-27.087975790695054
2025-12-12 18:11:12.839782,Right,-47.14519483224285,-61.4326167977415,-63.939433466373885,-49.41763570763578,228.08722306010532,-52.22993741215396,-54.52221960094175,-60.49533441400854
2025-12-12 18:11:12.844867,Right,-29.64662393739127,-21.91993923597329,-29.238891027307545,-26.61282942740945,134.21927476827477,-28.960520495402307,-26.270773530035513,-24.910487095752615
2025-12-12 18:11:12.848860,Right,4.127922284176748,17.479536822487717,6.431092752107361,5.306829986315279,-220.76313454404226,0.9289101286594814,8.355673205966013,10.716370011061372
2025-12-12 18:11:12.852818,Right,-3.9245812136869063,-14.163272368488833,-22.111885902224458,-10.76308199900086,-170.77770013691043,-17.0752927760077,-15.628317702256027,-21.749749829767097
2025-12-12 18:11:12.855871,Right,-34.42597614215629,-54.51364251501218,-59.491131495018635,-41.89731389884764,189.66752563082264,-46.892022903455654,-52.10018316691276,-62.19420999263093
2025-12-12 18:11:12.859876,Right,-28.276700904174504,-26.239187921746634,-34.87039125970841,-28.38917962027699,182.58427135719103,-30.915695480638533,-31.935064121305913,-35.92194555534661
2025-12-12 18:11:12.863898,Right,2.2852763425034937,17.076718904478184,4.516349796955183,3.413167177761352,-181.40173502463585,1.0181155802492867,6.431614925819304,5.846065272722626
2025-12-12 18:11:12.868987,Right,-2.346123966457526,-8.41290457580908,-17.726491513578367,-9.103824061738123,-219.65145474562814,-12.275228094349586,-10.650683999352623,-17.592087788427307
2025-12-12 18:11:12.872973,Right,-35.63928833030877,-58.148479894509364,-62.52104213686107,-45.86914515874378,145.6109402602633,-47.357035281471326,-52.68394227443787,-64.04234447600538
2025-12-12 18:11:12.876972,Right,-35.32692773211966,-40.331612326404866,-46.42274340054246,-39.6063027850505,238.86687569056448,-38.22526620888311,-40.431424969414365,-45.98632301575708
2025-12-12 18:11:12.880918,Right,0.4613722043031885,13.252397532440227,3.0843277004369156,-0.9609220505481062,-109.9604345431344,0.7143581001873827,6.211404884699732,5.903697389880108
2025-12-12 18:11:12.883920,Right,8.043514460954611,5.152648045186652,-2.5238274922885466,-0.2285757731515332,-251.52293612857466,-0.02095706819818588,3.7146555519811955,-1.5496060291698086
2025-12-12 18:11:12.887966,Right,-25.3172740190239,-48.60171326869386,-50.38198151787583,-38.85352129756757,68.6007487435345,-37.69879286419928,-41.83535581392243,-52.60826850513695
2025-12-12 18:11:12.891969,Right,-39.36494710436273,-50.93505302628,-52.91521734228263,-48.706828055888764,239.53247213131908,-44.27250344260028,-48.21540255207765,-54.228801389861474
2025-12-12 18:11:12.896009,Right,-13.597744851593234,-5.5320786417978525,-12.120025665215508,-19.20125510619073,-65.04752011422715,-13.586914085459284,-10.418516976367755,-10.104745397033184
2025-12-12 18:11:12.901009,Right,-4.054272832921924,-7.879181645141216,-13.86403512875313,-14.808049469396792,-272.682904356172,-11.15441858248414,-7.401802393969774,-11.49581385626152
2025-12-12 18:11:12.904949,Right,-36.0044436416656,-63.270704987152385,-63.62529754959618,-51.461067641344016,14.748172332583636,-49.12813935269787,-51.31354691227989,-63.24098534916084
2025-12-12 18:11:12.909028,Right,-54.75847665416313,-74.31924700389482,-73.18536977210329,-64.99274635324946,269.99287466492024,-61.74716054788769,-63.160630957332614,-72.5967668021658
2025-12-12 18:11:12.911980,Right,-27.636770123837323,-22.88605439215553,-25.172509956320937,-31.6526187541117,21.121344126989243,-27.833186307240794,-21.361150146713044,-23.062377506807024
2025-12-12 18:11:12.916045,Right,-6.077419336986168,-5.683133944862618,-7.465384696713045,-14.366904011911629,-268.0230950972782,-11.074337598937745,-4.390084090215453,-7.299839823523143
2025-12-12 18:11:12.920043,Right,-30.98327913561218,-55.653783855695565,-51.66537319654253,-46.7784826116241,-64.27205509334271,-42.41331155914895,-45.91929772777257,-56.00160667676164
2025-12-12 18:11:12.924078,Right,-57.34301295202579,-81.97666588508491,-76.16403724236989,-71.0436567748286,242.02309307572887,-63.63099834271202,-72.31883101663743,-81.60582560043059
2025-12-12 18:11:12.928087,Right,-38.413954027122145,-40.097620704787914,-39.084369729966056,-45.634860948521236,72.6625313923314,-36.83923991597055,-39.592030238454754,-41.77162865072023
2025-12-12 18:11:12.933033,Right,-12.259038705557487,-13.763392088083492,-14.93931060010982,-21.904108115158124,-254.10616024213505,-14.773588073416882,-14.194745726504152,-17.16573931101675
2025-12-12 18:11:12.937097,Right,-29.308356260866276,-56.31818639694211,-52.60533358273278,-46.509783587202946,-120.77145107417027,-40.50978771182463,-47.07736179698804,-58.612542570291225
2025-12-12 18:11:12.940105,Right,-57.12237876001018,-89.27130382654832,-81.77088186221954,-72.84230602054595,229.77975528096204,-65.22004933910193,-77.39844494933641,-90.3590795054206
2025-12-12 18:11:12.944111,Right,-41.12458382204568,-48.81198538723038,-44.01276427125413,-47.899937546239016,144.85467587100152,-39.108343846693515,-46.47754773506858,-51.191005797008984
2025-12-12 18:11:12.948117,Right,-7.460768701839697,-6.210991753850976,-3.310218062320928,-12.17364751603236,-218.44956075015074,-5.683935130458394,-8.217645432514473,-9.434110300640896
2025-12-12 18:11:12.952143,Right,-14.996028947180093,-36.13838134015532,-28.328834061230737,-25.346684141837613,-186.2177589115189,-22.259448219338083,-29.06613126693992,-36.405533698211
2025-12-12 18:11:12.956167,Right,-45.946569359302885,-78.43600828839772,-65.74880494525496,-56.35547433882675,174.26264671999934,-54.1713880514435,-64.7743713148484,-74.83249961090769
2025-12-12 18:11:12.961182,Right,-39.606593523336414,-51.62440551047257,-41.283918195473234,-42.90863608021755,183.8972080877934,-39.92406982205466,-44.392521339781524,-47.9878030371201
2025-12-12 18:11:12.964137,Right,-6.1073853190137015,-5.6909196215056,0.7655621669109678,-8.701381757016861,-175.25367597865443,-5.677470278657893,-4.0998714595225465,-4.551688679595827
2025-12-12 18:11:12.967156,Right,-7.194457744128158,-27.894696408402524,-18.883890096956748,-18.535348903518752,-227.29464017035707,-14.979264202605009,-19.339526520776417,-26.837919045836315
2025-12-12 18:11:12.972184,Right,-40.05393184339482,-78.11284702063494,-64.40647125546093,-55.334777174961346,128.1415356548714,-48.261551224546565,-61.59963152292403,-74.04283228052009
2025-12-12 18:11:12.976220,Right,-42.82446270184664,-63.55682396103657,-51.10641737237165,-50.92958264428671,223.04666424124207,-39.61677604936267,-50.24571025293335,-56.70973075788788
2025-12-12 18:11:12.980218,Right,-11.97133730294081,-13.771431707737065,-5.143577083981654,-14.362585926563042,-129.6936272434741,-2.6319615991506,-4.555650893060374,-5.385329843178624
2025-12-12 18:11:12.984234,Right,-10.222017519623478,-26.777600939472904,-16.43901458691107,-16.411699732725538,-282.231948660743,-7.31925814517308,-9.99737299964545,-16.38321665208059
2025-12-12 18:11:12.989247,Right,-48.8187937757466,-85.58529875759268,-70.98382622672216,-57.6349181945734,41.14446754816345,-49.34506352217977,-59.673065140421386,-73.32109338853479
2025-12-12 18:11:12.992268,Right,-64.2092798706799,-87.90813241215801,-75.24558601707395,-66.11779574850516,231.02266991606302,-56.071527058127685,-66.45066326981396,-76.58628624422272
2025-12-12 18:11:12.995210,Right,-33.64655679654243,-34.22515650346759,-27.726002939736645,-29.586974784822814,-68.16552743399643,-19.01348619933924,-23.095815199521894,-26.112208151374944
2025-12-12 18:11:13.000281,Right,-15.554604002816632,-24.707817499052908,-19.27552058469155,-16.699122483300016,-297.09416163241076,-7.32808962310628,-13.016665486655256,-18.489639968545816
2025-12-12 18:11:13.004281,Right,-40.60070197667301,-72.45060097159876,-63.34211130708718,-49.11834654539052,-31.207786944069085,-38.98603751382507,-53.93619557409693,-66.20866733659204
2025-12-12 18:11:13.008278,Right,-56.82635528116225,-81.90877454043948,-73.34237147957901,-63.19889778628203,225.9838994507536,-49.83990329773587,-66.84727580106119,-76.88102020235237
2025-12-12 18:11:13.012338,Right,-29.564640083423,-30.4968137863616,-27.135512083805224,-30.92156679429172,-10.904309378287508,-15.897173546738486,-25.913491958592203,-28.59501830121735
2025-12-12 18:11:13.016369,Right,-7.535446211746603,-11.612874995349557,-8.88303763805743,-12.311306829309615,-298.29488569264686,1.442669325730094,-7.219227009918541,-11.207431437847845
2025-12-12 18:11:13.020344,Right,-31.669101725434302,-59.25578098020196,-50.88047204256145,-42.141468281810376,-94.80668563461404,-28.995088740348365,-45.8150109467897,-57.34505725581403
2025-12-12 18:11:13.023347,Right,-57.88695938847741,-83.63292212686792,-72.76208923142258,-64.1083361730889,222.15500649345267,-48.9289137138403,-69.18869489931967,-80.73319748573704
2025-12-12 18:11:13.028355,Right,-38.78582118277336,-38.75220427842578,-32.10035553743364,-36.045308543081774,59.630466387772685,-19.299781812747824,-32.30389405541064,-37.60197745703044
2025-12-12 18:11:13.032396,Right,-12.093211775252712,-8.800575060507981,-4.600328813234228,-9.605187306708103,-280.79626418127737,5.854574501137904,-2.5550299842943787,-9.357893814027193
2025-12-12 18:11:13.036334,Right,-30.046882540489605,-51.00324043418368,-43.00707470368798,-34.488934514934954,-163.45898005843628,-20.199164377374473,-34.77674792986363,-50.74745682172943
2025-12-12 18:11:13.040404,Right,-61.14302760308783,-88.06321500564809,-77.85071244758728,-65.33268841448444,195.60229312701085,-48.949894687639244,-68.81977523335081,-86.56927022252785
2025-12-12 18:11:13.044409,Right,-48.50873014530225,-51.880367075929826,-46.338472035531595,-45.83166250996874,133.241814845489,-26.59715306472208,-41.62461364844057,-51.061232012049004
2025-12-12 18:11:13.047416,Right,-16.401306014726288,-10.66110568698059,-9.386408830927394,-13.73017496446846,-223.40669550483835,5.4764989585237345,-4.865927742845088,-10.642285767818976
2025-12-12 18:11:13.051428,Right,-25.796838391812344,-42.13286363914813,-38.35604999705538,-30.92579838540405,-199.25150295714957,-12.703084457149089,-28.80475276780635,-41.03431387749879
2025-12-12 18:11:13.055450,Right,-61.343970737179916,-89.25087496067135,-82.542269800535,-68.76773019628308,164.21949939833212,-48.78670053315727,-71.79445087732893,-87.43810905517603
2025-12-12 18:11:13.060402,Right,-59.784893499687314,-66.71280716944602,-63.692799765471136,-61.39349318327004,189.02104052716822,-38.69651857543067,-57.93531253897527,-67.2385666508635
2025-12-12 18:11:13.064458,Right,-26.502065189153655,-18.722409118177893,-20.452097230270738,-26.802129751318716,-167.64371838811894,-4.712804957285698,-17.297525847876386,-22.653408971928002
2025-12-12 18:11:13.068488,Right,-23.376495714721386,-34.143052307656035,-33.86187922373938,-30.429285448895826,-233.15071728343355,-11.325311684049666,-27.514563711527444,-39.06727538654377
2025-12-12 18:11:13.072501,Right,-52.257481107953936,-79.54868798012467,-75.12823647118057,-61.46386114961206,118.84129241902883,-43.55107674470855,-67.67338699890388,-83.98798260207695
2025-12-12 18:11:13.076506,Right,-52.85525942080858,-63.46877770063293,-61.35792596430838,-54.61645976408181,228.84158518221375,-36.47978272868204,-58.905956151516875,-69.24547865938803
2025-12-12 18:11:13.079505,Right,-18.13116648721916,-10.50469316123781,-13.810821522703918,-15.60282381264551,-114.69114788672596,0.3187329469365068,-14.558742907589476,-18.7413780415809
2025-12-12 18:11:13.083548,Right,-9.612260665242502,-17.417158597367234,-20.428199635229248,-13.308696386491647,-277.0582365701157,-1.7863369698097813,-17.008480162650812,-25.56679848933709
2025-12-12 18:11:13.088480,Right,-43.03248911273113,-72.43435279885307,-71.71429698839347,-51.96290914393467,38.6496479694124,-42.642303038919636,-63.848854923700856,-77.98382502055028
2025-12-12 18:11:13.092564,Right,-58.26935553854128,-76.20543062631623,-77.2973219422638,-62.435023015634215,239.88464498056237,-51.91656916870488,-71.54619529066986,-80.36312737249682
2025-12-12 18:11:13.096552,Right,-29.98582883234485,-25.47094371914136,-32.503039516836,-29.242722305491043,-43.8013418050632,-17.617681468149385,-29.964297959122632,-30.1923456151344
2025-12-12 18:11:13.100585,Right,-12.397513973919558,-16.236508646368748,-23.75620375807921,-16.23121173317486,-268.2068592258238,-5.273500208604673,-18.871506925635913,-20.211945971612295
2025-12-12 18:11:13.103585,Right,-35.70197188533348,-61.919801218478824,-64.3019274653634,-44.39176835291437,2.8424853498763696,-33.42984315590729,-56.572260595123225,-62.842424895883596
2025-12-12 18:11:13.107589,Right,-49.3657134877285,-68.31108939864498,-69.56089754808636,-52.177732275566086,275.50116996198994,-39.67823524136111,-65.19618215756782,-66.92486172987265
2025-12-12 18:11:13.111559,Right,-18.691467619675677,-12.550582374875376,-18.60050708518247,-13.096561159407429,45.42699993903807,-0.14871530553864432,-18.060759891515772,-10.797279105150665
2025-12-12 18:11:13.115622,Right,7.091507095152338,10.127834360027919,2.1592521680577192,10.665805715310853,-259.75290283138565,22.698153673100023,7.180889221817779,13.04338964424096
2025-12-12 18:11:13.120636,Right,-15.50562923441612,-38.26146515341679,-42.41488044802827,-18.750955448689638,-78.43613806078793,-5.518553067722678,-29.347166403116717,-32.476117408965365
2025-12-12 18:11:13.124662,Right,-43.519063995729084,-67.73757596347423,-70.42999017765396,-45.087976717237325,237.9665349855968,-27.8940328002991,-56.79035141557688,-60.536188928832416
2025-12-12 18:11:13.128680,Right,-27.147177176106197,-27.030666448183183,-33.78298142253334,-22.075440259563038,86.78498541992667,-2.5703287915384863,-26.011478361797344,-21.28524074896268
2025-12-12 18:11:13.131675,Right,-1.22330119623075,3.2466018975537736,-4.833038210599625,2.5091775663458975,-255.3696845906834,19.8448941799179,0.06388128933031112,7.797404677141458
2025-12-12 18:11:13.135694,Right,-18.128917949936294,-36.193682183708006,-38.57619037538825,-21.146199027018156,-150.27860347547357,-7.506007767486153,-33.321931201986445,-30.363399587098684
2025-12-12 18:11:13.139636,Right,-48.47841397007869,-71.53433072397456,-69.34090764203575,-50.01834086276358,206.11507009549132,-37.7322897381091,-67.48247228677792,-64.17801644666906
2025-12-12 18:11:13.143715,Right,-35.19641356752982,-34.02866845527751,-34.47748393700749,-28.005720681707317,149.04226489405482,-15.354884975946334,-37.81975752552535,-27.167996627511457
2025-12-12 18:11:13.147708,Right,0.15576158909971127,10.933458499261178,7.226463608487393,8.923878775560297,-212.5771928118993,21.12739028550277,5.7443499473665725,16.869775102750282
2025-12-12 18:11:13.152736,Right,-2.9240872346199467,-14.844275432551512,-15.921586094220402,-1.236962979164673,-201.21312937281073,10.365670276387391,-9.50025463707425,-8.082273552718107
2025-12-12 18:11:13.156743,Right,-32.51840614710818,-57.48961935470288,-55.78752600950975,-32.505689214071026,161.03234354866618,-19.715996506798547,-46.24271627635608,-49.60599547209131
2025-12-12 18:11:13.159756,Right,-29.12641067856748,-33.63733627545298,-35.82525983257074,-21.684529462836508,194.52475910076282,-7.535491460632329,-30.695821700021042,-26.75226443268184
2025-12-12 18:11:13.163711,Right,1.0787434268640936,12.118176826043054,4.766191798975342,11.956931541673839,-164.24480488579502,24.897766967842472,7.122015892411582,17.20104954283306
2025-12-12 18:11:13.167783,Right,-2.0716096489995834,-9.331818630009366,-15.241827707141056,2.855756294935418,-241.86383042232956,13.713409922549545,-9.734974792831053,-4.097081965832331
2025-12-12 18:11:13.171795,Right,-37.916556494405086,-63.31159529821889,-65.41445400106022,-36.612872295965644,112.49479144301222,-25.076589661588514,-58.023164398364315,-56.884258177473384
2025-12-12 18:11:13.175812,Right,-43.1063441674778,-53.936141372221755,-58.24489866330259,-37.071143633544125,243.73116447684697,-22.930319202972896,-54.08642903375585,-47.96102097819676
2025-12-12 18:11:13.180799,Right,-8.039730741460517,-1.5887789484113455,-10.852474283688935,0.008800846560916398,-85.1886454714222,15.248440953460886,-7.623499094392173,3.5244075082882773
2025-12-12 18:11:13.184817,Right,5.082464026425441,-4.120525854566949,-12.164466848429583,6.003349142851221,-250.93080055050814,21.586938778140393,-2.5656718474492664,3.333107337508409
2025-12-12 18:11:13.187863,Right,-23.27374519714067,-54.444729587637994,-57.21189062598569,-26.901557249762845,63.33736660375325,-8.127260482502606,-41.47368615782034,-42.253367236364284
2025-12-12 18:11:13.191787,Right,-35.86235451887478,-55.19550918997993,-58.01634595046198,-32.54541163580143,274.5841480690797,-8.490524674301923,-43.6078633395955,-40.40244748670375
2025-12-12 18:11:13.195848,Right,-7.263046312313236,-2.1586555501198745,-9.725870322668925,3.83199866542418,-10.462933820213948,30.724472295401938,1.6893691299046623,12.350147719400411
2025-12-12 18:11:13.199865,Right,8.677565159028745,7.118404211272718,-0.5830530294406344,16.735460239011445,-261.13233429416323,43.45555112602233,13.82743798528827,22.10184674444463
2025-12-12 18:11:13.203885,Right,-19.22004707859014,-44.343239406596695,-46.97925697078608,-17.62247290187588,-15.362455865635638,10.024196599904826,-28.63381530073093,-27.370686252659652
2025-12-12 18:11:13.208991,Right,-39.959944605368946,-60.83046364330221,-62.31903530314594,-36.351248573806515,259.39660012339664,-5.709212566842325,-47.45916622596269,-44.05580099331564
2025-12-12 18:11:13.211908,Right,-15.245164329935506,-12.213340569549473,-18.235582988978422,-6.10469618335992,45.33334401207321,25.42725042069651,-9.91709206464293,1.1553499072324485
2025-12-12 18:11:13.215969,Right,9.037721498301835,10.836033785417385,3.3540587545066955,16.451545773576072,-255.4767625874283,45.07928348344103,11.873940733370546,21.935158901564137
2025-12-12 18:11:13.219958,Right,-11.40264130968717,-32.85136074931506,-35.91104695745889,-8.248149754446786,-76.56653623815873,17.78640500194524,-22.68129453028814,-20.25473778221931
2025-12-12 18:11:13.223971,Right,-36.67368546593207,-58.39625746900856,-59.51248873325676,-29.33506630422562,249.0315538293362,-2.9027497690422024,-46.900551304795954,-44.01677596078298
2025-12-12 18:11:13.227972,Right,-17.245457053133578,-14.333599644138303,-19.83557504096825,-2.1126089601348212,111.77883893775925,24.286139094127066,-12.636398129914596,-1.419109604350524
2025-12-12 18:11:13.231979,Right,13.843590594282432,21.16548932884325,12.768820571698598,27.602148758494877,-230.48158663218146,50.4244154837852,18.96707434230484,31.20414203803375
2025-12-12 18:11:13.235910,Right,3.0598467973832157,-12.831158079075976,-17.868302034439694,9.499450880164659,-132.36131192889206,27.956101505071274,-8.082725792566634,-4.353675770031259
2025-12-12 18:11:13.239972,Right,-23.889499187920592,-45.77565893421706,-48.37017420783377,-16.72826639349296,229.65674375274284,-0.39230098058396834,-39.65854214735373,-38.99752013512261
2025-12-12 18:11:13.242950,Right,-11.56743622394788,-8.991652247736056,-15.40550488496956,3.331878763550776,181.85366306407104,17.5061029976423,-13.65775954997298,-5.872245531252702
2025-12-12 18:11:13.247993,Right,19.707700989394652,33.18275113202253,23.689556918754533,34.808313636374805,-190.32206759615838,44.76500951218259,22.09160369570236,33.40503107856057
2025-12-12 18:11:13.252019,Right,10.937516635611246,1.7950027202314232,-3.502334903627343,17.297485004623013,-200.44220682965897,24.746495949309974,-1.6840034094129805,3.2378664266543637
2025-12-12 18:11:13.256017,Right,-24.8086166836365,-48.7002562929556,-48.9215915706518,-21.456024654336943,161.1502872677902,-11.569365367402497,-45.34999912083367,-43.834279681883345
2025-12-12 18:11:13.260034,Right,-25.20468099730715,-29.481595528221078,-31.78176747163161,-14.518803820683388,215.66580002223054,-1.1443210547968192,-31.63389317084875,-22.985096045944374
2025-12-12 18:11:13.265054,Right,6.8849129579430155,20.249403909594548,13.392577952956344,22.34192023147625,-132.35828250602117,34.63631027662814,12.713157169229817,26.8384069825006
2025-12-12 18:11:13.267989,Right,10.135896755895374,8.731832298861264,3.242583993705921,21.32860796971363,-219.9958736495655,28.6385525746482,7.2319084847513295,16.35394958425968
2025-12-12 18:11:13.271063,Right,-20.29081676450005,-37.34164805060573,-38.87535780563849,-11.903272038904106,127.98742271599076,-8.85520744475798,-33.19632854051815,-28.72862689532485
2025-12-12 18:11:13.276085,Right,-24.308922991844156,-25.293893525824387,-28.631762362030713,-11.39913975933814,267.34877894903366,-10.792360698336779,-28.002572084151325,-18.5594890978864
2025-12-12 18:11:13.280093,Right,9.573991885867144,27.632532329855167,19.41446836666728,23.650802548974752,-60.99011451225488,21.526706106906204,16.936378933303786,30.889746551725693
2025-12-12 18:11:13.284104,Right,21.61161797603563,25.536406650342542,18.251181165265734,27.1536719723008,-245.15890457859314,22.813030464860276,20.383517232508893,28.13171093404526
2025-12-12 18:11:13.288051,Right,-8.151829071852262,-26.101465787534835,-28.190055425435276,-9.084380571286601,54.018067906596116,-12.04489436876429,-21.544403004711057,-20.95423850071893
2025-12-12 18:11:13.292124,Right,-22.59779207094107,-29.339168790022086,-31.179870728701644,-18.804309935450874,269.1548541508346,-17.9765605307839,-28.23711834466303,-23.029870865251723
2025-12-12 18:11:13.296132,Right,6.01972382763779,23.76740150994374,17.429685948700353,15.012332768097622,-11.003666555953714,16.865623291854718,13.441668659481365,27.448147409813828
2025-12-12 18:11:13.299152,Right,24.703054275250906,36.08896619193183,29.64464289890384,27.796524288085493,-270.25453185829247,26.799900414163858,23.85872519966142,36.28787216404817
2025-12-12 18:11:13.304141,Right,-0.5711452017349075,-13.290283423033543,-14.446157886493893,-5.829985203250544,-29.575653036280528,-8.525575332410881,-18.62102572835647,-14.396970457826683
2025-12-12 18:11:13.308199,Right,-21.19327534880722,-30.23173847182261,-29.542899889584078,-23.9229849253843,256.1802071680959,-24.360639234133487,-34.17483471763262,-31.014521863016853
2025-12-12 18:11:13.312174,Right,2.473625092785369,18.187170843288186,15.295634174848601,7.535048520832788,48.24364225123645,9.33478702413413,10.385837493293366,18.289465739873776
2025-12-12 18:11:13.316206,Right,26.352791436002008,42.15998463621145,38.795522586093284,31.162126983776034,-268.1244727276089,31.70187740079382,38.241552815445175,44.363223768663374
2025-12-12 18:11:13.320202,Right,5.0593878105974,-2.6579847139000776,-0.6648511645780673,4.9531853441149,-102.62964891822139,3.3528354106802,3.1187822124702507,2.1016588807888184
2025-12-12 18:11:13.324199,Right,-22.080757395709952,-31.246384419848255,-26.73931252741386,-19.383140439067574,237.70593546977307,-21.21665798304457,-26.177912791599738,-26.776289548373825
2025-12-12 18:11:13.327254,Right,-2.6293778716826637,13.393090888241204,13.508539472180928,7.711896887525654,122.01809105634948,5.202302081555899,7.169134495965409,14.078894756816226
2025-12-12 18:11:13.331231,Right,31.35884488908232,53.80904832435226,51.01495168145084,41.15124963732342,-227.91872577756385,35.27413203731521,44.296326055877216,51.62428489599915
2025-12-12 18:11:13.336202,Right,21.421031847625272,20.992773678637604,22.272426264691603,23.962343335613696,-155.78238305311788,14.796138347572196,20.71491750412133,19.97822854777769
2025-12-12 18:11:13.340253,Right,-10.857868224860795,-19.463852570044764,-14.683858170307758,-8.575978465663866,201.36536745563035,-18.162150667652895,-15.666263626922955,-18.13725413145221
2025-12-12 18:11:13.344254,Right,-6.852542853665,7.209922726508012,8.330788370619302,2.917004977918623,172.66407537966506,-6.623793293287235,2.652922221497647,8.689241286439938
2025-12-12 18:11:13.348285,Right,19.12116931946548,44.87259402861855,41.723966357135396,30.894510127964168,-188.4414345049472,18.828558059460192,35.75727295164688,46.19260080379536
2025-12-12 18:11:13.351289,Right,9.352089945625266,14.548155535012484,14.060960959120166,15.366836936469554,-205.03117539479126,0.5846566663130943,14.323339032198419,18.319067170566996
2025-12-12 18:11:13.355296,Right,-25.973109629958344,-34.38372694541795,-30.337154334966726,-20.739439045415565,153.89699541342725,-34.54229630518421,-26.283768739986044,-27.420055078557198
2025-12-12 18:11:13.359258,Right,-26.003517157072565,-14.899584930027231,-12.130973425435968,-13.542586164672684,214.84709676853436,-24.517448200134822,-10.753961568218983,-7.745057493199056
2025-12-12 18:11:13.363337,Right,7.016128587494677,34.65872561822471,34.43742332058116,21.216021434605864,-137.41066520101322,10.052474125557637,33.35332122460295,39.45253192875043
2025-12-12 18:11:13.368326,Right,10.916715838980963,21.100177406767216,23.969610155504654,16.064150769210755,-241.3790085722685,2.0181154867350415,24.36612958528076,24.339466085247295
2025-12-12 18:11:13.372332,Right,-20.578800981991662,-29.654922871299277,-21.256398312060355,-22.071821299071416,102.8377030229999,-37.19668571891816,-21.73905973086039,-26.794972668868468
2025-12-12 18:11:13.376357,Right,-25.38759188905533,-19.96966339399887,-12.241779419551676,-22.9355287384833,254.75815668133373,-36.92718649204471,-19.48644089431582,-18.778905485830364
2025-12-12 18:11:13.379386,Right,11.14052518018616,37.54013932008729,40.86771994269293,17.32205828723545,-73.01215376445634,2.8107397935091285,28.636686378507648,35.89691504330767
2025-12-12 18:11:13.383387,Right,27.573193211053876,42.35666099424452,46.65912033524364,28.337880761522683,-277.37804927737034,11.315836193012728,37.10932116731419,39.57166039739059
2025-12-12 18:11:13.387330,Right,-1.001332070405624,-8.573098153150113,0.9639598344492697,-5.4702758702442225,11.827530154455644,-23.157982564876875,-4.809028474714069,-10.401546851203875
2025-12-12 18:11:13.391409,Right,-18.730846261620172,-17.861295185388258,-7.868624785790416,-18.696384465241863,246.72813513531696,-34.55883658003768,-15.729822082633063,-19.09826501804264
2025-12-12 18:11:13.396410,Right,5.772341755742673,29.442503985934366,35.18775394869499,11.899375462028729,-8.292854294999643,-3.267951834943233,24.84494862771203,27.998820386960688
2025-12-12 18:11:13.400434,Right,22.5818594754237,40.21917559221333,45.80879819962138,26.148273710489775,-262.6949147373293,9.541593969330279,40.077175507453376,39.85173430171653
2025-12-12 18:11:13.404460,Right,-2.84699085329612,-8.844337570356856,1.0825121904363186,-3.729900754056871,-24.06608919580117,-20.690650248357997,1.8496433656778208,-7.680197687195459
2025-12-12 18:11:13.407462,Right,-22.15747920078593,-24.812649623307152,-15.421201036049752,-19.223456183515736,273.61081880957664,-34.468784855052945,-15.78647652537984,-26.086178420760916
2025-12-12 18:11:13.411474,Right,6.219936649315969,27.888419331649857,30.286659354715084,14.328528420564908,78.6924286857705,-0.4620699276056257,23.953855739109713,19.576137277329963
2025-12-12 18:11:13.415465,Right,37.669598031596706,58.77844639041268,57.83503980246496,40.43406528998685,-244.64090968371153,23.38768318943403,50.39174689731681,44.907762464402026
2025-12-12 18:11:13.419509,Right,22.383314741110553,18.237781735209865,21.937693883373868,15.383561189293232,-94.74746997939405,-3.5275289820674516,17.443955029440076,5.017370599401772
2025-12-12 18:11:13.423512,Right,-4.0782226107507995,-11.698856630592672,-3.922257566568078,-10.785645388709327,243.95383508354652,-29.252828986242093,-10.17379019449254,-20.96452878046
2025-12-12 18:11:13.428445,Right,10.525590349573122,27.4889895391143,33.17495317489738,11.344683714062285,134.4147404240133,-6.995790619475883,20.852948133418067,20.41260354151632
2025-12-12 18:11:13.431470,Right,36.926780402077384,60.910834421533764,64.9911821210444,37.67022859503413,-220.80207738863044,17.326491361243825,51.520309205439844,54.35796756305717
2025-12-12 18:11:13.435530,Right,19.96291080687672,20.706403432699517,28.806768100293993,12.71064826576503,-158.72441780808492,-8.43925609364669,20.287324015124796,15.844234243462097
2025-12-12 18:11:13.439541,Right,-16.747586158519994,-26.256996931018875,-15.141851924137882,-26.4134446806263,204.09051030293233,-44.08386596894343,-21.339200374255597,-28.71589083873414
2025-12-12 18:11:13.443550,Right,-12.763488251295396,-1.3366993461877428,6.011278274076176,-17.230617500899598,190.17896858459312,-30.34144304421352,-2.9116871603728214,-2.8816690163425847
2025-12-12 18:11:13.447552,Right,18.231388896929957,41.619198112528466,44.902634258520266,14.639663255718006,-171.7740671708998,2.368362317458377,35.733865813177545,40.3403123090452
2025-12-12 18:11:13.451558,Right,15.013412683241654,18.776501934313274,24.668205210677115,5.82102452295112,-201.5714866496637,-8.030530952379195,20.139123444871075,19.10611166303852
2025-12-12 18:11:13.456588,Right,-16.93837068253106,-26.91199987971231,-17.335480118810665,-26.1615899294286,158.96286403428212,-39.51947592970464,-19.828437654894515,-25.192449234091328
2025-12-12 18:11:13.459532,Right,-16.97023502882371,-7.686332134937402,-1.078730003489909,-17.88041881021104,236.51082081395998,-29.054352384016966,-7.335150765196886,-7.7732326893892605
2025-12-12 18:11:13.463594,Right,16.059466057371537,42.93380912632165,44.720992903872684,18.531430480927213,-114.3731589696281,7.267942285638128,36.12433692461127,39.117130083531265
2025-12-12 18:11:13.467603,Right,21.438556313386016,32.02703830037899,35.77705683388558,16.71311292721243,-239.52764950638675,3.2075409526187286,30.335412951393664,26.465422198223678
2025-12-12 18:11:13.471637,Right,-8.907882132418308,-18.189439451549333,-9.388991145115142,-19.046065466668836,91.0031515853957,-33.32201193651417,-13.271319146726455,-23.84060429758665
2025-12-12 18:11:13.475635,Right,-13.957319622432806,-10.376988330148379,-2.9541446252551395,-19.857795546788793,253.82662444701737,-33.681843736714654,-12.124400130693175,-18.46121972666606
2025-12-12 18:11:13.479659,Right,22.37096149811896,46.29730810187539,47.87172141462361,19.927841891624098,-59.408222086241494,4.148933278504046,33.61761021055281,33.42234343464952
2025-12-12 18:11:13.484651,Right,39.63538826185322,52.23922078468604,53.078389555234025,31.430850960410908,-263.121470002407,11.866915122864157,41.38780646035957,36.84909882863485
2025-12-12 18:11:13.487660,Right,12.53292242891257,2.842916999181398,7.646799338057463,-0.8645103004275825,26.390963867660503,-21.502281496697833,1.018427732931741,-11.320702436429201
2025-12-12 18:11:13.490621,Right,-2.4722843133522474,-3.3520202895106195,0.96913321971806,-10.775390344153266,270.6008469634726,-29.255190006657358,-6.066390165482517,-16.37741006401211
2025-12-12 18:11:13.495726,Right,26.78074703760376,50.21626880290569,49.0411375107542,24.779971324104963,14.060718378620095,7.432031316857319,39.58843115271884,35.94184916982704
2025-12-12 18:11:13.499745,Right,47.74004076970323,66.28442469385118,63.50465425631046,41.54835503940558,-264.01683028802745,23.19934454963004,57.05301290833086,50.773573682012284
2025-12-12 18:11:13.503665,Right,20.952182491740132,14.881661754767265,15.945739297902037,7.330489466884501,-45.06509770651792,-10.171418960942901,15.031689005536464,0.18864459297219582
2025-12-12 18:11:13.507759,Right,-6.74760152152794,-11.016262210468994,-9.225592185921414,-17.914490492156347,261.1218075000911,-31.393437849736074,-9.62527663068613,-24.412861640643314
2025-12-12 18:11:13.511754,Right,10.544672822219582,31.621743252551823,28.710358739685034,7.020211788875713,84.98872786363563,-3.7716563842241158,25.67921924136681,18.57369156292225
2025-12-12 18:11:13.515749,Right,33.92627630919924,58.12979898188496,53.62939184483912,30.163637727545847,-238.15900613293843,17.852555886316622,51.994086390601296,46.05325987861033
2025-12-12 18:11:13.518758,Right,15.252204323145634,17.473317509349727,17.864614628109848,6.297929441305314,-99.54334357962034,-8.253123425487502,19.85959173145602,7.919451657886384
2025-12-12 18:11:13.523719,Right,-11.19040296903222,-11.69767780024631,-8.361225630993431,-17.8729179481511,240.26699915641393,-31.901253193624143,-8.196131734064693,-19.663206743600313
2025-12-12 18:11:13.527769,Right,6.3798680585678085,29.401309961445804,28.96072787185767,6.832202389700797,138.55472340521737,-6.006292750196735,23.48658950574827,20.45647994875253
2025-12-12 18:11:13.531781,Right,37.95185139820751,66.40823764166998,63.21146663063337,37.119799235161736,-224.13728035214353,23.1758019934623,57.5346708304387,56.76609235728938
2025-12-12 18:11:13.535802,Right,25.588513972295914,29.08662853756323,30.053148101407714,16.37307349526509,-178.20566334116393,0.67957367881354,29.765140841274842,21.82701423695653
2025-12-12 18:11:13.540814,Right,-8.916631335387137,-16.765158941605478,-11.71610038410654,-19.333764367542244,184.18899565203446,-34.62103241167824,-10.652799205039628,-20.9573900360283
2025-12-12 18:11:13.543844,Right,-3.905952195100326,9.604344385214063,11.654791066139296,-7.235772911973072,181.45927633423526,-21.34492266237612,7.741622532721522,5.294108378988312
2025-12-12 18:11:13.546827,Right,27.911830736529737,54.34449146980478,52.277532484662515,25.9789688672563,-182.80610362496282,11.032121487183758,45.88345005654264,47.75371965008344
2025-12-12 18:11:13.550871,Right,23.43598943645884,29.631064244982554,30.045258754678798,14.125150164647494,-226.62869253334065,-2.2778472217287344,27.434767813821964,22.41765602668056
2025-12-12 18:11:13.555852,Right,-12.95792473763322,-22.767303251901467,-18.279594526531582,-25.10424653552036,134.12135783255508,-40.415994263688845,-18.333441547387338,-28.83480750943454
2025-12-12 18:11:13.559860,Right,-17.09479010744144,-9.368055893355631,-7.600564027110522,-22.73918352176679,227.03666598359268,-35.652803972738184,-10.319425886857061,-15.380418395190645
2025-12-12 18:11:13.563877,Right,16.385637020182912,41.66815979467356,37.782736594293965,14.082051765364668,-120.6207593934696,1.2460453670282732,34.127496112330846,34.53334976605038
2025-12-12 18:11:13.567965,Right,25.43584163565538,34.78878514222379,31.177545109709172,17.046094956662273,-259.8802335153632,2.6897146937062644,32.27866987064408,27.612747314627995
2025-12-12 18:11:13.571940,Right,-3.1200290391971066,-13.949958494027669,-13.858528384564124,-15.25541057411101,66.20821953944323,-29.06019389963876,-9.848715150055796,-20.735844995928346
2025-12-12 18:11:13.574915,Right,-10.25725850435083,-8.3471960133611,-9.802358939676196,-15.98082775432431,244.14755999377303,-27.51991676457692,-10.267426743623218,-17.224285915139262
2025-12-12 18:11:13.578944,Right,22.814524056615483,45.899514981872926,39.61137876581415,22.86599502935769,-59.16973360184238,11.532546225926126,34.18871296864745,33.139628527675086
2025-12-12 18:11:13.583946,Right,37.80154135245539,50.21100975503941,45.011393358552596,33.6783499188723,-272.3182077700203,20.434230769013084,41.51909296462327,36.2620914276722
2025-12-12 18:11:13.587946,Right,7.104968023346373,-3.8384382505064423,-3.0228165613625606,-1.7712573659882764,9.85416545402586,-14.904135211803805,-2.0775189977466653,-14.555595189289306
2025-12-12 18:11:13.591959,Right,-15.214851799239113,-19.543193342229642,-17.65322300377011,-19.170028961316348,266.6223086344253,-29.083517703846155,-16.693456293847703,-26.097262874769513
2025-12-12 18:11:13.595918,Right,6.099016125017442,24.90358469589046,22.127098376120557,8.549266110064309,25.62452886081519,1.1024003654192711,21.770489310983976,20.323004830264836
2025-12-12 18:11:13.598995,Right,23.5911289040705,38.09805331492316,34.47605082834707,22.645645058679293,-252.9574733479376,14.897903728869096,37.27526805884918,34.38657445327772
2025-12-12 18:11:13.602939,Right,-1.6621720847670076,-10.725189361557568,-9.14953854164196,-8.934062989401355,-37.9336052501385,-16.813314282636384,-2.6787188550297287,-13.255401348986197
2025-12-12 18:11:13.606998,Right,-25.897294337690255,-32.76922442013529,-28.9274092995729,-30.051164472265555,277.63881304069855,-35.86169546776364,-25.09075722743364,-35.24672561666921
2025-12-12 18:11:13.612029,Right,-4.916119123776298,13.37216919743878,13.265480020705581,-1.6521912319485637,110.22570445693873,-5.862083521286877,12.110691643294558,9.246097646126145
2025-12-12 18:11:13.615974,Right,22.085631155290685,42.50364702878505,40.634041612451256,23.944560969269332,-224.25925822733825,18.581733836870626,40.83554926379293,37.99242213002253
2025-12-12 18:11:13.620018,Right,4.9197341545241215,0.9670525051406003,3.631158417527331,-0.2503968317687395,-102.92450072145311,-7.09018776386165,9.341017782451672,-0.9948955550353276
2025-12-12 18:11:13.624055,Right,-23.65761998160633,-32.827471401793446,-27.426528104297176,-28.229783510484594,239.22341369545939,-34.27881574516687,-21.661191246083035,-32.78091232850238
2025-12-12 18:11:13.627074,Right,-8.328691789882214,6.013372674526181,7.112295105023804,-6.355912613471446,151.8854451030893,-11.439147397321904,7.374843175806745,4.1130947098681645
2025-12-12 18:11:13.631069,Right,25.477639376689694,47.550830474308896,44.77908389504955,26.504613707399585,-209.51804045358585,19.955284461724204,43.24995328655859,42.180694036538625
2025-12-12 18:11:13.635109,Right,18.3601017265446,16.762182131533336,16.881223264594155,11.19427165702109,-171.08725269784009,2.952173274263714,19.191863654788904,10.643257984833326
2025-12-12 18:11:13.639093,Right,-12.247515812408892,-26.478093532092316,-23.16520890798347,-20.925056180486536,199.0154191396523,-28.01882205596712,-19.60069031148305,-31.367225979975046
2025-12-12 18:11:13.644084,Right,-4.4633184488120605,1.2406221069977619,1.0973424892035837,-6.024037226010478,215.15096003158578,-11.280733875914848,0.59794104525281,-3.9225554408731114
2025-12-12 18:11:13.648124,Right,32.02583079586111,51.34461444952467,46.76591126765925,32.743675813990194,-146.7348507565148,26.266543182910937,44.35698010487977,44.70628782879612
2025-12-12 18:11:13.652122,Right,33.1973679691564,33.97320471100102,31.71139399457752,27.808038798357302,-206.3858713463669,18.86083323470848,32.700510594873776,27.632365748777374
2025-12-12 18:11:13.655137,Right,-0.8674609716745181,-15.250511706526595,-13.014024997275556,-7.815821974913888,148.6830571250448,-15.990438693268516,-10.690335586285073,-19.953946467338028
2025-12-12 18:11:13.660154,Right,-7.216138362147831,-3.8761909411514353,-3.1531647506781155,-6.5211622185952365,256.4489816353398,-11.486681582973837,-5.5387931037003,-8.80087608319991
2025-12-12 18:11:13.664139,Right,23.371298864209166,44.587004568023985,41.23683155416438,27.75849596602893,-77.82251491755778,23.94117869586165,35.39922991050116,37.64241983790998
2025-12-12 18:11:13.667131,Right,32.92194973617188,38.19306568211323,36.45606770125596,30.00566548065217,-219.3313475308114,25.09884099349597,33.45418358092502,30.43915062260203
2025-12-12 18:11:13.671170,Right,7.761967434698818,-7.923668279552658,-5.259966843343136,-1.3345460403725156,102.4540780006846,-5.790575689046591,-6.020798977569939,-15.26885188464621
2025-12-12 18:11:13.675172,Right,3.054057066106907,-0.17389350806115544,0.8019539915039786,-1.6156977302307496,283.3087100644789,-3.8635890996088165,-3.9922913572227117,-8.56792350975411
2025-12-12 18:11:13.679206,Right,34.745887311948536,53.940684628963936,49.10080850805389,35.58983068709313,-24.739334528161635,33.6278729723831,40.88442940367895,43.90495957886924
2025-12-12 18:11:13.683223,Right,44.61331001866529,54.49299963593148,49.416521503146214,42.09503583071637,-258.2949333148972,38.20210416862801,45.5460126095677,46.30980730082774
2025-12-12 18:11:13.688214,Right,7.9127015770191065,-5.812444960742141,-5.747142527485266,0.9873731595362187,7.312077120246613,-3.013297455647262,-3.344653571914023,-8.654746610924121
2025-12-12 18:11:13.692230,Right,-16.89599078269748,-25.065869935806404,-24.188081718031754,-19.48034801682479,264.57843736979703,-20.622418818026745,-21.997554825973566,-24.216703640982814
2025-12-12 18:11:13.695227,Right,7.38117110112762,22.12378174000696,18.05305685301937,10.345089033260592,22.143846154778657,11.305730382876845,17.24629884029855,22.51778043070408
2025-12-12 18:11:13.699279,Right,29.532274813611366,40.15649974029293,34.558189720464725,28.47858995859133,-276.68861464518704,28.942948683932627,35.83344790382398,39.34177373565217
2025-12-12 18:11:13.703269,Right,4.734526924041347,-9.128311308457342,-10.170336745399254,-3.0289947594628757,-82.13845618352389,-2.6388911087178712,-4.926842515371391,-9.185458538628154
2025-12-12 18:11:13.707267,Right,-24.07679257233758,-37.31173315187152,-36.20037000695447,-28.814442614951986,236.0022620929558,-26.12189240502994,-33.29616450665526,-36.784783881807016
2025-12-12 18:11:13.711237,Right,-7.740592534893949,3.9357230444893503,1.3249760070139018,-4.64226164021602,81.73460012971555,-0.046871427616679284,-1.7632657644207939,3.085827821683779
2025-12-12 18:11:13.716299,Right,18.52417080687883,33.53726370723962,29.267847398696176,20.888727102244957,-253.70859623529395,24.688157014936223,25.76581630795772,31.73643216131495
2025-12-12 18:11:13.720312,Right,3.3228832859222166,-5.458586387294417,-5.306517008753872,-1.0874843093588424,-140.27770301326927,1.4780921490464607,-4.486805596088743,-6.088872993674158
2025-12-12 18:11:13.723317,Right,-23.884484571392022,-38.9265529397926,-36.08128785884037,-27.84559626326063,210.794876673026,-24.881048568123333,-35.382871285015426,-38.99486500043167
2025-12-12 18:11:13.727313,Right,-8.434953151756417,-1.1007146965275751,-2.1380393042054493,-5.652301046188768,145.12430215536915,-3.1921368163439183,-6.905152582718074,-3.502739535281762
2025-12-12 18:11:13.731291,Right,26.78568764426018,42.08246168403457,38.339661248050106,29.31179120662364,-207.341028462326,28.10637667172705,30.995176994345456,37.0985404768162
2025-12-12 18:11:13.735350,Right,23.84386375489339,16.51178290603275,17.427109487045527,18.652907708194107,-177.5886505464823,14.24570559662152,12.32630601962046,12.053388763833937
2025-12-12 18:11:13.739368,Right,-3.3167348830975243,-22.42441765592048,-16.653620264100027,-9.898149883390033,184.4270125347848,-12.305397215121047,-21.38898243517542,-24.38646367660658
