timestamp,label,FC3,C3,CP3,Cz,FCz,FC4,C4,CP4
2025-12-12 18:04:17.017675,Right,2444.8877410264886,2738.7409904232395,2755.3743683820767,2693.272071479463,1938.1546062150865,2589.564535801786,2603.389826864234,2825.7091201423664
2025-12-12 18:04:17.034713,Right,13158.120173803818,14740.210272203181,14829.997596613584,14495.46207474104,10450.013990528905,13936.518454894755,14011.543239885807,15208.858962226812
2025-12-12 18:04:17.037737,Right,30119.575291445195,33744.707232176086,33951.74215976925,33183.55031368982,23975.481007466253,31901.803754356137,32075.485278118565,34819.11953284785
2025-12-12 18:04:17.041745,Right,37618.665500674695,42157.64731972719,42420.99014657478,41452.611710629106,30015.571713527715,39848.56948855627,40068.8881113813,43500.8585873547
2025-12-12 18:04:17.045740,Right,25465.64805829359,28559.680737788367,28747.84799975739,28072.2397879902,20328.902210400396,26984.547049412446,27137.816078645294,29465.028985704135
2025-12-12 18:04:17.048738,Right,2981.763056464115,3376.3016368100944,3415.385825641948,3300.7282106172934,2289.64275584757,3172.3363204192137,3196.6973281443934,3467.6725310891343
2025-12-12 18:04:17.052785,Right,-13919.555415278097,-15572.026190406934,-15651.643788090209,-15330.511176228,-11227.176788654237,-14741.174654359405,-14812.56852509291,-16091.59261473437
2025-12-12 18:04:17.056769,Right,-18231.670457525353,-20418.10575809999,-20534.03949082014,-20088.136429476668,-14518.50134357065,-19322.892701628152,-19415.328953547927,-21085.456563702086
2025-12-12 18:04:17.060718,Right,-13105.103170726157,-14673.919458006741,-14758.026300618774,-14435.537774702185,-10309.203036558989,-13892.32723287103,-13954.28725572885,-15146.891692167963
2025-12-12 18:04:17.065784,Right,-5653.7336234333925,-6318.253067018813,-6350.639274901361,-6220.640279261628,-4461.460372967413,-5989.184746607905,-6012.441473264364,-6523.033378207008
2025-12-12 18:04:17.069807,Right,-1528.3842710227473,-1699.0408838910516,-1703.4530542871216,-1678.7995237100404,-1304.9061289485544,-1617.4165906426497,-1620.38276048447,-1761.0985935587669
2025-12-12 18:04:17.073814,Right,-2369.0706073192414,-2648.7986101662973,-2661.201216857764,-2610.08706142148,-1920.5455951918848,-2515.210921506048,-2520.8070993382717,-2739.718188878265
2025-12-12 18:04:17.076829,Right,-5806.661897716229,-6498.321618134505,-6534.951519396389,-6395.633985467721,-4545.709330996033,-6157.782365397317,-6179.406456607161,-6705.732484256849
2025-12-12 18:04:17.081783,Right,-7972.317705126479,-8917.807684081257,-8968.35398433241,-8778.806904052617,-6322.91527533636,-8445.259741378366,-8479.760084577603,-9202.264572261483
2025-12-12 18:04:17.085863,Right,-7047.567752033356,-7885.239989561145,-7930.962858555373,-7764.0887887449935,-5700.138154260465,-7465.533357153647,-7497.073818589677,-8141.973601418431
2025-12-12 18:04:17.088801,Right,-4617.110812583589,-5171.926946276915,-5204.99786009104,-5090.822994825197,-3708.55182330939,-4898.8396539647365,-4915.993197185919,-5341.404333479237
2025-12-12 18:04:17.092871,Right,-3418.9364604232833,-3828.75990687788,-3855.214278620435,-3766.452234257944,-2618.7116551890504,-3630.5111723475857,-3639.9213230083697,-3948.671649370808
2025-12-12 18:04:17.096877,Right,-4188.338847080478,-4682.32512862212,-4712.233526475728,-4608.028481091023,-3269.7259446952958,-4436.705374482088,-4453.903581579565,-4828.273471262073
2025-12-12 18:04:17.100899,Right,-5255.686059790547,-5880.431130034616,-5917.564796301769,-5787.910523349652,-4269.86900781095,-5565.121177556692,-5593.217427088879,-6069.871145990677
2025-12-12 18:04:17.104912,Right,-4978.752605372923,-5582.883767685387,-5621.8828664298635,-5491.771631166572,-4035.7670503772097,-5281.921623892384,-5308.490354910726,-5762.225883925101
2025-12-12 18:04:17.109856,Right,-3713.0824258524226,-4167.978549558902,-4201.03420442855,-4097.4550921306945,-2870.9727759867674,-3947.2221983720083,-3963.599235688802,-4293.307972870767
2025-12-12 18:04:17.113943,Right,-3034.1902705309913,-3396.931327608647,-3423.828278676374,-3342.27931207465,-2316.6703665072564,-3220.1259551949333,-3233.4449215715285,-3493.79479240044
2025-12-12 18:04:17.116952,Right,-3562.0422773737228,-3983.919019433204,-4012.8281868982594,-3922.88346007606,-2893.6534328402486,-3771.793842051411,-3792.2905990425497,-4105.828420366161
2025-12-12 18:04:17.120914,Right,-4255.4637321308255,-4770.448478410486,-4806.21644448,-4693.148619308136,-3488.290993549046,-4511.832589010708,-4536.915814134758,-4921.038950852817
2025-12-12 18:04:17.124949,Right,-3905.0110429620836,-4384.242729389807,-4420.008604814066,-4307.897249908885,-3063.089082546765,-4147.244790195022,-4166.791542192223,-4515.037324372446
2025-12-12 18:04:17.128979,Right,-2752.980439645238,-3086.5016450642142,-3112.9228407258634,-3031.749727803748,-2080.991601236514,-2920.7923105114605,-2932.9502925677225,-3168.2617074605078
2025-12-12 18:04:17.132982,Right,-2137.9037238617893,-2391.973164710449,-2411.7252646675333,-2351.7531005260535,-1723.5731107584434,-2259.930647405563,-2272.447646801593,-2454.171740679303
2025-12-12 18:04:17.136993,Right,-2674.3838480794802,-3000.9113234148826,-3025.390096564777,-2948.7118214732036,-2233.030729612452,-2830.6170771596953,-2848.4258629994,-3087.1726750941016
2025-12-12 18:04:17.142008,Right,-3408.308989959187,-3830.840099795023,-3862.7926124185324,-3759.301058330806,-2700.3757967703277,-3615.235987396911,-3634.7522268316243,-3939.613686757162
2025-12-12 18:04:17.145006,Right,-3114.3763000420295,-3495.721084916964,-3524.772136853775,-3428.1823708410375,-2369.906165065826,-3300.9931955873035,-3316.991269366583,-3587.876869313186
2025-12-12 18:04:17.149038,Right,-1990.8603669899749,-2229.410955483094,-2247.869501184672,-2185.47283476335,-1574.8255146985175,-2103.159717340721,-2115.116047508316,-2284.1910762595944
2025-12-12 18:04:17.153028,Right,-1389.3584346051794,-1560.967424948467,-1575.220539957052,-1527.9648518939503,-1200.9690680461936,-1468.464730261825,-1479.1605486755725,-1601.0075121610425
2025-12-12 18:04:17.157052,Right,-1922.5118859028444,-2167.438626848161,-2187.6890160019975,-2121.000408525113,-1543.1258435550844,-2041.7974220073083,-2054.184967147652,-2225.513270016294
2025-12-12 18:04:17.161060,Right,-2619.7353009183425,-2945.796278465772,-2971.266058861045,-2886.5335764822084,-1991.2599830215331,-2778.7258127256064,-2794.4903770824894,-3022.8828176325187
2025-12-12 18:04:17.165020,Right,-2330.3962383450707,-2613.7449622841086,-2635.8155537114944,-2564.2916186624207,-1834.2014578146627,-2461.838901274139,-2479.499126864481,-2680.7679813606665
2025-12-12 18:04:17.171095,Right,-1336.905606000917,-1503.248707025894,-1519.2794235751498,-1473.6957412369084,-1156.5705399529543,-1406.8647636292735,-1422.1165946524125,-1539.4799935455667
2025-12-12 18:04:17.174104,Right,-878.1016807535198,-997.173864137847,-1013.0330753290327,-972.8693315500859,-727.2827225854853,-927.8059990218608,-939.0893621037249,-1015.951341979322
2025-12-12 18:04:17.177113,Right,-1363.3476847202983,-1538.9287701345747,-1559.0684461892815,-1504.6392092932947,-992.5884709390812,-1443.8172829393297,-1455.6954623360652,-1570.4254550008336
2025-12-12 18:04:17.181137,Right,-1880.6870145516004,-2111.396848592325,-2133.6631222383585,-2071.3774386582663,-1461.2293591446942,-1986.8084933212958,-2003.6868914607912,-2164.970682457788
2025-12-12 18:04:17.185136,Right,-1575.4722236450762,-1773.4115036184667,-1794.1542956135236,-1741.028506231145,-1357.5357426000992,-1665.3827224085107,-1683.978569017374,-1827.1266273797955
2025-12-12 18:04:17.189147,Right,-795.4274398806738,-910.9843576675048,-929.6094964813674,-889.763479553163,-706.0235761234071,-849.6690955781378,-863.4158694661455,-942.2289646611316
2025-12-12 18:04:17.193091,Right,-465.64442189072724,-541.9903243955923,-559.552009884268,-524.6955038927263,-305.7805550725898,-503.5059241281124,-513.2831608572742,-558.8670929623768
2025-12-12 18:04:17.197169,Right,-793.8125528786331,-899.3443641512422,-916.9554127895972,-879.0977348592132,-584.4676655998919,-841.9430361822015,-855.3110062435735,-929.2686814770568
2025-12-12 18:04:17.201198,Right,-1129.8740073993104,-1273.6682806540048,-1292.8231413068715,-1249.8316485041287,-994.6572238295921,-1192.7184820484836,-1211.717106597731,-1324.1925443991786
2025-12-12 18:04:17.204186,Right,-940.4902742488775,-1070.4399950710358,-1091.2966495533474,-1047.6314956860151,-842.4317871098756,-999.7743884709198,-1017.1460168653866,-1118.1774611694273
2025-12-12 18:04:17.210218,Right,-434.59328371693846,-505.6498101602774,-525.2100603177678,-490.29653136152774,-289.48825397505425,-470.42491561488714,-480.8822945782449,-529.6271521074232
2025-12-12 18:04:17.213230,Right,-160.89430491399253,-188.83061870210804,-204.68916502280626,-182.64613390737213,-46.64012577186804,-175.15852048667148,-183.143635632121,-199.46535506646615
2025-12-12 18:04:17.217290,Right,-305.0436339463922,-345.6764292176813,-360.8646481655305,-341.26606592477765,-306.6281553300214,-322.4769605268957,-334.0726024398464,-367.420910828514
2025-12-12 18:04:17.221291,Right,-547.0960100566735,-625.70102715143,-645.053334795346,-614.2226951200282,-545.3258105299901,-584.6740897504496,-598.2089512855164,-660.8610392779228
2025-12-12 18:04:17.225296,Right,-494.6551600054372,-572.726358419226,-595.0041326257051,-556.6191266151145,-364.9152877549059,-534.7370764123625,-545.3880941875977,-600.0639857969945
2025-12-12 18:04:17.228313,Right,-133.71683400624897,-160.42831087991362,-179.70414755004458,-150.71277343045222,-9.241240934992675,-144.94735186971957,-153.46944424917456,-166.7633168664761
2025-12-12 18:04:17.232296,Right,171.82753788749687,189.0705921695917,174.12758056621533,189.9123875722289,111.46613462537061,188.86025129863992,178.72276073653484,193.53746970760403
2025-12-12 18:04:17.236287,Right,127.40038764904602,133.37524824845605,118.01172521262197,135.98922274034703,-2.4365450612385757,139.15538872452453,128.28367121401243,134.12997692421777
2025-12-12 18:04:17.241287,Right,-110.34028758085333,-139.7338080724585,-157.31908426838345,-128.4750490996812,-77.23254670054303,-120.85162825381849,-128.56650615527178,-142.18430602987064
2025-12-12 18:04:17.245298,Right,-129.79686204897007,-155.6590657842753,-170.61163520946866,-143.8398275191139,0.6399090745544527,-138.7641021280433,-143.36015785558266,-152.45087353282725
2025-12-12 18:04:17.249322,Right,172.59634472859034,191.17203295993386,181.9946996452345,193.70357120592962,138.7452258538251,190.91411176073598,186.12323195755016,202.01892394738388
2025-12-12 18:04:17.253322,Right,446.7622560391319,494.0781200936617,486.152678686296,491.04205386247486,250.50574355314893,481.1929139513668,475.631145563224,507.5177279674681
2025-12-12 18:04:17.257335,Right,399.7669795636102,433.5199309161908,421.4466319937055,434.45985310211836,302.4229850712145,423.715474072902,419.18742173811916,446.1128482877102
2025-12-12 18:04:17.260346,Right,213.4198704798132,228.3325912800501,213.7072079437612,232.5228862694794,272.4516825187302,226.64526252255155,222.1070810405663,239.88726519462034
2025-12-12 18:04:17.264354,Right,242.0671102651977,268.2463794579162,255.7681548811379,267.8317049481411,220.5555891977856,264.80539369442704,257.5603269525818,279.2581454438696
2025-12-12 18:04:17.269323,Right,483.5315556033747,534.6598213799152,524.4277224887628,529.4037014617206,282.57934843862313,520.3784451999236,512.162789496695,547.7211062844144
2025-12-12 18:04:17.273379,Right,640.6622663585295,700.5428218372399,689.9574402511062,697.4450408557313,463.0102096345654,677.902815904381,673.5867084645579,720.4187631830282
2025-12-12 18:04:17.277398,Right,603.9879872756719,661.3729143515811,651.6019540403795,661.5175251369365,571.1054132375284,637.6736937663227,637.4689874599571,688.6040734926355
2025-12-12 18:04:17.280501,Right,554.0225652081135,616.7924068542197,611.1109849268105,614.0872179653088,498.4082565612043,593.9376020547643,592.9701324777561,644.96640694089
2025-12-12 18:04:17.284406,Right,605.8283428153663,677.299271044496,675.0037468808005,670.2272990911442,406.816841999389,652.455248992861,648.8754739766591,701.6078926785267
2025-12-12 18:04:17.288430,Right,665.1712618528982,736.5567844913458,734.5740427197888,730.1022772900178,478.9801010817173,707.8294582664385,705.093720857054,760.7149789381656
2025-12-12 18:04:17.292440,Right,679.7911770143546,752.8848744046409,752.0425197057775,747.4615777923609,632.649500667263,719.444231868838,719.1498309462331,781.9528940175078
2025-12-12 18:04:17.297463,Right,741.511301733728,831.1827575168572,834.8726519076154,820.6469431399019,676.9639072957216,791.4826160824741,790.3223958411836,862.1184456332121
2025-12-12 18:04:17.301460,Right,853.2666899613687,958.2371619471232,965.5793650614214,941.6807535057887,622.107031642634,912.8848495530547,909.3780867357273,984.3058478126768
2025-12-12 18:04:17.305471,Right,865.4817736109253,963.0326257057604,969.5005868766457,947.9769259261666,615.9082281946321,916.3347306795185,914.7527984920889,984.1736317504547
2025-12-12 18:04:17.308490,Right,762.5876815468073,844.911365207925,850.0001550185261,834.656416509999,674.3411258529522,798.7244223686284,802.5164347609971,866.805208264268
2025-12-12 18:04:17.312487,Right,756.9377515720553,847.8410940603353,856.1376950105187,835.4487247285433,704.1860461725155,796.4856361339334,802.829586989712,872.9320687411819
2025-12-12 18:04:17.316496,Right,940.416495139827,1058.9479484217009,1072.4847933050478,1039.0990680198884,716.1091300903936,996.1496865076479,1001.1695806793869,1085.0713346718112
2025-12-12 18:04:17.320528,Right,1080.7475431442726,1210.0218811549712,1225.3779738222947,1187.8462845360627,778.6384626604267,1139.8762981522596,1144.399423219962,1236.3248798372224
2025-12-12 18:04:17.324547,Right,972.2688079844229,1085.4644896574318,1100.3690129450988,1066.9964144300902,822.477034765936,1019.6318047528621,1025.2322354887147,1113.115355549031
2025-12-12 18:04:17.329561,Right,787.8159381708829,888.4345154606272,905.6389519817894,870.2699609227711,742.8549900027574,831.1382738556713,835.2371249996359,916.8280662558973
2025-12-12 18:04:17.333503,Right,824.9648824592587,937.8785375998123,959.6880029110471,914.2018386191921,649.9100728747435,880.4772468192969,880.7923692550976,966.9040554631501
2025-12-12 18:04:17.336560,Right,1043.456277653575,1176.282631281414,1200.258341849898,1149.720188713749,737.4035512882983,1110.2168927303283,1110.1019737750757,1210.6294386326335
2025-12-12 18:04:17.340570,Right,1139.4611651093,1275.4583264240064,1298.7830275886226,1252.3943662971724,919.8681888744468,1204.8827894759597,1208.3050337614259,1318.5512989220442
2025-12-12 18:04:17.344601,Right,1014.0359412078978,1138.5067799978424,1162.2051400030032,1118.524359980016,913.4121667979052,1074.6422098253388,1079.0470310086384,1183.5067325730342
2025-12-12 18:04:17.348595,Right,888.0689090259839,1002.7992329163244,1028.2899203367997,981.268035182613,711.6675940873101,948.7719163498841,949.1810969695216,1039.353283888544
2025-12-12 18:04:17.352609,Right,944.1657478732523,1058.2583974698791,1083.8998764812713,1035.3663791044382,643.1882822433254,1005.4306587092578,1002.9665950140916,1088.272979772999
2025-12-12 18:04:17.356566,Right,1095.0176156061934,1216.2486833822913,1240.9942243346013,1195.0316765786847,845.8531225501793,1155.9048042201903,1155.4165061782114,1252.15514676983
2025-12-12 18:04:17.361643,Right,1161.5803818660788,1293.0451879900647,1319.5762557234848,1272.0303697506897,1020.4690897171386,1227.5798410580028,1228.6510220426135,1338.4251465291018
2025-12-12 18:04:17.364588,Right,1099.5120140122017,1232.6212032235926,1262.706991525134,1209.0775058884174,902.8771665534005,1172.6482173448894,1170.3519788212143,1276.1659544669092
2025-12-12 18:04:17.368641,Right,990.9291621308075,1109.3610420047771,1139.764315462322,1086.6658942721551,685.2771313095,1060.669964398956,1054.715709184762,1142.9364528460428
2025-12-12 18:04:17.372660,Right,941.66274723073,1045.502157404204,1073.1130800492829,1028.173456921475,697.9286074254196,1001.3630502769956,997.0880497382022,1077.0961194292177
2025-12-12 18:04:17.376628,Right,1012.3563249057624,1126.6104609256145,1154.3495763507672,1110.889053096762,894.0646090928931,1075.299074516981,1074.7380435630912,1167.231770911254
2025-12-12 18:04:17.380713,Right,1142.0456824660068,1282.5497618217487,1314.9095131827053,1261.8367278584046,964.71436279302,1222.1715087721823,1221.0022846254287,1328.8926948325243
2025-12-12 18:04:17.384648,Right,1159.9084380135173,1303.4904304579832,1338.9207931146957,1280.85905323131,832.6098256600089,1245.2672682852717,1240.4122320398455,1343.818920491496
2025-12-12 18:04:17.389723,Right,1003.0565573856002,1117.938222043682,1151.6814588285051,1102.2484775867779,715.9625172879314,1071.8098515074234,1066.0068373646354,1150.337235714076
2025-12-12 18:04:17.392743,Right,871.4032390114153,968.0708752577193,1000.5943725523539,958.5572894308716,753.293966082274,928.7240912613925,925.1740304016275,1002.3790578399785
2025-12-12 18:04:17.396739,Right,978.1508126695408,1096.3807156365365,1132.1123053205665,1083.037189693423,846.7543998291949,1050.0221651976462,1047.7355102393776,1139.2453662324697
2025-12-12 18:04:17.400766,Right,1190.162264051265,1336.4952775468118,1374.9929288248532,1317.0982521642,877.4303602569271,1280.5664386518765,1277.9559801490977,1383.8631904686335
2025-12-12 18:04:17.404731,Right,1175.318977089948,1310.9936229402665,1346.6415164924692,1295.3733826421667,845.6440504789352,1258.3923082805704,1256.9355745858047,1356.3206772953272
2025-12-12 18:04:17.408779,Right,919.1045075177681,1020.2948866095394,1051.2941208682023,1013.6078284522519,785.0139583095443,980.5240452897269,981.2515764583368,1062.239812510088
2025-12-12 18:04:17.412782,Right,785.8871715487912,880.0563669973053,910.7160086601507,873.5872911566403,725.4356818273664,844.5640917075798,844.9237717026845,920.2685746080242
2025-12-12 18:04:17.417807,Right,964.506491907523,1086.185860298574,1118.7435268401168,1071.3422936517745,737.6680242551956,1040.0105969025753,1038.3680144634563,1125.8430921330582
2025-12-12 18:04:17.421825,Right,1166.3996061496437,1305.9389831109438,1336.7237558083143,1287.1854457212612,840.9134922226658,1248.6955470310058,1248.1861840679776,1346.0187517933082
2025-12-12 18:04:17.424816,Right,1076.7362112647388,1200.7789079567883,1227.0343847435433,1186.3759108080994,895.6568392695626,1146.3339089285582,1149.7679357540328,1240.854515626328
2025-12-12 18:04:17.428851,Right,837.5474820793606,940.7217077221721,965.3564782284666,928.9500089520589,780.9291594058741,896.9287331022788,901.6239251855295,977.3766292678192
2025-12-12 18:04:17.432843,Right,798.6439271809068,904.488674571272,930.776359074749,888.6472013245802,635.2298326625023,863.1327917848248,865.6528115044348,935.873752211919
2025-12-12 18:04:17.436795,Right,972.8363231380936,1093.5470930815209,1120.1081444912124,1074.4157787617296,685.5241480896948,1043.5609252431896,1046.045083050616,1124.3386948325206
2025-12-12 18:04:17.440863,Right,1064.1538018411957,1187.8083769800141,1212.4778049227316,1171.0585878766142,863.3853794895113,1130.3890408561565,1136.7995441639796,1223.1709296859335
2025-12-12 18:04:17.444874,Right,950.259614090668,1064.8261527521536,1089.0516327875666,1050.2964031465817,874.7024744865485,1009.6423187863547,1018.6173335330095,1100.6707808838692
2025-12-12 18:04:17.448890,Right,818.1285176356323,924.8697288797703,950.2280650611501,908.0940226151142,675.1228970127413,876.0333056678064,883.4124140178319,952.3535141912289
2025-12-12 18:04:17.451888,Right,824.1028009117581,927.6312359382864,951.8119589560665,908.8334669950418,562.0770061180228,879.6004344355315,886.0083972928114,947.0539079217706
2025-12-12 18:04:17.456902,Right,893.7786305348855,997.1079410263337,1017.6217231911141,979.3977486218791,694.2988210953772,943.2165324862581,952.5978853430133,1017.5872518070973
2025-12-12 18:04:17.460904,Right,907.2494762288406,1015.4469548859634,1034.064582468709,996.8949766978621,832.8263392625377,956.1285821658093,967.7053752602078,1039.110282279551
2025-12-12 18:04:17.464911,Right,865.371280689491,978.3938301599119,997.6267001500819,955.4377619184088,740.4762367970543,920.3449884839356,928.9289413553197,995.5514269578271
2025-12-12 18:04:17.468934,Right,808.7570299115032,914.3153997189365,932.6105483137071,890.791721488582,560.5152623758186,863.322157517774,867.9601058710832,919.174976374954
2025-12-12 18:04:17.472954,Right,745.8620538532268,835.851710514864,851.0520711056888,818.6677343863994,551.8765994732967,790.89447021042,796.5704959861469,837.2673072358593
2025-12-12 18:04:17.475958,Right,715.5500220926479,804.0952715864405,818.9188936369028,791.375616727164,667.7008545598947,758.6672274749726,768.085189453559,813.323107344564
2025-12-12 18:04:17.479985,Right,763.4331386071863,868.6874386542477,887.339040620951,852.5412358816247,681.5417332400102,818.7106588962488,828.7252475654241,884.3203764809296
2025-12-12 18:04:17.483974,Right,817.8381362440996,930.7420837359969,951.9749731291085,911.1138790890109,579.6559513219399,879.9149332277011,888.3512054469902,944.4262630976737
2025-12-12 18:04:17.489997,Right,755.6631645578891,850.9476583218202,870.0911131049506,835.7168401107192,533.0779006019002,805.6270427079871,815.4174593370408,861.7225520112552
2025-12-12 18:04:17.493010,Right,623.4757015147479,700.1627310747281,716.7867640305776,690.7799110668711,571.5278205259237,659.975435031578,673.2869629526976,713.4115858860314
2025-12-12 18:04:17.497015,Right,602.5787847009487,686.2396639764775,703.9320533566643,674.6822628825903,569.713050678838,644.1252569807693,658.1205314071849,702.6165670466144
2025-12-12 18:04:17.500031,Right,708.3797800287139,809.370467393659,828.3634542538784,791.9825013144873,511.61242092528846,761.6267856052145,773.829485896742,824.4354299185798
2025-12-12 18:04:17.504035,Right,739.0297001125291,836.803418046562,853.009663102217,820.0771022269037,501.8577302185586,788.2546325291041,800.9207604012918,849.5128702542279
2025-12-12 18:04:17.508060,Right,604.957170465379,683.8883747379296,695.9369973109569,672.1272913001012,532.4407208821503,640.394455023692,655.4835968478583,696.812292159535
2025-12-12 18:04:17.511998,Right,486.92830083402805,560.8833293861244,572.1053336367477,548.5493121414911,491.1155542471679,520.9883334437618,535.6477773146471,573.1919050039724
2025-12-12 18:04:17.517080,Right,535.8104304488515,621.2922504991293,633.2209818346892,603.72676991974,401.2756336174207,579.6879664352164,591.3910818262957,629.7811929970048
2025-12-12 18:04:17.522105,Right,625.2181987885851,713.3612733031623,723.0269633440766,695.7127630255418,404.5936248775106,669.6000120064709,681.4181257010205,719.9282452869229
2025-12-12 18:04:17.525095,Right,580.7808702628827,655.8986298427917,661.7912824412342,643.8043732855003,488.76350680203177,614.2716562808491,629.7935253892792,665.8246301049367
2025-12-12 18:04:17.529119,Right,473.0757014241535,540.0992602301994,545.3256678733742,529.5809058578452,483.41899340599775,502.25777488201857,519.0293344270904,552.7291599598248
2025-12-12 18:04:17.532122,Right,466.91929936688393,538.4226155328797,544.9753086965065,523.5521658412181,365.1223783326568,501.5313252223423,515.1568692092551,547.6563681393163
2025-12-12 18:04:17.536111,Right,524.0055107448716,595.0580891411519,600.0213779315818,578.8235517620342,312.2275217184797,557.2363838317106,568.8145303772762,599.9224799710792
2025-12-12 18:04:17.540138,Right,494.76913829462137,553.990492948913,555.0514012350468,542.3204717170447,388.9082542305114,516.5575613502879,530.1915800888091,560.4722691231873
2025-12-12 18:04:17.545141,Right,402.8117918729549,456.7772515369579,456.9299487620592,447.35649425257,428.2392778705107,420.29748242965434,435.7566946465522,467.47055943647865
2025-12-12 18:04:17.549148,Right,388.5457412659889,450.991011746577,453.6059443227714,437.7934125268366,332.441443674732,413.73607260442805,427.74226364667993,461.18313966784626
2025-12-12 18:04:17.553171,Right,435.4564963877201,500.73943145829253,503.94176782725845,485.3178196668159,245.05786354572047,462.3533076273743,475.5442964201793,507.46230670053046
2025-12-12 18:04:17.556160,Right,404.96095878002234,457.0803363204468,457.54037975822575,445.0695328103611,285.66890567564406,419.5205890139332,435.68646692391485,464.0245830230415
2025-12-12 18:04:17.560128,Right,310.3794966812711,352.59055692586116,351.39902291237377,342.03015938051976,339.6560861024773,315.9542504734127,334.74955731234513,362.1298989880597
2025-12-12 18:04:17.564209,Right,301.04190620128065,350.79231111856643,350.6075725654373,334.74444487853907,281.7130571063608,312.4058423577808,329.19007171690464,358.6115596892778
2025-12-12 18:04:17.568198,Right,375.2208736796165,432.22789587895386,431.5254085814813,411.66281234368216,204.7180204509059,391.9039441710338,405.43385510891676,435.0565942224348
2025-12-12 18:04:17.572281,Right,364.9818763436051,410.6862620813772,406.4004577740561,393.9524422752438,230.44787536095828,373.02748064743355,387.1309241745621,412.968698456767
2025-12-12 18:04:17.576283,Right,239.8953320471337,270.00828483048826,263.8570221980335,259.4073655062821,272.43749832804315,238.85735092498362,255.06654999998864,277.08863696898334
2025-12-12 18:04:17.581213,Right,175.42364024359267,207.23871423501987,203.6838182854699,196.74695627670735,206.36947557202075,180.68843685183674,195.48785610776395,217.4346952586202
2025-12-12 18:04:17.584215,Right,248.62384220573585,290.82876905368175,289.94121435889974,278.32403571298346,121.5588046911871,264.4878330891952,276.2369011421688,300.29384923016187
2025-12-12 18:04:17.588260,Right,302.5371643229155,342.00720681238454,339.9108196996385,332.9903515075566,161.2574946427485,315.1766554240603,327.45187735860236,352.0590950543992
2025-12-12 18:04:17.592272,Right,220.54957671149168,247.31775837473106,243.07329991518054,243.7584059421206,240.19826678797835,222.77394822740462,237.576448627864,260.01068161579315
2025-12-12 18:04:17.596300,Right,119.08244286722038,141.99740587209817,138.38252641889267,137.81809097959194,184.1140703993151,120.88438693305943,134.49002220924012,153.30506868474185
2025-12-12 18:04:17.600309,Right,129.11628192826174,156.23394030611962,153.59172111970838,148.01187499752268,54.89860951673472,136.78073810623027,146.21550219948404,161.70316408679355
2025-12-12 18:04:17.605275,Right,176.62394540314563,200.63712755928282,195.84886656783056,193.3991559885908,54.43712089757901,181.72335077321623,189.96744706633035,204.3484752845252
2025-12-12 18:04:17.609336,Right,140.4786197009962,155.7830397854559,148.4047746519791,153.19320836884435,161.38515467720572,138.46993254730478,148.84437965066172,165.031583684613
2025-12-12 18:04:17.612274,Right,67.92067710193805,83.26584778376855,76.9068802553229,80.7981376259122,161.0368925058865,68.42994345736224,78.68246311496478,96.42310838436242
2025-12-12 18:04:17.616352,Right,61.181042454671115,81.91851052700076,77.74559895868879,75.71835816395469,26.656981423380785,68.91481519141234,75.92354506195989,90.76672221708577
2025-12-12 18:04:17.620358,Right,83.42977021000115,98.93054322816897,93.32159483246505,93.28083017421886,-31.396624469663948,86.66384599922458,92.86387222574558,102.17539812019095
2025-12-12 18:04:17.624392,Right,51.64512197941076,55.15694686543429,46.18181201122934,54.06190746923676,62.45775060210144,42.48908647935605,51.84886190749239,59.79617347137537
2025-12-12 18:04:17.628403,Right,7.939604528830387,11.667106473003514,2.6070636183721945,10.473023585800547,121.43742020823993,-2.328823727031704,8.281620895664673,20.191245861176867
2025-12-12 18:04:17.632404,Right,23.219779095437843,36.60947105369996,29.989031242148485,30.150032448756974,29.422443280753214,22.52474187721964,29.487470918975305,42.843249338970054
2025-12-12 18:04:17.637364,Right,33.78759688435821,43.54296554357279,36.65926929196576,36.07112378318561,-69.73256497556577,32.948629219434224,36.79066465981305,44.072686490544584
2025-12-12 18:04:17.640421,Right,-41.269587215501815,-49.1421179373865,-59.0028434866108,-51.261851416144054,-43.68940744467545,-54.7969883591868,-49.217985435563605,-48.66401716432301
2025-12-12 18:04:17.644428,Right,-114.73109229636611,-127.8967627195525,-138.35702449514065,-127.82614919432672,9.82160267123254,-132.5576570900157,-124.48217217758065,-122.3751437785686
2025-12-12 18:04:17.648477,Right,-66.987824773998,-65.64454091590596,-73.77331594808493,-70.36718500492861,-29.271963943494484,-74.05195289547555,-67.27045618771808,-58.49960495141568
2025-12-12 18:04:17.652445,Right,14.82778951554792,23.80209755944088,15.79874910734361,16.325811121205334,-89.10066611948423,13.080087946436834,17.69024882261874,27.34767603990622
2025-12-12 18:04:17.656482,Right,-38.092416319064796,-43.61460522643756,-54.986078326473944,-46.53139904461568,-70.7619460207643,-50.854930002766196,-45.52328593592392,-43.00131750066066
2025-12-12 18:04:17.660493,Right,-170.19584519555792,-189.4008069120464,-202.59973035968142,-188.7792803667835,-42.73277695546858,-191.79130291636102,-185.73847815545741,-189.43084134324454
2025-12-12 18:04:17.665498,Right,-174.5724576129287,-185.7346520893043,-197.13873788388446,-189.36837587831542,-89.41473836201476,-188.5445517640328,-185.2183177008992,-188.29464355658274
2025-12-12 18:04:17.668488,Right,-51.11460621660808,-49.86064771396923,-60.56429413476144,-58.200551295885816,-130.0000374438241,-56.7922044863808,-56.24022174777929,-56.86717831500573
2025-12-12 18:04:17.672478,Right,-20.595855368243065,-26.9576378656202,-40.80447975554853,-31.873442368290853,-79.26176796254003,-34.25967960743583,-32.246016677934676,-35.3478705281741
2025-12-12 18:04:17.676505,Right,-152.84063449141104,-176.32503523794003,-192.72551020342507,-174.74231915042037,-38.47472772625042,-178.42203817039263,-173.8302586947393,-182.89082612417405
2025-12-12 18:04:17.680545,Right,-251.5227075071307,-276.5861795870587,-291.3402951079188,-274.6378460417909,-118.9475693092536,-274.2943711000262,-271.29780249882606,-283.7441333991883
2025-12-12 18:04:17.684523,Right,-190.75788613120676,-205.46356412072782,-218.01859136577696,-206.85922291199677,-212.17812115685956,-204.24920174913132,-204.89234657981433,-216.3560656219197
2025-12-12 18:04:17.688519,Right,-113.2208158455469,-127.69333774619736,-141.4573809382564,-128.18924735076143,-165.73540400734055,-129.6014112044213,-130.05682530027116,-139.3445169404731
2025-12-12 18:04:17.692583,Right,-163.94221410887258,-188.76682827093464,-204.21160036878427,-185.80520455096848,-69.89749591542932,-190.7263808601565,-187.95047745056218,-196.8155981798045
2025-12-12 18:04:17.695525,Right,-251.2440554463683,-279.2567504868348,-292.8407748704485,-277.3427291906992,-113.09135599244473,-278.5905074629263,-275.2202964844473,-285.93210290196293
2025-12-12 18:04:17.699593,Right,-237.5612787618884,-260.59051592467586,-271.363563607345,-262.15256669129303,-241.6611992002945,-257.82379499795934,-256.6084400752734,-270.2622740941151
2025-12-12 18:04:17.704664,Right,-180.49393819128454,-205.12215809388,-216.6041896634888,-205.03235882414447,-244.33325824267013,-201.42054997470768,-199.85795327171218,-215.09960109162785
2025-12-12 18:04:17.709626,Right,-200.4762109866424,-232.69605080926704,-246.7072639290991,-227.6350041462756,-126.68077966799865,-227.96663923024153,-223.33254638564904,-237.09465155914586
2025-12-12 18:04:17.712644,Right,-258.84287787020367,-290.24175195366365,-304.32615979494585,-285.2552851858745,-104.48231129641863,-283.95973331750065,-279.29632174785183,-290.8460538370023
2025-12-12 18:04:17.716626,Right,-256.1035095418374,-280.56129851764126,-293.54313940108113,-279.9184075140547,-223.31853041020804,-272.2924426998143,-271.6549251204815,-284.69631358502374
2025-12-12 18:04:17.719638,Right,-230.72453474865324,-258.7083910794463,-273.38791595703515,-257.77853756996774,-284.98906547771185,-247.8868058529697,-249.06270016609778,-266.85695529481745
2025-12-12 18:04:17.723646,Right,-270.04784625385946,-309.70016230171314,-327.2151271908515,-303.1195249139273,-204.31452147629898,-296.5856639531121,-294.6160727687966,-314.5101496201387
2025-12-12 18:04:17.727671,Right,-323.33155555441044,-362.7051530013996,-379.3810230990057,-353.97317978668434,-148.98178458375332,-349.40672667324543,-344.6106908686197,-361.5837316959514
2025-12-12 18:04:17.732683,Right,-297.8924066925101,-324.762810661603,-338.1665939790546,-319.61213460295403,-226.62648468167754,-313.3191132491338,-309.66998237837106,-324.40614564523275
2025-12-12 18:04:17.736636,Right,-254.65933243402105,-279.87264855102694,-293.330874303967,-275.8237116482778,-301.58974632904574,-269.3677998810599,-267.14374846973806,-285.44138780144567
2025-12-12 18:04:17.740706,Right,-304.46948658992187,-344.2020645883458,-361.1734210664581,-335.7948000521865,-257.9312127347948,-332.29877476912225,-328.7640121495351,-352.43614799677744
2025-12-12 18:04:17.744744,Right,-384.5325452333491,-431.40921275809524,-449.58158448149334,-421.0865813610144,-204.01916744178743,-418.5985878325009,-414.5581479165412,-438.304291143897
2025-12-12 18:04:17.747683,Right,-355.5243801395118,-391.3880209624476,-407.0303442607401,-385.15870612408617,-252.88187184676644,-380.24345124783576,-379.337821579742,-398.75831889922847
2025-12-12 18:04:17.751744,Right,-264.53036264464026,-292.92324480076786,-307.40431049192557,-288.6514097106119,-311.12841433956055,-282.77529642372974,-284.6701428654487,-302.45601382671157
2025-12-12 18:04:17.755780,Right,-278.870837298542,-318.6169994607335,-335.31358948070556,-309.2543665302801,-269.8766577842762,-305.2932663114916,-305.92747610481456,-326.6484702730377
2025-12-12 18:04:17.761778,Right,-387.10249655568623,-438.4844591396977,-456.16225714058965,-424.9695447203412,-219.63852729651262,-420.8148903607507,-419.725628383545,-442.5912498450198
2025-12-12 18:04:17.764782,Right,-410.93164267682005,-455.57818541300367,-470.66760287684156,-445.62753470017924,-274.78181727204355,-437.77044438238954,-439.0152537143149,-460.2113622891484
2025-12-12 18:04:17.768802,Right,-320.9742182428017,-355.01585314352997,-368.43197847990086,-349.6134515051381,-346.51447516697226,-340.2654140635277,-345.07443445402896,-364.31590425228933
2025-12-12 18:04:17.772812,Right,-288.59709094522987,-328.7066782655893,-344.384497220919,-320.85414361505536,-306.17911825719057,-314.4716650545015,-319.08318459644215,-339.14667891029967
2025-12-12 18:04:17.775825,Right,-378.0566140556475,-430.67281116900267,-448.5364414996584,-418.5605835803435,-235.05610775543028,-413.0905590101611,-415.7835143174161,-437.42124916345347
2025-12-12 18:04:17.779846,Right,-436.5812401198782,-487.3559237240115,-503.71847383881686,-477.69745880155824,-280.1237433794013,-466.87853385310154,-471.0797161749215,-492.9708383529214
2025-12-12 18:04:17.783844,Right,-375.17844372364925,-416.5016458960599,-430.9043739006156,-412.1515840803622,-375.60609527133056,-395.9176830217475,-403.32496551802615,-425.91754844930256
2025-12-12 18:04:17.787804,Right,-321.94788141403114,-366.18434760917444,-381.8791800950421,-361.08615137211746,-355.98593482834985,-345.79191451711813,-352.2229236974963,-377.15868241363205
2025-12-12 18:04:17.792879,Right,-377.36214576120256,-432.14326332177734,-449.59528265416157,-422.62980187754147,-261.19426940294215,-410.5167532758787,-412.6200734958402,-438.919635331491
2025-12-12 18:04:17.796884,Right,-433.78912248369306,-487.1718196840957,-503.00406967895105,-478.3042753522168,-267.13588551123394,-464.7083577559097,-465.7388963024132,-490.7712273953948
2025-12-12 18:04:17.800849,Right,-385.9579775148304,-429.3801418172661,-442.78808970260434,-424.80608599231346,-363.80887699645245,-407.111830232956,-411.5700961870607,-435.55314349214314
2025-12-12 18:04:17.803894,Right,-328.98805942671606,-373.9985593378078,-388.48642453120556,-368.794976877165,-375.13528146600584,-350.1605075293337,-357.1429138877429,-382.7537554386654
2025-12-12 18:04:17.808908,Right,-375.3278573616408,-431.9773267611745,-448.9474726843764,-421.9757085154415,-284.3930679554469,-403.93149243074004,-410.5745215481729,-438.2101147323847
2025-12-12 18:04:17.812928,Right,-440.37448137887986,-497.793165387935,-513.871914945601,-487.68697673256975,-262.6950564906583,-466.97472845204175,-474.36035139026353,-501.7128238591831
2025-12-12 18:04:17.815960,Right,-401.6047176553402,-447.6971819124883,-460.8451563026174,-442.53762858750997,-350.29533795721363,-418.71557190828025,-428.7629893486155,-455.3737603444024
2025-12-12 18:04:17.819979,Right,-331.5029990354669,-375.3279330045916,-388.37875635386445,-371.2060446124524,-384.44728971947916,-349.981866252725,-359.7918816925958,-387.97411123558413
2025-12-12 18:04:17.824955,Right,-364.30397170525976,-419.06214424641803,-434.1020751078613,-410.3952619097545,-304.8568915760261,-394.9370099072694,-400.4167038568412,-430.7080689687864
2025-12-12 18:04:17.828997,Right,-443.67892208264675,-501.6018864317448,-515.71541239426,-491.38931006588973,-264.30692600732436,-476.8696959161898,-479.7986725180526,-509.43462479137816
2025-12-12 18:04:17.831980,Right,-425.71734996151645,-471.76998377777636,-482.17259031924186,-465.48746958660195,-340.1828292037826,-447.39640890661394,-452.7046035420499,-480.0544515394722
2025-12-12 18:04:17.835986,Right,-348.05105218233075,-387.4071931351791,-396.5220462187426,-382.005735207058,-389.7063216363895,-363.9449427926447,-371.43584655498853,-398.28663915907964
2025-12-12 18:04:17.839943,Right,-362.07848035544157,-410.6586319959024,-421.7972711544717,-399.71630180912325,-319.97286062990315,-386.85708916396834,-392.0810508489376,-419.87717934604734
2025-12-12 18:04:17.844023,Right,-451.982749833609,-507.7945757097332,-519.5518368280027,-493.72220355970785,-264.837916549528,-483.6515014991164,-486.2676544037531,-513.7010217151837
2025-12-12 18:04:17.848024,Right,-460.7167669282062,-508.770771920681,-518.4619199619628,-499.5048008681042,-333.53559789818246,-486.6594298390555,-491.0201402970706,-517.3371176815126
2025-12-12 18:04:17.852050,Right,-374.327558346733,-414.95562795340084,-424.313436238328,-410.91561980184633,-400.3652756269439,-396.0842879390111,-403.23130085971206,-430.4009656541748
2025-12-12 18:04:17.857038,Right,-342.28776993911015,-389.7912856822368,-401.91879246314056,-384.26570831867866,-334.57532723789336,-371.9797251026612,-377.97985570156015,-407.20713511668146
2025-12-12 18:04:17.860057,Right,-403.2866475653136,-458.3911346703535,-471.63206625997555,-449.5967129546916,-246.78990925033577,-439.14087899564765,-442.50569516804535,-471.87661774933804
2025-12-12 18:04:17.864076,Right,-424.5513665296021,-473.1275667278096,-483.6146160507342,-465.67448192683514,-289.460888693342,-452.78137646242976,-456.9701332789846,-485.14711512136273
2025-12-12 18:04:17.868091,Right,-356.73084202350583,-396.9652674868703,-405.40361322602257,-391.3147432113765,-376.31432161061093,-376.72687141399365,-383.452102436102,-412.50693185126875
2025-12-12 18:04:17.872093,Right,-322.36379360046703,-368.49139074096456,-378.5467066226993,-359.4372480032034,-340.7622381194378,-347.5512950270204,-353.6966257276945,-385.18959500826895
2025-12-12 18:04:17.876108,Right,-378.79925001820084,-433.8480748474831,-445.01532335113734,-421.28743107500486,-241.93945098196855,-411.2349819242954,-414.9595865239389,-446.1870491763111
2025-12-12 18:04:17.881137,Right,-409.6853846326703,-458.91398104431573,-467.12378825235646,-449.9242138759,-254.39812160783913,-436.2725909681758,-440.44159307878,-468.2922016741941
2025-12-12 18:04:17.885144,Right,-349.6725021166494,-388.05602886585984,-392.93712159933057,-385.00247957755346,-348.26533648447366,-367.63656510878354,-373.82408418133855,-399.7828849958023
2025-12-12 18:04:17.888142,Right,-311.37208564474713,-353.6996290337993,-359.1567136005033,-349.9542727394728,-349.1435494310572,-335.13961746019777,-339.7457762459526,-366.88436057639774
2025-12-12 18:04:17.892094,Right,-368.33038708753884,-421.92031249334104,-429.2249666536227,-413.4575719785644,-258.92505834193435,-403.7321937798988,-404.2714368948946,-431.48754250863567
2025-12-12 18:04:17.896192,Right,-407.61806328967214,-458.09808291192167,-464.28874788689427,-449.7122926036827,-243.23856005579,-440.59268390445504,-440.72826425288804,-464.72153259499464
2025-12-12 18:04:17.900184,Right,-341.8215156542137,-379.3322854798753,-383.4815857470967,-374.2288638955215,-320.7733526955126,-363.01325411803555,-366.60978649859317,-388.232094150153
2025-12-12 18:04:17.904211,Right,-283.200839963858,-321.02036310057156,-326.28257058688905,-313.6621387754567,-336.78138646285515,-303.712248743861,-308.4610595954582,-332.04632807557937
2025-12-12 18:04:17.908260,Right,-340.7151477978332,-391.23666284943465,-398.59843256045133,-377.2063471088186,-259.32069765299093,-370.3747828839114,-372.46841637510806,-398.9317478737794
2025-12-12 18:04:17.912275,Right,-410.2749905940145,-461.94655834743753,-467.46509215969127,-446.69391965772957,-235.60952092998195,-438.86083735898137,-439.9441218749853,-465.5308137853863
2025-12-12 18:04:17.915273,Right,-356.7119096330134,-394.564974948531,-395.82773701893166,-384.560015952331,-307.38483901915606,-372.88523808238097,-376.6238020219607,-399.50272501900326
2025-12-12 18:04:17.919263,Right,-263.5024161352776,-296.1186705386499,-296.4527003406547,-288.25623532687314,-329.54178392502945,-276.2386425144505,-281.3144109820714,-304.60611848614644
2025-12-12 18:04:17.924277,Right,-287.4756104525877,-331.3204537410056,-334.04748604400083,-319.74300754093565,-248.1619334833813,-310.3222216551658,-313.0082728188718,-339.3065001111245
2025-12-12 18:04:17.928266,Right,-375.28267112141475,-425.36397882772144,-428.43755241599865,-412.84214950178284,-208.27238817850593,-402.6917706815293,-403.9182685047854,-431.0381380029721
2025-12-12 18:04:17.932291,Right,-358.9308813532116,-398.99798890331294,-399.4065897647524,-391.92521644185763,-280.0211668838747,-377.9946587654995,-381.53896030480973,-406.2992526029702
2025-12-12 18:04:17.936227,Right,-258.60594339913223,-290.87270936579444,-290.2433488976676,-287.56472752359696,-319.2976394983707,-273.5002509786282,-278.8363796026679,-301.5842199138133
2025-12-12 18:04:17.939292,Right,-243.456246306072,-283.14175489835907,-284.2332615178311,-277.2283674030332,-235.84332637803163,-266.9179594661109,-270.4399621090852,-293.0991604276933
2025-12-12 18:04:17.943307,Right,-326.74507809162606,-373.1369869770715,-374.20916404167656,-365.37696937995497,-170.8854055852862,-355.20849530689884,-357.6832748345332,-380.42120346718
2025-12-12 18:04:17.947315,Right,-350.45021922595333,-388.8749789900612,-386.794315722771,-385.23054178163875,-241.42782516026637,-370.1202834061114,-375.9747778805904,-398.6536889926065
2025-12-12 18:04:17.952336,Right,-276.0085891750641,-305.95885560056195,-302.22977125504985,-305.75056136155035,-318.90481170092244,-288.5607628681464,-297.66209033178166,-321.7901505640475
2025-12-12 18:04:17.956360,Right,-243.44287068932317,-279.3594276973745,-277.5502791440813,-275.9500044530723,-259.30003240861697,-262.93406835233327,-269.9746895073913,-296.19482857966796
2025-12-12 18:04:17.960351,Right,-303.6961528751999,-347.23830059333704,-346.37120558915194,-340.12053227145225,-166.74136237910716,-330.44485895102844,-333.4368137586862,-359.36922136484645
2025-12-12 18:04:17.964332,Right,-330.1744729295606,-366.7128451023018,-362.8899998574052,-362.22643455688376,-203.2823517867364,-350.28388930577785,-353.07201986550353,-376.5959034799598
2025-12-12 18:04:17.967376,Right,-263.7175804794533,-289.7165031944169,-283.0958473174833,-288.85930774500594,-292.7103589971666,-274.7025840237038,-279.35960687568877,-302.02965323708486
2025-12-12 18:04:17.971417,Right,-220.38722778274678,-249.7567044905154,-244.12756075663492,-245.9928918617079,-262.0445622323896,-235.05313769052736,-238.2759833293967,-262.40751135512255
2025-12-12 18:04:17.975351,Right,-264.1296543353237,-301.4684429957997,-297.40356174192857,-292.8688266836107,-157.47934239858296,-286.0949055547826,-286.0176678978605,-310.3427678872831
2025-12-12 18:04:17.980418,Right,-284.2497737669619,-315.8435976753244,-310.2112534233602,-308.96859404304996,-154.57670189236524,-301.5169522848446,-302.0930889756419,-324.0625013496028
2025-12-12 18:04:17.984429,Right,-212.3687292302493,-232.58447270735633,-225.060975391767,-230.65644058329053,-235.8464821492671,-220.89667086687405,-225.6337803216884,-246.3589249618817
2025-12-12 18:04:17.989437,Right,-162.8974899603054,-186.33359406655654,-180.37658846424893,-183.42330212017987,-232.44709285220597,-175.15326712280512,-181.7355147677008,-204.14256134140305
2025-12-12 18:04:17.992451,Right,-221.80440408887807,-257.2863126093289,-253.70566973811947,-249.23903409473132,-143.410490630602,-243.34265443868935,-248.84498010901734,-271.9030501766829
2025-12-12 18:04:17.996469,Right,-277.07252520881593,-311.3198261426296,-306.7849230316933,-303.2117033516988,-133.86673418793362,-294.91046667145565,-301.6385254828492,-321.2601658749627
2025-12-12 18:04:17.999478,Right,-218.601401388878,-240.62771952163894,-234.2149115438806,-237.120312304236,-221.10965472302632,-224.0849244800629,-235.31462342571467,-250.8855132726021
2025-12-12 18:04:18.003503,Right,-143.6723441046779,-165.353554911213,-160.8223361815326,-162.0657489967998,-240.382385422301,-148.09908794728108,-161.9824936076766,-177.23672302614432
2025-12-12 18:04:18.008507,Right,-180.66660121199675,-215.21007395826746,-214.27099196100608,-207.04133933666162,-152.8226788105676,-194.6295923271682,-207.57227999554016,-224.36813340929803
2025-12-12 18:04:18.012508,Right,-252.19239497097442,-289.88798023050185,-288.61099956347607,-280.60206029808614,-116.56433410366299,-266.75413021747954,-279.4504141715588,-295.36763205961324
2025-12-12 18:04:18.016460,Right,-217.7779841691954,-243.52269646467175,-238.60275090707,-238.78376238420606,-189.10149469069438,-222.1556484171888,-236.61708720435854,-250.10749440465588
2025-12-12 18:04:18.020528,Right,-132.27272486378206,-152.4152950217249,-146.08272229903378,-149.42547600646503,-220.36987229873193,-134.8346659752424,-148.36771043168847,-161.75753692153376
2025-12-12 18:04:18.023543,Right,-141.67477841489017,-171.09912519191857,-166.258488892694,-164.26417433470488,-136.7064813131583,-155.13771813357016,-163.570226648706,-178.69865122274496
2025-12-12 18:04:18.027541,Right,-212.38097787910374,-246.55674772756174,-241.64370245696045,-238.4487519429531,-81.51809366588714,-230.7586541324854,-235.63924721605144,-250.52466793253552
2025-12-12 18:04:18.031576,Right,-196.38714691379573,-220.28095018828753,-213.13168378872797,-216.9640760193579,-146.34601392270997,-206.1689410424442,-212.4525371460477,-225.11676420259755
2025-12-12 18:04:18.035571,Right,-108.32873430731706,-124.84256401227321,-117.64470476063434,-123.99593081651255,-196.3085898241261,-112.54879959573736,-120.4144018429215,-132.54440092411824
2025-12-12 18:04:18.039595,Right,-98.04839730309322,-122.59986609895714,-118.12857407750562,-116.84840715688188,-120.80493700318038,-108.74326283315895,-113.93161009211326,-127.57563471095636
2025-12-12 18:04:18.044589,Right,-171.9347129430389,-203.69424279546365,-199.8097086274065,-193.417979393329,-42.897972507518716,-186.1342772335629,-187.86938738665776,-201.50492437765934
2025-12-12 18:04:18.048605,Right,-183.59849864052376,-207.38640961196506,-200.4084563049837,-199.5898644622066,-93.45157549041323,-188.30404579738388,-190.64953138580313,-201.888406230486
2025-12-12 18:04:18.051623,Right,-108.28621381171979,-123.16588002973003,-114.19761971844127,-118.81773807271384,-168.3163914817851,-105.0904580305214,-109.89873461355455,-119.45749746653019
2025-12-12 18:04:18.055627,Right,-86.2916474280646,-106.92630979191745,-99.5172266283189,-100.18397724430542,-121.21209752192954,-89.22622469125781,-93.74826152541209,-103.25305395427858
2025-12-12 18:04:18.059643,Right,-156.75060504768044,-185.08572285238188,-178.557898292318,-175.22624186176108,-34.36997931817314,-166.6600003206404,-169.63820691185538,-177.91862563742325
2025-12-12 18:04:18.063662,Right,-182.5723647190025,-203.37536460743286,-194.12523848220007,-196.66620241012424,-64.10085045680171,-185.46598740055924,-189.7484588457155,-195.11124408297474
2025-12-12 18:04:18.067661,Right,-107.18119584274245,-116.34195324633038,-104.59422215243103,-114.2915443033562,-149.74806743534282,-99.9018606353784,-106.6193950183224,-110.83377081423532
2025-12-12 18:04:18.072686,Right,-61.71610102034174,-74.4274528218084,-63.76660097122658,-70.59736088861246,-127.80515559372725,-57.343512755585834,-63.07590003462974,-69.1352035740274
2025-12-12 18:04:18.075695,Right,-120.69835994462483,-143.76925422728527,-134.32398619450396,-135.40667093230877,-36.71773675008444,-123.81895907584112,-126.77437474869657,-134.15932777075795
2025-12-12 18:04:18.079694,Right,-162.40390895074233,-182.0427715406986,-170.2279291652958,-174.93537250324152,-43.154308093653526,-160.7025757501251,-164.56642780225957,-170.71812817151658
2025-12-12 18:04:18.083709,Right,-95.79727145005018,-103.59448758920189,-89.12007419520523,-101.03434816881781,-128.84369510103716,-83.63837607356254,-91.48649994638981,-96.85028798255371
2025-12-12 18:04:18.087720,Right,-31.077048248262145,-39.72115942632081,-26.763963687000796,-36.15806144755334,-124.30896476714406,-20.488765207468532,-29.68175107880961,-37.02687896875432
2025-12-12 18:04:18.091728,Right,-74.92917771189241,-94.35174540290609,-84.41544831759529,-85.6190438955673,-26.22208819189109,-72.96363338420633,-80.4252780622337,-89.67852872953517
2025-12-12 18:04:18.095764,Right,-130.95533372403588,-149.5712345711072,-139.0804685780313,-140.68472219706746,-4.06063602026552,-125.82122604874894,-134.05790967703797,-142.25049004727043
2025-12-12 18:04:18.100760,Right,-77.99474360281602,-84.43061786179896,-71.4605052601546,-80.4988644059049,-83.47701900772518,-60.69013421150157,-73.56719430547673,-80.0746226561605
2025-12-12 18:04:18.104780,Right,4.1126118580577895,-0.8737836949294433,11.405069356493186,1.8756245874683373,-99.43630874418886,22.24139982048655,6.1692718025879,-1.2450149016804062
2025-12-12 18:04:18.107833,Right,-18.06185764266411,-35.403035253460985,-26.057580374064855,-29.04265422950266,-6.9861289683612995,-11.36947020428488,-26.99173464346677,-36.13987004914088
2025-12-12 18:04:18.111796,Right,-85.28225121030118,-106.94637515617069,-97.67033328220714,-100.906423666107,32.749360637244536,-81.9432149923523,-98.21244898723671,-106.67967471154407
2025-12-12 18:04:18.115822,Right,-58.44227193569532,-69.69805217348039,-57.80109723500209,-69.59442121582106,-46.10696373967221,-45.3426928705303,-65.72695980640128,-72.46621879411396
2025-12-12 18:04:18.119822,Right,22.065440115577076,16.00554175983416,28.368623513611965,13.777214893780183,-88.69761771714548,40.15247422689572,17.124881403287873,9.900960029335693
2025-12-12 18:04:18.123769,Right,13.790785808931105,-1.1102818617946468,9.366095306002535,1.353039787209127,-6.686249011545442,25.281887764518615,4.46593648835551,-4.376251326291822
2025-12-12 18:04:18.127858,Right,-60.62393153627636,-80.03754785115598,-69.03349777805852,-74.51849833258893,56.40127403984661,-51.560513645468745,-69.6288984688581,-77.92885199043667
2025-12-12 18:04:18.132858,Right,-56.30511792417383,-65.60052023251774,-51.343918387021404,-63.494574771553744,-8.663112305453978,-38.46994878479745,-57.36956326884683,-64.06064012617571
2025-12-12 18:04:18.135858,Right,22.99170674738707,20.852951690903865,35.721977070497815,20.688523278513458,-73.94988270348404,45.16049055731855,25.093629059032537,17.158387443167157
2025-12-12 18:04:18.139875,Right,34.407352772774175,24.072681250225287,35.62937072705245,28.339143314573448,-11.929726163245505,48.03473726188531,30.445120350457728,18.962681367818732
2025-12-12 18:04:18.143892,Right,-33.3692761962302,-50.7172942563775,-41.07556443987414,-42.289114986895584,69.58997284036013,-25.408658449014183,-39.93052534654271,-52.78204640385229
2025-12-12 18:04:18.147900,Right,-38.24100082859513,-46.588686192641035,-35.25024988449877,-40.77882550650975,30.921606501331553,-21.94339464121731,-37.29646118776873,-48.69027801026823
2025-12-12 18:04:18.153928,Right,45.956962027121335,47.78133785200771,59.49500097910641,50.130973056249786,-40.068241286615375,69.82656445266912,52.23846782237524,41.051444053300656
2025-12-12 18:04:18.156912,Right,75.54357957554748,71.46753158600768,79.28154138213722,76.48283810866997,4.165678673132788,92.17655651606037,75.86131708414177,62.37822834344115
2025-12-12 18:04:18.159935,Right,4.2811267446377315,-9.232409003772773,-5.074573050602339,-0.6045921992044896,93.3052696250088,11.496220034896396,-1.6960655363218393,-16.187626957485918
2025-12-12 18:04:18.162893,Right,-27.225579484394984,-34.28901687817415,-29.621340236248216,-28.50427692368976,71.95063777046744,-15.253876636037603,-28.228305036813254,-40.46758008922916
2025-12-12 18:04:18.167951,Right,48.939743360475404,54.77629203296965,60.797532265569316,55.95950524913496,-8.266099398897495,70.14363693635096,55.951898685481865,46.09406300194678
2025-12-12 18:04:18.171955,Right,102.05646232658182,106.5362001535832,110.839451357082,109.75390060339123,14.464781744056381,119.55612060157,107.74068917808472,98.07441180790192
2025-12-12 18:04:18.175982,Right,45.729707690974465,40.73061231413158,42.882968433666974,48.9693842374254,108.05891709632124,53.67232133890502,46.55756658379687,37.34605895425193
2025-12-12 18:04:18.179991,Right,-2.577994964813115,-4.117283867177321,-0.86698781317682,2.802927900571376,105.75530683065881,7.984387955861166,2.112094584997976,-4.298270570696332
2025-12-12 18:04:18.183976,Right,58.526613807625836,70.07204780532629,75.04643137543462,71.33493421893218,18.96077952874475,79.31129213926033,71.53479790117126,67.62086950035882
2025-12-12 18:04:18.188011,Right,124.83807577434345,137.74546587772784,141.00881060346728,138.53547304775566,17.10942467910354,145.03840399501496,138.26964582319488,133.89244928199332
2025-12-12 18:04:18.191025,Right,79.49950680480106,82.30543703198782,82.78410790572525,87.35088083549635,109.92484346113633,90.19912417870364,88.10520281872596,82.62261223609676
2025-12-12 18:04:18.195034,Right,9.309190867061261,11.424991767387837,12.60563310913858,16.212585625966312,126.9919972056814,19.580031288787723,19.79239721270278,15.719275043316884
2025-12-12 18:04:18.200053,Right,42.51313980095438,55.629117515229154,59.071423024404794,54.93871443148237,35.61152136689634,61.43567630657344,59.61381931300275,57.890466142853256
2025-12-12 18:04:18.204057,Right,111.42735008877935,127.10660056356573,129.17416636354756,124.75929256889503,3.6927166122331982,130.47962400349206,127.66988476723782,126.16457571115461
2025-12-12 18:04:18.208071,Right,82.29578055409365,87.97050634413608,86.06647509906907,89.67013049754314,88.57050562370569,91.68109915140667,91.62210145630524,89.33633936196566
2025-12-12 18:04:18.212088,Right,7.188697756777401,10.293332336557796,7.328870495635783,13.039369319827529,131.18911629373906,15.200988762968336,17.0073107064527,15.712691028689733
2025-12-12 18:04:18.216132,Right,26.891982170913252,41.48044323618524,40.479248703602934,39.42009687385871,53.28879880653403,45.188006059557665,45.2167362288601,45.470490109641105
2025-12-12 18:04:18.220112,Right,109.86150708292553,130.54173446659115,129.44609215529636,126.28750873137324,4.5514147738867905,131.5238261539198,130.7660309628991,130.16111056503723
2025-12-12 18:04:18.223117,Right,114.54770203770022,126.46973640882061,122.59048647421878,126.5322355741082,85.05374082483468,125.95707428794412,128.82082010743034,126.05875773860316
2025-12-12 18:04:18.227139,Right,53.73901066512917,59.980671069570235,55.50122414172802,62.74410090535821,158.7019787938916,58.75956786125607,65.29139718784427,62.51781314390246
2025-12-12 18:04:18.232134,Right,65.88152574676496,80.96443348568573,79.16153184520954,79.68706766849209,104.61488051339256,77.81536433723522,83.70834145141998,82.64352274120029
2025-12-12 18:04:18.236095,Right,149.520171163982,171.21752564332564,170.54927152699383,166.40523572420352,38.20502847903117,166.0303639009362,170.21340057853376,169.24591310766118
2025-12-12 18:04:18.240158,Right,161.47848260153842,174.11981005950656,171.29039595583163,172.22152057252242,92.3053973881033,169.35431822984538,175.02766504566534,172.75777310496778
2025-12-12 18:04:18.243159,Right,85.57603849873703,89.18549609009642,85.39243671487202,90.38231116099632,169.87520102745475,86.28940565090306,93.81983831121033,92.25667126316694
2025-12-12 18:04:18.247129,Right,66.64214098941011,77.38742273031676,75.8454328867956,75.51622463717649,128.57894127025065,74.5552660719477,79.97701180962758,80.85453483609308
2025-12-12 18:04:18.251246,Right,141.01681908952014,161.68441447467922,160.88556861777033,156.3762532079054,48.349215406677104,157.3931199536746,159.58820746702258,160.31279151429044
2025-12-12 18:04:18.255256,Right,167.05440950179764,182.25527939225867,177.66871450089093,180.4572980101657,80.84778711015679,178.41803230592632,181.40709774937568,178.48907681866694
2025-12-12 18:04:18.260184,Right,88.7985015325321,93.66726829429535,85.07122430699383,97.42915627975162,164.38428639548147,92.43906889806385,98.21032933655079,92.52510081015498
2025-12-12 18:04:18.264246,Right,42.80870781493286,51.86236579101387,43.12694439851475,54.86396314085141,139.46373859816413,51.49710412570494,56.69246303420368,51.58077163866983
2025-12-12 18:04:18.268257,Right,108.1380406936114,128.1053978227319,120.14785804551866,127.28985486213787,49.00426503880135,125.31156908811681,128.03512912129372,124.14038804451411
2025-12-12 18:04:18.271282,Right,163.07971401946998,180.38367908803775,170.2981800696507,181.04038842211958,60.142894752380016,175.00514707245384,179.15907782276918,175.134162799568
2025-12-12 18:04:18.275258,Right,113.63231004708359,119.65467042229102,107.17986229573398,124.54551887801063,152.60880860708403,113.39421889239384,122.42529400403782,119.30416454354781
2025-12-12 18:04:18.279296,Right,66.6211593130829,73.53644885445465,62.25580865030042,76.51463321242863,156.502874075597,65.61129232993335,76.83954161542545,77.28602469543875
2025-12-12 18:04:18.283276,Right,125.75141055864924,143.57619625089205,134.3228212471845,139.8402149075929,69.33025601621375,131.70813542639644,141.14919850105616,144.7226901873223
2025-12-12 18:04:18.288234,Right,193.86902490811872,211.9167702431032,201.03676918182282,206.03784964480838,59.53562579513164,196.7010949366395,205.3933608849802,208.9169881356829
2025-12-12 18:04:18.292299,Right,151.69983175522248,159.2192696538259,145.6215882200704,156.35490195399143,149.63107029585808,143.5046584952488,154.29879138618708,157.41970841857983
2025-12-12 18:04:18.296323,Right,79.55548135339632,86.64346022945392,74.7463917665591,83.69711760012797,171.98299625442087,71.19590594748661,82.7796917981359,88.88161498229601
2025-12-12 18:04:18.299320,Right,107.66699866057388,126.75086945036674,119.50939387820472,119.85044173027563,81.28458713264263,110.53340241459591,120.06857212482646,130.6126795982491
2025-12-12 18:04:18.303317,Right,174.31626453418357,196.58729278051032,190.95737585071038,190.11278442843104,40.01626438189123,180.83334028868558,189.73673709129798,202.01188106063637
2025-12-12 18:04:18.309346,Right,143.8801469474165,155.0667826272329,147.7664328760584,154.42388395049784,116.37598709374288,142.72243717076344,153.9367340988756,165.82077129289246
2025-12-12 18:04:18.312358,Right,63.31466249994264,69.83021874467522,62.72201736763964,71.08251009583182,158.30917179187236,60.54078523246426,72.29052955115912,84.91122378513683
2025-12-12 18:04:18.316351,Right,76.20392102372716,93.17035487077374,88.96200529862108,89.24593732300855,78.91520368192869,82.6954014709554,91.222303020455,105.22051204324089
2025-12-12 18:04:18.320396,Right,154.90849189706933,178.4323102586277,175.33680274814105,171.0693503434959,19.972692943068978,164.08406669273973,170.93642702315992,184.33170562587475
2025-12-12 18:04:18.323421,Right,151.8055414800474,166.9604252781428,162.26506421935483,162.7059440528392,87.3677961255089,150.31759257108206,160.37801822542679,172.34602876281133
2025-12-12 18:04:18.328424,Right,73.3641304940611,82.53585319354897,77.93685699769412,80.5135681428219,152.19068851642805,65.7186909768352,78.80700826519751,91.80783104273723
2025-12-12 18:04:18.331471,Right,65.65252557898202,84.08767506040749,82.38409565354232,78.29103967759875,90.12340177563601,66.94153858712525,77.95318847021554,93.44969437306281
2025-12-12 18:04:18.335431,Right,140.71123346633976,167.8092227293091,167.12375643497217,159.31271686594118,13.670335586270085,150.43111577100353,157.8668275057571,173.18311944704328
2025-12-12 18:04:18.339431,Right,156.0886504741211,176.44841059384635,173.18841730672284,172.26948213398282,63.76359691006655,160.93161327995767,168.64561402593972,181.0905723105243
2025-12-12 18:04:18.343448,Right,85.07568940153578,97.39971069127205,92.82831229553267,97.68695498701709,149.13168189727003,84.55197835809668,94.03127184884215,105.29079288581852
2025-12-12 18:04:18.348428,Right,69.54050832697249,89.03959055199812,87.22296867107798,86.4093508633523,118.62590587028535,76.21878488537914,83.88050132266653,96.93624013641966
2025-12-12 18:04:18.351466,Right,152.66814280509425,182.14204543786764,182.8570978922362,174.73454782008776,42.38243157727993,167.0334173094452,171.34407786894008,185.49281326391792
2025-12-12 18:04:18.355421,Right,191.99756062142842,215.81044789125735,215.3597784186568,210.1394816628308,76.57052621405455,199.79942251917964,204.58360274026927,217.3486285374238
2025-12-12 18:04:18.359507,Right,120.56415703790844,133.37182171581662,131.57825463602785,131.9479370698391,167.47344445488125,118.34299864388595,125.94070616096724,137.926288600298
2025-12-12 18:04:18.363508,Right,72.56860198281356,89.51398596445506,89.75033881432319,86.3789899648691,151.06840499055397,73.89817651243357,81.11579491078737,94.56446648424026
2025-12-12 18:04:18.367515,Right,138.08930362245883,167.08342306532722,169.362420488731,159.40589660705882,62.40435125208751,148.60450024722377,153.2065191348811,167.06362328845717
2025-12-12 18:04:18.371529,Right,199.44460540935688,226.5537593968329,226.76168425375363,220.3712938199169,73.4199584723101,206.82353719018283,212.39159892145835,223.43679795280332
2025-12-12 18:04:18.375484,Right,150.66988474162645,165.5611824664811,162.46082758597913,164.67648262908915,172.1700676004548,147.967376906352,157.8643782704894,166.02680108047207
2025-12-12 18:04:18.379535,Right,90.0414032504923,104.37578053300967,101.58673911185178,102.94093879240972,182.42968836831278,88.70486652231193,100.21386577215162,108.36803807674733
2025-12-12 18:04:18.382564,Right,129.45527203186066,154.82299182750285,154.3542319809785,147.4554435449245,88.66428573077428,137.74220360361505,147.3842695347994,156.39790257457935
2025-12-12 18:04:18.387560,Right,183.3238329089072,210.61695844310452,209.9546124933986,201.4283842366567,62.45046844705939,190.5827279989462,200.96328126582375,209.26987446221756
2025-12-12 18:04:18.391580,Right,134.08296856714878,152.34945610104478,150.1073443630885,146.52863819812774,143.5806145526294,130.48621572132106,145.8495120863663,153.71867552108597
2025-12-12 18:04:18.395592,Right,60.22662695533654,78.51045181060908,77.6053856627259,72.57282698279596,170.40315362876572,55.20016931153077,73.6062641927856,83.3950827831286
2025-12-12 18:04:18.399571,Right,94.79589316973579,125.22218075487763,127.33839470971725,114.03764726076042,86.01107399931061,99.66950373133295,115.98849509548745,127.50595135308686
2025-12-12 18:04:18.404614,Right,175.8929064933909,209.60558752322686,211.3585238753294,196.67088796567987,45.630494707103935,183.13582500754273,197.13970217719907,206.91867964781704
2025-12-12 18:04:18.407632,Right,156.516906412362,178.34956118409173,176.75403886160348,169.81961483616033,124.52626625169069,154.27112743450562,169.24406624041148,175.7943554308149
2025-12-12 18:04:18.410644,Right,73.36357724903792,88.9234803194704,86.45079680546769,82.49427129054675,174.4663993295253,67.98931846264168,83.36810507421615,89.3541888773907
2025-12-12 18:04:18.415653,Right,76.86159867353854,101.86753632730688,101.90680800774135,91.41434914886486,99.17597627847863,81.30197185900761,93.60265855083708,101.02742077547009
2025-12-12 18:04:18.419669,Right,153.57077241349907,185.08138941062498,186.21065795683535,172.5332798085874,34.66826200198557,163.35074370729853,173.415745256847,180.47463455135585
2025-12-12 18:04:18.423666,Right,156.04371944724699,178.66520481705084,178.1079672431224,170.91899725739495,96.74289072401007,157.9187281091872,170.2784983071906,175.40844624803867
2025-12-12 18:04:18.427677,Right,80.2388287372014,95.1958538761246,94.56009949676809,91.65039678057656,166.20132340867713,77.36690411728341,92.3306197229249,97.68829395365901
2025-12-12 18:04:18.431661,Right,71.21369206209783,94.00201911584008,96.24073382592178,87.76835044031031,112.29609792324482,77.6245524410042,90.69031569352956,98.56020411144709
2025-12-12 18:04:18.435707,Right,148.67269295000006,179.99772109123296,183.30832852839376,170.43669906409923,36.63436085751164,162.98433086820296,172.92109964051633,181.792114965152
2025-12-12 18:04:18.438723,Right,167.6762913702987,192.07798661640845,192.54266110729077,185.4454863028659,81.81252029145253,174.8367797593237,185.77178106908104,193.30134068994084
2025-12-12 18:04:18.443719,Right,89.07950335982605,103.65562018606579,102.16222554608248,101.06705840161885,163.17761807946954,87.08371091602021,100.89170873787953,108.1646314735699
2025-12-12 18:04:18.447744,Right,53.90683655126486,73.34094879351323,74.0345917234954,68.74541024677455,126.11198335219524,56.27832226798637,69.27681796764955,78.49481182420277
2025-12-12 18:04:18.451739,Right,121.26196500184597,149.98300088653923,152.91332860544208,141.63985186634818,35.04553346184548,131.38882696273504,141.17450908955652,151.24286917591235
2025-12-12 18:04:18.455774,Right,159.11423457969795,183.06164175074082,184.44673786475323,176.63275289081503,53.80990695813671,164.57360006531235,174.23507907055318,182.75851257445174
2025-12-12 18:04:18.458767,Right,92.3079331711051,105.82412141008535,105.29450951251783,103.21000320199528,140.911243220311,89.09131082196836,101.37077702247188,109.52932597449399
2025-12-12 18:04:18.462729,Right,44.00102669667103,61.22209824575111,62.51787259033881,56.39145557372831,128.8249914298358,44.49695076432545,57.25537479453487,68.1341868347663
2025-12-12 18:04:18.466781,Right,105.8738696044602,134.7310646243859,138.65779708401533,124.89358167687897,38.365176658466225,115.4959658140433,126.77962441646378,139.66495957036386
2025-12-12 18:04:18.470799,Right,166.22171177898417,193.31311489481595,196.1738137952343,184.67145927326055,39.77290794636065,172.6826899772277,185.1395785555069,196.18228693137644
2025-12-12 18:04:18.475807,Right,116.7937179178698,131.65120687324088,132.0552085620293,128.53887392563047,132.94126329175197,112.53305495443055,128.32499065506272,136.5683499480656
2025-12-12 18:04:18.479846,Right,51.49335363393766,65.39434445675579,66.84706125990488,62.69607881133561,144.89365972326777,47.80497739263228,63.60787113558035,71.76561813152512
2025-12-12 18:04:18.483787,Right,86.71544184506638,111.35509546770481,116.04855835696799,104.24797300808132,50.32762759254547,93.29560852440773,105.39200893288944,114.67540159448981
2025-12-12 18:04:18.486858,Right,142.52938360365806,168.7917787753977,174.25029115524376,161.55645200712024,18.022895623071236,150.2845236409339,161.0150282807299,169.85555681560072
2025-12-12 18:04:18.490866,Right,95.14654065182549,111.50264044085634,116.03916741113062,109.03019026774564,97.15683882943995,93.93336416306556,107.65686251936131,116.07449598441599
2025-12-12 18:04:18.494867,Right,13.133174696617061,28.454292551323306,34.693674625479616,26.467596915230388,128.06038211002306,11.132552035356639,26.61463174104574,37.06926058742101
2025-12-12 18:04:18.498879,Right,33.59461888525402,60.88617769579287,70.3601978548395,53.258687097317306,42.604437163536204,42.10102201596601,54.82952487873263,67.34258715106989
2025-12-12 18:04:18.502933,Right,108.65480090578785,139.87025500577874,148.95391508413013,129.6551675912051,-7.368307192940847,120.7582318695786,130.75842079619179,141.6351787657477
2025-12-12 18:04:18.507927,Right,95.01589027114096,114.56326185818762,120.04938264423981,108.40275690719136,66.4258353815967,98.30828836400178,109.22755313498783,116.58526316215284
2025-12-12 18:04:18.511873,Right,20.055191358260345,32.7384866962384,37.29784103075508,28.98423558793729,123.6104598591046,19.84073422299116,31.530260268074926,38.15829552474315
2025-12-12 18:04:18.514887,Right,28.297343626531074,50.10895550085115,57.564815011108294,42.47647653071908,57.30428261696943,37.7445998970652,46.53277923623682,55.02303885438596
2025-12-12 18:04:18.518942,Right,108.5012766890577,137.3299358311342,146.1257740331057,126.91918368279585,-7.193088325977442,123.89626110118115,129.8699022558285,138.54317136114696
2025-12-12 18:04:18.523040,Right,112.9772807493282,133.31538060566527,139.72437544935383,126.40313480372424,51.7976626913005,120.19840879552066,127.47034586395603,133.91712878696853
2025-12-12 18:04:18.526966,Right,34.66461135831196,46.885295189131284,51.65072534157662,42.74216434286791,124.46504610659031,34.57046058031847,43.88179162167944,49.31424358650111
2025-12-12 18:04:18.530983,Right,23.020718853367725,42.36460675124545,48.62548316959874,34.144783774070675,75.94288022360706,28.427584977354854,36.04157854616642,42.74967296651448
2025-12-12 18:04:18.535947,Right,105.2875728700601,132.67475564786582,139.54206863994477,119.99813661410008,-0.7484899239498191,115.88769703215803,120.91181133533246,128.04626969783567
2025-12-12 18:04:18.539996,Right,131.63476589132915,151.15562183139264,155.20453448381159,140.9752476499998,39.73977202070819,134.39119119671523,140.67229587899055,146.3072500413109
2025-12-12 18:04:18.543010,Right,50.042142990685534,58.21891171831521,60.06577181167086,52.24683758360334,120.07077963397023,44.45149122553994,53.287224331637844,58.57609243289335
2025-12-12 18:04:18.547004,Right,2.5890783287759405,14.94708331336733,18.394928994151996,7.031729114765767,83.10531133053883,3.0780674645502586,10.328242804243928,17.558074970787857
2025-12-12 18:04:18.551015,Right,63.94250813109102,86.39860115142073,91.55737930434407,74.75315406452864,-12.712076118259574,73.98086265745223,77.22238743357593,85.26911199948518
2025-12-12 18:04:18.555067,Right,107.46982396449312,125.69344172996352,128.96693849615986,117.08011825356516,1.1661253493657568,113.188696499652,116.04983467093552,121.98468935026904
2025-12-12 18:04:18.559046,Right,44.978167401772225,51.476088018884184,52.530834900273476,49.31791419399087,91.44883350041346,40.44521340233041,46.35942080372479,50.53303273345227
2025-12-12 18:04:18.563065,Right,-10.344508189707994,-2.050717866048217,0.5906284625234548,-3.770842769125011,85.44416894389724,-12.79104532211204,-5.994190584839089,-0.7630769704992417
2025-12-12 18:04:18.568070,Right,40.190944769463385,59.64581322687445,64.85350900189951,53.745893361396156,-8.42471372478758,47.07177658265573,51.77177388663404,58.179334372951416
2025-12-12 18:04:18.571076,Right,94.75276646086422,113.18333150772378,117.20797865124769,107.64220421484788,-18.389741910534212,100.06431495989091,104.27197800893919,109.38564982789103
2025-12-12 18:04:18.575032,Right,44.48767128435429,51.04434449618566,52.06731497703004,50.35408683188143,69.97032881903579,40.78277426827117,46.66144545053248,50.3911200290313
2025-12-12 18:04:18.579114,Right,-18.695504765113583,-13.228722952975659,-12.1894660909893,-13.107545981532894,88.81860737207171,-20.163071325194323,-15.121587423840538,-10.16754639413557
2025-12-12 18:04:18.583116,Right,26.575250902213156,43.07501873196452,45.960427835641894,39.50155954022193,2.9188327875745017,37.02624308617669,38.14053822767164,44.70808467376628
2025-12-12 18:04:18.587154,Right,100.20898562704679,118.22274150059093,120.0961009869643,114.94393142021727,-25.71768942475319,112.41738103963144,111.9935763914691,117.47737686423352
2025-12-12 18:04:18.591147,Right,65.08488698668953,70.70745759853162,69.61970439215656,72.64613957010442,56.51007672640844,66.87318255116406,69.074933604541,72.60099109602743
2025-12-12 18:04:18.596127,Right,-19.349023246366414,-19.10930147775798,-20.079909571562894,-16.123699835909065,92.25246041060018,-21.26858537408407,-17.752759280236205,-13.595136486605043
2025-12-12 18:04:18.599114,Right,-6.389086986950133,2.7335681484255474,4.678334800089942,0.1949978627526434,7.327340047733742,-0.8649795484379865,-0.4122275841073133,5.729086871055188
2025-12-12 18:04:18.603251,Right,68.63169806484075,81.43625233825878,83.71515452480526,75.69396850168414,-48.37833917530952,74.91581617269549,72.64312564894499,78.54384050678345
2025-12-12 18:04:18.607243,Right,58.341592556316755,60.45372686066548,59.6321958610788,57.6721690481354,21.23874040703231,52.524189119867515,51.72513550399162,55.987164488091366
2025-12-12 18:04:18.611250,Right,-20.416849763831124,-24.63578553701518,-27.131971526017878,-26.342883147182874,79.50820532481885,-33.546915690094465,-32.33982938672125,-27.46381729390123
2025-12-12 18:04:18.615267,Right,-18.798278164569638,-13.295723926392384,-14.829055354683078,-20.32158011935826,11.973394860397093,-25.292979238030966,-25.49887171071896,-18.358862044289708
2025-12-12 18:04:18.619186,Right,65.14880502250162,78.78479701561446,76.25173673662357,67.95496006007306,-59.96684953228396,63.3843707638589,61.31460300573963,68.31269196647918
2025-12-12 18:04:18.623239,Right,81.55985879355285,86.99345278304827,80.22540155283059,79.84229704647441,-5.827048296589055,71.90119030572532,71.10065738280537,75.38103561448224
2025-12-12 18:04:18.627245,Right,5.981979501535534,1.949843942958978,-7.134238249025657,-0.9292997397278668,70.02453730312118,-9.425061521556927,-9.144282184279291,-6.1496571612369735
2025-12-12 18:04:18.631256,Right,-18.493981465086108,-16.665657542529516,-23.60104109137319,-21.722288105869666,22.765400942385895,-25.011636872703093,-28.081785074216896,-23.938441171645536
2025-12-12 18:04:18.635269,Right,49.84251985706214,60.38932105427375,55.505779948376585,52.101269474384026,-62.86716531473212,52.98708377139701,45.553298655795516,49.87840725004207
2025-12-12 18:04:18.639284,Right,75.64868512377143,80.1895842221711,73.93311845710559,74.73954055045033,-30.765304829736124,73.71366702088562,66.82096762748552,69.23073020849552
2025-12-12 18:04:18.643307,Right,4.198866928403731,-1.5173668199859094,-8.968913592296303,-2.8619188952434342,55.85147928254446,-7.000536389750778,-10.124028653546702,-8.446250104054343
2025-12-12 18:04:18.647323,Right,-32.89320996130118,-34.44370766065549,-39.626054183390806,-38.061038476080284,33.70733213452331,-41.18478880368639,-43.47032943562954,-39.948254568938864
2025-12-12 18:04:18.650318,Right,35.18024107221572,43.68820178350143,40.879791475628735,35.6900845777418,-55.66081087983184,34.2554207911453,29.782091010318254,34.45022330438951
2025-12-12 18:04:18.654326,Right,81.59789159054344,86.15318488609046,82.21708951093024,80.3487802316231,-45.386693516637024,76.80298344083712,72.03388721504598,75.27825220754312
2025-12-12 18:04:18.658283,Right,16.317345909992582,9.259590803369065,3.745392772150808,9.204565742184059,43.61578702898987,3.7517675550479908,0.6116533430031268,2.9426119554118486
2025-12-12 18:04:18.663362,Right,-44.42658307086094,-49.525527712117764,-53.06817804799357,-49.617653644192615,42.50816896146716,-51.48337507391989,-55.731610155969975,-51.508725624735234
2025-12-12 18:04:18.667359,Right,7.504529883401119,14.417389533598907,13.70557752714376,9.952249249865417,-48.21177566546248,13.130742308057961,5.299999464084976,11.364960728911683
2025-12-12 18:04:18.671399,Right,72.18661456233531,78.96105224618805,77.41038139912416,75.1516011259082,-58.60985018200154,77.83208758004184,69.44165734534909,74.46549948870961
2025-12-12 18:04:18.675378,Right,27.003232981995097,21.28913342753367,17.271731179527706,23.041066691148444,32.13964489795762,21.994001640414353,16.651481221066206,20.073366188065847
2025-12-12 18:04:18.678398,Right,-48.94986336681177,-57.89896304155991,-61.09858791556326,-54.83694841460965,53.929638798334054,-55.461723702799645,-60.13133433718758,-55.75959866399353
2025-12-12 18:04:18.682354,Right,-25.7163499717135,-25.49771997035714,-25.861521317783627,-26.42671587006771,-38.88297357482952,-23.11112512885302,-31.48681980681431,-25.444205088264425
2025-12-12 18:04:18.686416,Right,37.013386124090175,38.42398289809353,37.851206998413545,36.939361149663455,-81.86656923979899,40.85477173089748,30.008195741000236,35.2013139596238
2025-12-12 18:04:18.691419,Right,8.341771992709255,-1.810357335547451,-5.0211757839570055,1.3816017999779433,-4.342732536257245,2.388326644184417,-6.622126905152982,-3.2767163751705084
2025-12-12 18:04:18.695443,Right,-62.24894817690074,-76.34362518097623,-79.36407487928227,-71.99943076155614,43.1988572030823,-70.8648599859589,-78.54545359229814,-74.55440020564129
2025-12-12 18:04:18.699448,Right,-36.43171260148665,-39.515346523112385,-39.257798221718986,-40.40756517791306,-27.284481300121115,-35.41655285660818,-45.73497175380908,-39.70307923371729
2025-12-12 18:04:18.703407,Right,48.12741578188434,50.983912779462116,52.52161134708149,47.32244869520218,-78.79743988806149,53.34137009266851,40.79568226468109,46.55187196437328
2025-12-12 18:04:18.707448,Right,39.873713688786665,33.02579057116236,32.84356068595662,33.680145024496596,-9.825452279517776,36.387959248633706,26.025546400866006,29.663081831211457
2025-12-12 18:04:18.711495,Right,-48.27311120375816,-62.17701517221576,-62.4145709134973,-58.112101805148995,52.242866783861245,-56.70080940423213,-64.29482863735757,-61.03762920272857
2025-12-12 18:04:18.714505,Right,-61.73487113069132,-67.12399647677375,-64.42690218739881,-66.4113757414525,-11.386286632819974,-62.023616358681465,-70.80838486947323,-66.31768537830067
2025-12-12 18:04:18.720504,Right,13.737648975104094,15.967901981690375,19.96190664889582,13.383843412411807,-86.04276369274885,18.951431332832726,7.97492238394625,11.835077553514566
2025-12-12 18:04:18.723564,Right,32.42623915753211,26.399570016852522,28.125079798199295,27.08590624871431,-34.04703829529535,29.166047225764487,19.517159896931844,20.945615876145894
2025-12-12 18:04:18.727544,Right,-36.9546131713214,-52.57425145493471,-52.198883311131794,-47.80457887800003,49.88711820699609,-48.031953546160366,-55.33048639327899,-54.23225321627979
2025-12-12 18:04:18.732562,Right,-55.718114600502304,-65.27414994862193,-62.736004714468436,-62.493345820235845,14.78203675477198,-60.25564048706292,-68.65500599174266,-65.25134103865275
2025-12-12 18:04:18.736563,Right,20.255735147140513,20.27673770119145,24.241234411209007,19.730148661052226,-67.30483397807257,23.759188161959173,13.201688121822372,17.403978956412175
2025-12-12 18:04:18.739562,Right,53.344329293453484,48.00620855624584,49.33829027962929,49.50249303408782,-39.158299016235105,50.42543963434582,41.4893922079209,43.44576070336916
2025-12-12 18:04:18.742566,Right,-20.481089481909294,-36.33727287338843,-37.87827154005936,-32.254983451428416,45.92463381134439,-34.02866591084603,-39.8865449180048,-39.54265208254219
2025-12-12 18:04:18.746588,Right,-70.51201977091114,-82.30637049727375,-82.88108009059943,-82.81770592346584,24.120159993610287,-81.26379255837674,-88.51240058934127,-87.02169010441139
2025-12-12 18:04:18.751603,Right,-11.721313583606388,-12.081626209823298,-10.677144510031212,-19.842728366456868,-70.47236938717833,-13.129923826207232,-24.91604273266421,-22.58970349971787
2025-12-12 18:04:18.755624,Right,40.58819072324695,38.241654839508556,38.68024989090918,30.463801055728254,-66.79383483342099,37.57764035071159,24.922240635067283,25.58683474119607
2025-12-12 18:04:18.759630,Right,-11.183932688836649,-24.716176994865236,-25.629346801120846,-26.929767855704995,25.33597235069101,-21.860173300872702,-30.979258748204302,-31.514307078035927
2025-12-12 18:04:18.762648,Right,-65.21517811060767,-78.14559744295184,-76.72368867804471,-78.64781632535596,33.827915546818986,-72.16873333917101,-79.38295472849495,-78.2080665615722
2025-12-12 18:04:18.766677,Right,-14.936849059587985,-17.226118768016022,-12.411218022003595,-19.971882403246127,-55.660296221592944,-10.591269548447599,-19.362934799930372,-16.524749265652645
2025-12-12 18:04:18.770663,Right,45.78416878886128,42.932834441951854,47.185566038882826,42.137123343789426,-75.76076964401727,50.01348500149834,41.13437013429393,42.541132211823424
2025-12-12 18:04:18.774610,Right,-4.929265338152618,-20.269677972970385,-18.881774863210012,-14.991077000617224,7.719388217508822,-11.301299811850186,-17.11090744874855,-17.588915702981467
2025-12-12 18:04:18.778686,Right,-86.6194589066472,-104.74688581251212,-103.31748748758764,-97.97737153119306,32.31293277953682,-94.6846922536497,-99.13285271223322,-98.33449695537274
2025-12-12 18:04:18.783686,Right,-60.4872009407336,-67.80984185856505,-64.16504718142824,-65.0649022097823,-54.749882942608565,-59.175967720999324,-65.98738566083193,-62.92443531343088
2025-12-12 18:04:18.787690,Right,17.90302274109854,13.995704288106936,17.068140295090416,16.05246365610401,-94.65913979218112,21.001140723212302,13.220232759546889,15.330555246662698
2025-12-12 18:04:18.791739,Right,4.557383275943721,-9.955879882088993,-9.938481045986919,-3.2402077375027147,-12.560220150539635,-2.5390062365968333,-6.995173380778397,-7.796959853389126
2025-12-12 18:04:18.794719,Right,-68.53849942856505,-87.65033327744914,-88.02530584112537,-79.89422344501145,40.55931608155026,-79.72147802695508,-81.3730100152311,-82.7211097922791
2025-12-12 18:04:18.798745,Right,-60.097993049554134,-68.61455289412697,-66.09501633872242,-66.79966984670955,-33.27481689860201,-62.46027486089406,-65.55952506219978,-65.2939149210797
2025-12-12 18:04:18.802682,Right,12.037079802597873,10.367211265129527,14.251651369677347,8.230360799202572,-98.10135265579765,14.523038812276354,9.659650742642384,9.968080490068132
2025-12-12 18:04:18.808755,Right,4.030779182894548,-6.412848832484741,-3.9532178107547224,-5.003845434633604,-38.36392563690697,-1.1355382896617812,-4.285189476469441,-5.60735496117195
2025-12-12 18:04:18.811768,Right,-80.89337346248067,-98.49014244725413,-95.92663205066356,-93.39248449659362,26.874642722638782,-90.27963255050872,-91.77998599856164,-92.95161442151357
2025-12-12 18:04:18.815837,Right,-92.94155152372423,-101.98026127130379,-96.54308347377605,-99.28399294084534,-30.727889289679297,-92.96090905097935,-96.8051209373607,-95.79421740977926
2025-12-12 18:04:18.818775,Right,-12.794116001780822,-12.972214022675871,-6.540553190012588,-12.736344840935544,-106.84855360314941,-5.460441688934679,-11.987354607175803,-10.223091559795193
2025-12-12 18:04:18.822809,Right,12.461614853079027,5.26105683653077,8.922365689716571,9.11341807325789,-59.07282793788909,11.888650355872414,7.46480757061363,8.080351066688763
2025-12-12 18:04:18.826800,Right,-57.065025494801375,-74.02799279687497,-72.0621204848394,-66.44172493624865,25.988839059413294,-67.32130167585947,-67.50678318884638,-66.32527941215267
2025-12-12 18:04:18.830788,Right,-82.62275119506549,-94.29458430067098,-89.75145565684397,-89.95317989044634,-7.234189803704794,-88.7979144676292,-88.38701241431045,-84.02852245024314
2025-12-12 18:04:18.834832,Right,-10.253991018938905,-12.289834405139118,-4.788336040692229,-12.804074441250123,-94.64119468301033,-8.950165285735238,-10.481134634850605,-4.133712851882592
2025-12-12 18:04:18.838838,Right,26.140716117942702,19.31961649047662,26.525567752343704,20.64199513064341,-73.7668488326999,22.50693492931532,21.487495554736597,26.858880846633838
2025-12-12 18:04:18.842861,Right,-44.478392523328694,-61.70284867614828,-54.904213553430964,-55.73357287128965,12.058249787622117,-56.67982442456105,-55.58948301689088,-50.81312916117713
2025-12-12 18:04:18.845868,Right,-95.79398189145559,-108.87157092965208,-98.90365313834081,-104.05658788871187,-4.923010286755016,-103.46725121261898,-103.31894391720562,-96.43860637606849
2025-12-12 18:04:18.850881,Right,-38.32500671004436,-39.23022069372746,-25.512142070390837,-38.56844111328428,-101.9575318063944,-35.453361656203924,-38.32943961176352,-29.499128614681467
2025-12-12 18:04:18.854898,Right,14.61987278570632,12.09656583593096,25.769370337835426,14.535175525075829,-106.33444484073698,16.03958225524002,13.159025385069981,20.98961621717899
2025-12-12 18:04:18.858838,Right,-40.86803791598868,-55.753456403173914,-43.77783101659952,-47.51742536324309,-16.527138993449626,-48.420523802999014,-48.85436709415444,-42.94658086432901
2025-12-12 18:04:18.862856,Right,-104.68209995411416,-120.46213126687508,-107.40258463026476,-112.13238247316258,-3.954496993766952,-110.2901607398162,-111.69939836779304,-106.1228125348971
2025-12-12 18:04:18.866919,Right,-58.64122302117721,-63.45195452543339,-48.178886219044216,-60.58168079688403,-91.78475732500374,-53.5383132975403,-60.125161932930496,-55.087567962822504
2025-12-12 18:04:18.869932,Right,12.851830463538136,9.292074750297616,23.299033295337722,10.816487978048826,-111.66072631413408,18.586050793661343,8.488565299612674,10.705985486882128
2025-12-12 18:04:18.873952,Right,-21.77735184334233,-36.850396784248005,-26.34719073310407,-31.094246937162097,-20.11622272116074,-26.035170181383364,-35.58691105298931,-35.90953733765855
2025-12-12 18:04:18.878961,Right,-98.46237728960477,-116.89913651031384,-107.0266917309782,-110.22755108680576,17.352371295015473,-104.63975183639559,-114.09434984592372,-113.57315487655433
2025-12-12 18:04:18.882960,Right,-78.34489377848149,-86.60277287497593,-74.74476070643868,-84.43858754795656,-66.64911171811764,-75.10566589971495,-87.3205999517304,-84.63949141771445
2025-12-12 18:04:18.886986,Right,-4.903626816485485,-9.780348901622347,1.7506643002816418,-8.718489161990874,-115.68381832350497,1.4035164063170669,-12.462194947231183,-10.167654387976654
2025-12-12 18:04:18.890988,Right,-17.088969354186702,-33.23246797013417,-24.54662200537132,-26.59200426983807,-39.32963104110604,-18.727911305690213,-31.08852385800492,-30.995726330314938
2025-12-12 18:04:18.895003,Right,-84.47036628586648,-106.9212719979987,-98.61403359378892,-96.34192925916796,21.987175481259328,-87.09736321707169,-99.50002605277405,-100.09339958757118
2025-12-12 18:04:18.899003,Right,-64.3117816056074,-77.6176574674464,-66.50849440496677,-69.07038982279118,-37.83997866453137,-54.03405323288098,-71.04617783211143,-71.10527930760145
2025-12-12 18:04:18.902019,Right,25.130981569654978,17.96131432182301,29.932234356558183,26.050019889145915,-93.58481126478364,43.72007874348856,22.430875401638332,21.292860765606747
2025-12-12 18:04:18.906059,Right,29.743528656723356,12.429988010910165,21.792452524139662,26.509091139771044,-27.70197289459975,40.754305362719606,20.17862457834417,16.918426523370726
2025-12-12 18:04:18.911000,Right,-57.88201321601082,-85.08715555488016,-76.99807824581512,-66.14068247088653,44.80745113152079,-54.73087303634384,-73.20747350354941,-76.44771083484375
2025-12-12 18:04:18.915078,Right,-83.03119297173907,-104.17643288872932,-93.94718877350533,-88.0823252476257,-10.442333082904952,-74.74994687737853,-94.76842242755811,-96.28116766726453
2025-12-12 18:04:18.919065,Right,-11.432125995310344,-24.274074750159343,-13.018992347744643,-12.493907672702335,-93.98446305082325,2.5166389206096937,-20.085620463876694,-21.953000096866162
2025-12-12 18:04:18.923104,Right,14.266273734468996,-4.573049888815149,3.932877019433363,8.914055053930497,-54.13088433917437,21.48105739190578,0.24135048724565422,-4.459274231849122
2025-12-12 18:04:18.926085,Right,-53.98324729488377,-81.06807412434864,-74.93121541418805,-64.52682622988505,33.87511342105063,-53.94207951564749,-71.9915836890359,-78.1199314369951
2025-12-12 18:04:18.930108,Right,-80.26494816319246,-100.10503191257885,-92.76036016785656,-86.3402838973343,10.485402501268254,-73.48286830988218,-91.86617092816596,-96.61159906408284
2025-12-12 18:04:18.934055,Right,-3.9008989473222755,-11.810349524166668,-3.392568226896401,-2.0543891439738218,-71.35162107772703,12.414790217764676,-8.447827166346542,-12.3300449196322
2025-12-12 18:04:18.939128,Right,40.08133656888822,28.54972877921682,34.266445308931,41.230750487418845,-48.82504010469711,52.07587228691773,32.061162132260506,26.600124669676006
2025-12-12 18:04:18.943142,Right,-31.402243866155914,-54.43285663601273,-51.93853118154948,-35.83078087848844,42.94532584099579,-28.83344705644049,-45.408116435894044,-52.098111906023405
2025-12-12 18:04:18.947142,Right,-93.15089094407449,-114.00815979316394,-111.20184701652761,-96.14008645119611,35.43477379424439,-87.20113010488421,-103.22105319906404,-108.62266065537551
2025-12-12 18:04:18.953157,Right,-40.05266514668983,-49.143868813320296,-45.14976478538301,-36.94105700468208,-57.06752205106386,-24.15380512603224,-42.33130001009704,-46.30461705525522
2025-12-12 18:04:18.956230,Right,23.42625724935351,14.343489370592579,16.205466383376915,25.36927723401459,-61.84289596055169,37.05246741186784,19.692166050255764,15.113325492180593
2025-12-12 18:04:18.959234,Right,-16.965533635582688,-36.266555294030695,-37.45187766820891,-22.141879178852832,31.58468920824089,-14.429349082398403,-27.079043218225706,-31.986592559085693
2025-12-12 18:04:18.962197,Right,-72.7395597950308,-91.29339418617747,-91.75045715707529,-78.51527474696923,52.68757536883277,-71.17122790769281,-80.5570199835638,-83.34656438163802
2025-12-12 18:04:18.966217,Right,-23.18781991186188,-29.474819660907087,-27.318284872657387,-22.801556348327722,-31.973569359222893,-13.372645289302454,-22.797629205160774,-23.815865172196936
2025-12-12 18:04:18.971295,Right,53.04439817875391,48.79007154626015,50.19009922393161,53.587708180290065,-57.98744946999432,61.650137456039374,53.18790627925773,50.54751356491761
2025-12-12 18:04:18.975237,Right,20.871524764592323,4.782906541280681,2.9789235829666723,13.544638621599006,27.537428200372233,18.05409269174561,12.873621898601414,7.813088339025853
2025-12-12 18:04:18.979254,Right,-58.815433548898,-78.9953337902407,-81.04914300552628,-69.09043886594009,66.26605195535012,-63.89260494784685,-68.27883729563473,-72.39115733474318
2025-12-12 18:04:18.982235,Right,-40.031248800456524,-49.4164941899362,-48.74398642774031,-43.863918522045424,-14.577442157435144,-34.63460884233791,-42.36505609851156,-43.36375499492715
2025-12-12 18:04:18.986198,Right,38.65873451785592,34.914710543787805,35.98171928158263,38.69423637304135,-64.67796674392594,47.823109520635626,38.29389231668756,38.47119805441616
2025-12-12 18:04:18.990254,Right,27.52451867939817,14.798010834259912,13.049657708812447,22.571343296171108,9.260644639096427,26.631278546999965,20.49474291349179,19.894505250034854
2025-12-12 18:04:18.994276,Right,-55.54335893809184,-73.17095320965018,-76.02282208792894,-63.831919144919084,68.70084220865829,-62.44488502077729,-64.69123592419783,-65.03374032102874
2025-12-12 18:04:18.998297,Right,-59.78394314130128,-66.64558895136724,-67.54781240707234,-62.59893406527408,1.3627583997586044,-58.920507105045544,-61.66147106895369,-60.992568917004974
2025-12-12 18:04:19.003312,Right,16.192599331203382,18.16461961035384,17.6280282245134,18.111861742276233,-69.4409436539936,22.922655379370553,18.196008422448358,17.796911994271795
2025-12-12 18:04:19.007337,Right,22.41076552956656,17.083305949468922,13.736355819681194,20.407853265576705,-15.527309469216561,22.30522143105918,18.481806132171187,15.602715729532065
2025-12-12 18:04:19.010313,Right,-59.65467392060236,-72.81067837998853,-77.45678063545347,-65.32286009225936,57.0460966737046,-64.71022217977588,-67.20007978450303,-70.30806576500618
2025-12-12 18:04:19.014392,Right,-79.81096132836683,-85.18090698726883,-87.5420196935811,-80.02241603280709,7.3028975568122405,-75.84341317116196,-80.59161873218545,-81.6489312705744
2025-12-12 18:04:19.018346,Right,1.1654823814387782,5.680243071015866,4.338103564994526,7.049284834407445,-76.04545429753853,14.059936651130556,6.407342204925953,5.452354588618618
2025-12-12 18:04:19.022365,Right,37.6989953331431,36.411188680678606,31.736700869783817,39.712763218340115,-39.40064503937174,44.83223049965454,38.6157410479791,34.406874179629085
2025-12-12 18:04:19.026307,Right,-32.068368598702364,-43.61304210254457,-51.56894144133548,-36.93903515107377,48.639156547676976,-33.39011903878418,-36.13879961564817,-43.124141965839954
2025-12-12 18:04:19.031383,Right,-76.49267970240908,-83.55362977470213,-90.76417155763193,-79.44762474938761,23.72624903606993,-72.91924217987253,-75.55885238621704,-82.34862378556136
2025-12-12 18:04:19.035393,Right,-19.365753298079653,-15.881148309876153,-21.761145739874337,-16.573671511912835,-69.26992482990318,-7.644985637256468,-11.912499568185012,-18.150349466261105
2025-12-12 18:04:19.038400,Right,20.383230638144596,20.17617356156552,12.03232888927596,20.444550554231682,-60.86454817758204,25.943426646568696,23.902172959591553,16.307840662891977
2025-12-12 18:04:19.042408,Right,-42.80040935851139,-54.946948394266656,-66.13612450059009,-50.66858590321499,27.768823409292963,-49.80994395243033,-46.81255789577699,-55.536208342338796
2025-12-12 18:04:19.046435,Right,-94.56975269061513,-105.64164934548899,-116.37571902960917,-102.66835619763151,27.829332486813655,-101.07793872652837,-96.47768263937905,-104.39741426038381
2025-12-12 18:04:19.050441,Right,-30.608943888597423,-30.433197381193168,-39.6441543443143,-32.33023745767423,-57.910994563193526,-27.472511322448554,-25.28735464177589,-33.18301752839034
2025-12-12 18:04:19.054450,Right,46.45934307686548,46.681685790499614,35.47265965673432,45.140168156591244,-59.15561429293302,49.23840424590162,50.731886892848706,39.986144604481524
2025-12-12 18:04:19.059464,Right,12.058039114199346,1.2910658652253915,-13.473919574811589,4.702650689338043,40.84690892619619,5.499665385585104,9.75999904784112,-3.382248659559991
2025-12-12 18:04:19.062475,Right,-55.046925378919696,-66.46893815027579,-81.24611429285142,-62.66904744364729,68.81751412253652,-61.99407805564988,-56.034095332470315,-67.36865729419515
2025-12-12 18:04:19.066471,Right,-24.44502628516784,-23.82881214619556,-35.98449004620488,-25.06627921717154,-19.3783960964538,-22.953169200955017,-17.7817850416468,-25.290369955735514
2025-12-12 18:04:19.070494,Right,42.46168995643529,46.33049494672741,34.53729181001836,43.542018520165584,-58.170152886574215,42.63831463192764,49.06001571732486,43.016811724417494
2025-12-12 18:04:19.074511,Right,11.835344433806313,4.625675237111864,-8.724541861309262,5.830155372583249,19.891942507605563,-0.8746059053082718,10.128202584863175,3.6748343992076116
2025-12-12 18:04:19.078476,Right,-66.81959792401904,-78.88442462298553,-91.02098918196134,-76.60528666450409,62.11036801212322,-84.43960337461613,-71.04740152306476,-76.62034378178214
2025-12-12 18:04:19.082540,Right,-51.509728030636325,-53.84748527973716,-62.25669721201848,-56.29599939405307,-15.653215389716934,-60.362178238647175,-49.62672215431667,-53.6881713640978
2025-12-12 18:04:19.086554,Right,24.907240296000964,27.96796258748509,20.474359472704236,23.27022841624421,-70.97318719166287,20.678746416924696,28.80322436298593,23.913132810710522
2025-12-12 18:04:19.090564,Right,15.531526781567663,9.578645381821843,-0.6288103787155706,8.979436291534512,-1.3475756539446593,3.9547809869909543,13.659928764587676,6.467503460909938
2025-12-12 18:04:19.093582,Right,-64.63539778984705,-76.04881677457888,-87.41181147149473,-74.196722616638,64.22884951351807,-79.39587510212004,-67.6633111554329,-75.02727855943522
2025-12-12 18:04:19.098586,Right,-65.5536741511678,-66.75158719468163,-75.93527913114667,-69.04861336291651,6.22624817617907,-70.46552333116415,-60.395146755116,-65.88445728637453
2025-12-12 18:04:19.102612,Right,17.821389694719983,25.401042712030176,17.175964189664228,19.769055919663515,-62.71655305999957,19.882353414141107,27.875302751017443,22.699916888210282
2025-12-12 18:04:19.106680,Right,34.764541940559866,34.68082728801528,24.13222289022815,32.47679274447728,-9.83918609727698,29.435248029280046,39.43410766172019,32.50100661635224
2025-12-12 18:04:19.110679,Right,-42.27621943952545,-51.41759203566471,-63.11610343733628,-50.11247912957333,67.73240936992806,-55.10779050509154,-41.63001372940198,-48.91971434240986
2025-12-12 18:04:19.114704,Right,-66.52130869941175,-68.67526522218395,-77.72479043329804,-70.7935387749385,24.4051963982929,-73.44190662650362,-59.827883385522,-65.21568004581059
2025-12-12 18:04:19.118690,Right,11.300511683119112,19.882512236348703,13.014264082274167,13.07950761707616,-59.568426651287155,11.752202699492045,23.81166816023324,19.098515645389853
2025-12-12 18:04:19.121714,Right,51.12521903854213,55.02815246461978,46.59716566489806,50.36161920153245,-26.500617204106675,46.132167902600486,59.28197202822412,52.760708100293414
2025-12-12 18:04:19.125732,Right,-17.627901551408286,-24.570148556813365,-34.52627505225246,-24.438716783370182,63.16898150317138,-30.09616186850326,-15.07468228046855,-22.411117884701525
2025-12-12 18:04:19.130677,Right,-67.0356700557677,-71.00943290089344,-78.78464456183428,-71.88732726721355,41.640746578817925,-73.14832654776546,-60.34048923829323,-65.76487398598692
2025-12-12 18:04:19.134743,Right,-10.995524464819027,-4.687609026150312,-9.907093924812216,-9.47682427548716,-54.79502563306232,-6.093230093450984,2.189776139501191,-1.9382378737500403
2025-12-12 18:04:19.138762,Right,36.2038058592625,39.94599605703843,33.60629515346227,36.81990887867141,-53.86726908589117,38.87269111073692,46.39326033020188,40.67291599694727
2025-12-12 18:04:19.142789,Right,-19.910471810620948,-26.989336582009855,-35.31020778236416,-25.16599488203792,33.83695375864045,-26.717851580819115,-16.402642926757835,-23.587805632327218
2025-12-12 18:04:19.146776,Right,-71.93841538530614,-77.20933849667927,-83.99153277848382,-76.20454288228939,39.338078945896996,-77.3096735656436,-66.38840576966322,-72.11053266002273
2025-12-12 18:04:19.149783,Right,-12.503703841608512,-5.805382781014487,-9.851124151464319,-10.149715605199162,-46.60999545551749,-9.308692778315162,-0.618226212940499,-4.363230354094412
2025-12-12 18:04:19.153815,Right,58.34295919017313,65.20822303913155,60.29258275108441,60.581851441071194,-58.085531995613565,58.894713042995136,67.62711977493018,63.35042109182177
2025-12-12 18:04:19.158832,Right,13.064979525923263,7.589036632711213,-0.186265680102224,8.117577145269024,31.502226045060524,1.8380101176226162,13.431953649091156,7.890560059720883
2025-12-12 18:04:19.162843,Right,-67.84786548351258,-75.95566243537905,-83.56416354882094,-74.37304080398826,56.124595687713736,-80.51624969382101,-68.98815019210451,-73.76848938030889
2025-12-12 18:04:19.166837,Right,-43.21265482811941,-39.75309874413142,-45.089582742832135,-43.2886095949616,-32.69062020640558,-45.74848440307687,-38.845688599285495,-42.624567724786175
2025-12-12 18:04:19.170858,Right,32.01475028792629,40.46043202062356,34.41404282480653,34.31605225741441,-71.87243083875728,32.056599032031954,35.70891714221216,30.2954759696986
2025-12-12 18:04:19.174862,Right,15.168964737626084,14.783940609009733,5.337865917535964,11.506649318220298,12.402381527019315,5.77428760456678,10.993004187166662,3.279361958779191
2025-12-12 18:04:19.177871,Right,-56.27179931108549,-60.45789677266657,-70.79413115507487,-63.38064586079781,68.23068965503262,-69.75700835192401,-62.55679013268673,-69.48129866495583
2025-12-12 18:04:19.181881,Right,-36.801417000537185,-31.224396206143865,-39.35944756612298,-39.6068585175708,0.5793716848711483,-43.217416823419626,-37.0451423880113,-41.22040792117332
2025-12-12 18:04:19.186817,Right,51.163925846052734,61.757175907710916,54.04986261045269,50.39101650485463,-54.111622065927804,46.24724604994117,52.18788745845086,48.81247939915556
2025-12-12 18:04:19.190915,Right,54.92502492085623,55.36659705355851,45.279243482531456,48.25374242931139,13.991315130613657,39.01919512481618,48.69431910837375,44.468997352691076
2025-12-12 18:04:19.194910,Right,-25.036659518817032,-31.615917306284246,-42.13522272435512,-35.005199945964705,81.8152807927836,-46.650110349743045,-33.58644602446657,-36.86134730667618
2025-12-12 18:04:19.198920,Right,-36.055071797716664,-32.63348492513978,-40.099052500518155,-38.96901732911283,24.35093868236072,-47.368783278787305,-35.72058026196828,-36.50939794378064
2025-12-12 18:04:19.202926,Right,41.65198862496254,55.63314646374056,49.967686209121894,46.29138865580899,-50.7202932278924,40.35726607188553,49.171812640797725,48.7956093813882
2025-12-12 18:04:19.205994,Right,59.04835434786946,67.17594510018534,59.74632494598336,61.519310423886054,-4.067929237364297,53.31786943107363,62.94142905967965,60.80651491916433
2025-12-12 18:04:19.209957,Right,-22.796095615572995,-23.90684942842927,-32.3158250697561,-25.049333155584463,74.2131437267999,-34.99384470201403,-23.06795675009198,-25.323661945665663
2025-12-12 18:04:19.214031,Right,-60.718875182468764,-56.38719348219456,-62.22185618068761,-59.80584402754539,32.061181739998574,-67.1076123754683,-56.10340989047836,-56.04009278228841
2025-12-12 18:04:19.218992,Right,4.658149129656522,18.848210459414986,14.975034971350397,11.002644147083629,-59.64812233931298,5.574679073743027,14.367213262336008,15.500188715428521
2025-12-12 18:04:19.222990,Right,42.62220252105908,52.585719299422635,46.637932267974975,46.14109663946874,-36.9321286893537,37.29715358325848,47.63726640073219,47.10388095448434
2025-12-12 18:04:19.226946,Right,-19.040260315578053,-18.883373753946216,-27.11608986334977,-21.70621271919299,53.560812816460384,-34.363582148700516,-20.361551777255954,-22.005526513468794
2025-12-12 18:04:19.229982,Right,-57.989506919049745,-53.62763899555648,-60.13076519282913,-58.72131095151781,42.92209255031776,-69.81335328320347,-56.008554868747524,-56.28846572585462
2025-12-12 18:04:19.234016,Right,10.287955786614475,26.344336904112424,22.679107241056045,16.190974056338746,-45.601202969839505,8.519556557104806,18.57177489298556,19.279538001021137
2025-12-12 18:04:19.238041,Right,68.5304915523011,82.87023834603679,78.77788974171926,73.80106854167025,-42.920658947132324,65.46447231414277,74.16569228558001,73.35209971438599
2025-12-12 18:04:19.242047,Right,13.286740977186128,16.314151326783758,10.775275722484366,12.56463713602352,47.83189997332374,2.0677740665014426,12.77374906645673,10.579050115957216
2025-12-12 18:04:19.247070,Right,-52.284462675321265,-48.56594118664907,-52.256208741946466,-52.15403898214936,56.93432922043576,-60.628491988387395,-49.58655625143547,-50.36652371026139
2025-12-12 18:04:19.251009,Right,-10.051329740977963,5.495186806212587,4.8812461629386235,-2.633740355107875,-34.13504063760411,-7.418059804102086,1.3102164623178396,2.632229879796796
2025-12-12 18:04:19.255081,Right,54.5068741368741,71.30925088507502,70.17390163421805,63.20346527866786,-57.76139218007302,57.46591274764069,66.1979104165348,67.33543087342514
2025-12-12 18:04:19.258086,Right,13.156809403801162,18.571539394666615,14.679411761146184,15.627688916330953,25.964833368769177,6.0677302547046565,18.338505183388406,18.450382887085652
2025-12-12 18:04:19.262093,Right,-65.51794078103921,-62.70833600016704,-66.58634996741239,-64.69819476086559,53.88177531440306,-74.08274540661296,-60.172680759256764,-59.24183910963984
2025-12-12 18:04:19.266095,Right,-42.51853068656783,-28.533094573011113,-30.23696770326569,-35.56596546426772,-34.3320058838799,-41.2510037110369,-29.995938254087378,-28.070881396717596
2025-12-12 18:04:19.270126,Right,35.10387162828192,53.35716545517607,51.1747682003479,44.7095447934189,-80.53811877314365,39.597525947905524,49.057558240167054,49.053474087984796
2025-12-12 18:04:19.275122,Right,23.90383466534331,31.741742554902885,26.801682784815057,28.442557922238848,-0.8118648507625039,20.364849014305946,32.40381108242764,29.263989950453833
2025-12-12 18:04:19.279099,Right,-49.08942702129207,-46.89635982854816,-51.679554118320084,-46.514647010391855,58.752983261867485,-54.83718686310385,-40.11707217279945,-43.545343103371124
2025-12-12 18:04:19.282238,Right,-40.096493510718574,-28.638700756151593,-29.992089637202298,-31.125531515395778,-6.3241138555822545,-36.191015781936585,-22.749807640515428,-24.267316349956673
2025-12-12 18:04:19.286213,Right,40.03485820108108,57.58148374135999,57.487118984994595,52.962216551521124,-66.39761776492924,48.37000663132494,59.73901568022666,58.354357677520966
2025-12-12 18:04:19.290169,Right,45.24125530852325,53.44097849670652,50.95726253340763,52.57501541167949,-2.532639481336446,44.53563613567894,56.59688119682505,53.5890688751424
2025-12-12 18:04:19.294222,Right,-32.38123908383022,-32.113760155870295,-35.576535808801054,-30.173031158505182,69.88497319931412,-38.72608651168048,-26.416609246114604,-28.942062048265143
2025-12-12 18:04:19.298205,Right,-46.8978182224364,-38.405925022841984,-39.20418253825301,-40.367888649971064,16.99884351954097,-44.18019179638941,-35.55422642366648,-35.06040661710267
2025-12-12 18:04:19.302175,Right,28.951839594557896,46.896232205926026,47.783608460340474,40.89202402091723,-62.62730829685279,40.076843768049,45.02260613620092,47.18737722811966
2025-12-12 18:04:19.307230,Right,52.71013982566183,64.42336146574962,63.149381039705986,61.20262406927213,-21.727932402744045,57.56056412034377,63.908458713554865,65.23095502889555
2025-12-12 18:04:19.310219,Right,-21.10922623830811,-18.936562665643578,-22.117953852655774,-18.09796826552156,60.959830819139825,-24.548210922743237,-14.592096370866784,-13.277320497197252
2025-12-12 18:04:19.314289,Right,-56.4335631140093,-48.88802030777424,-50.38463327389218,-50.39371375388146,28.01666283760278,-54.85055007050687,-44.87390520414965,-41.49019303730893
2025-12-12 18:04:19.318233,Right,8.95627269421675,26.78443711221462,27.011996561112028,21.001095743257792,-62.75842983819166,18.51518246127307,26.365217776658483,30.520900079581224
2025-12-12 18:04:19.323324,Right,48.110207110810734,61.86865916335273,60.32349749363675,57.94349944446458,-45.96435576294971,52.50316389208092,61.508363026274765,63.46907511646259
2025-12-12 18:04:19.326266,Right,-14.023427982254361,-10.901543087321897,-14.33829642193632,-10.443636554603472,44.26146521586088,-19.20764237453477,-6.753481391677269,-6.5615726830751555
2025-12-12 18:04:19.330304,Right,-56.48622785769476,-50.22709243101872,-51.63439318125893,-51.477338540273195,40.80221040207107,-58.177910642738425,-45.70302687579351,-44.35872549751002
2025-12-12 18:04:19.334337,Right,11.01823247876382,28.81115959126919,30.26654290182705,22.304121279735227,-43.0871645972984,19.45956137335088,28.54708247450867,31.302955335753722
2025-12-12 18:04:19.338354,Right,72.78609661075097,89.14060144280666,89.53686437389752,82.88357998112315,-41.33056516165561,79.46740275215234,87.42236933952518,89.3282548244897
2025-12-12 18:04:19.342346,Right,15.274379667596804,19.677549430329236,17.328773833065497,17.842910777453653,49.08907709853156,11.86898890181692,21.9467018421675,23.045814678592706
2025-12-12 18:04:19.346365,Right,-63.567169846694014,-59.81111058146723,-61.67383983093168,-62.366789688314384,57.9961223641003,-66.95161314298639,-56.541954880094636,-53.87902766947036
2025-12-12 18:04:19.351361,Right,-32.37898554579806,-17.426683451053407,-17.099259033122053,-25.79319893200318,-40.23663263087656,-27.361298044514115,-19.683707147392965,-15.616610314667923
2025-12-12 18:04:19.354293,Right,37.386100165484095,53.55719076772405,52.94155576568119,43.767257539693674,-74.79750269633223,40.27094645299621,47.06944978046235,49.62650405417219
2025-12-12 18:04:19.358421,Right,12.203683283222745,15.986020568238132,12.508372010546282,10.758390209609388,8.039603604001968,2.226671796215669,11.612673684677304,12.227563179020791
2025-12-12 18:04:19.362331,Right,-53.81345575076466,-54.81969581561566,-57.8488052332425,-58.32164528101066,48.468126494131866,-67.09881138751189,-56.72242297454886,-54.997763912545
2025-12-12 18:04:19.366406,Right,-26.535712019425773,-18.058998786048733,-17.720434836842514,-25.241273755789507,-28.18239615263883,-29.115640023761443,-21.71627652340362,-17.761762839941866
2025-12-12 18:04:19.370410,Right,50.55726655205672,63.11191934895942,64.43370315334539,55.05739858121444,-74.97534744528821,53.89243660470129,59.269503554035055,62.39807840418189
2025-12-12 18:04:19.374400,Right,35.14814158032732,37.69363097637233,37.067104604152576,34.54203642451898,-1.4815899222357984,32.14310424240921,39.582384384865236,39.650658712485665
2025-12-12 18:04:19.378420,Right,-46.50958954793805,-49.395123135148424,-50.01259188579411,-50.37220127555032,55.3499060800259,-51.9939945803776,-43.01885404030463,-43.94013552372144
2025-12-12 18:04:19.381442,Right,-46.26150948918348,-39.15166348785078,-36.91171689149064,-45.036879302819784,-12.608857799823454,-42.61266886556723,-36.51302005724119,-35.89368145870458
2025-12-12 18:04:19.385388,Right,30.651091338008882,45.42213637966506,48.39941921839545,35.594036740038746,-81.26946882159427,38.76884351635499,41.71181176713799,42.947958031029884
2025-12-12 18:04:19.390443,Right,36.86472060341703,43.380473549388626,43.42130535864271,36.30688457079759,-24.84377444461279,34.74437721210029,38.96602477611714,39.20211330116854
2025-12-12 18:04:19.394561,Right,-39.07675431888583,-40.81990097354901,-42.37475126158324,-45.23044114080312,50.546071501115875,-50.24943159194413,-43.45555810224869,-42.897023144873856
2025-12-12 18:04:19.398458,Right,-48.29322541393685,-42.56850505165312,-41.690618226673905,-50.390550736156,6.711584640408546,-53.679607545769954,-48.036226151671144,-45.35373295044701
2025-12-12 18:04:19.402488,Right,40.01560002699762,55.10129140366644,58.27679144645208,44.37829253211976,-67.94562507616683,42.65758476602268,45.62561863954761,49.11449317428105
2025-12-12 18:04:19.405546,Right,74.96227127351949,83.75203429529302,86.03380986714092,77.76285788678024,-25.819863866221567,73.45896455960383,77.05460894193311,79.40243278595335
2025-12-12 18:04:19.409543,Right,-1.8751494048074164,-3.516664054822286,-1.917819557812436,-3.135812627307132,60.20162438938678,-9.297269616363565,-3.7101150842581774,-1.0783841642114567
2025-12-12 18:04:19.413548,Right,-49.66315559197585,-46.78052587826096,-42.91512912823691,-47.3786004258036,30.600340705397684,-50.43745081347015,-46.62374793574236,-41.35092256252028
2025-12-12 18:04:19.418534,Right,12.877538771507488,26.215152823100652,31.602249171208314,20.945749161647655,-62.04894454417081,21.082456392217864,21.005993978164042,27.472093593283716
2025-12-12 18:04:19.422568,Right,62.469368224286654,71.81507850279922,74.75246035477358,67.28247566103983,-48.939912526846456,65.32917708259856,65.20541214539571,69.59503231291092
2025-12-12 18:04:19.427612,Right,6.198042691918488,3.436097520791918,3.88673028469384,3.1589875073132134,42.11844621590171,-2.4090392168636754,0.8493226878999849,3.562251532582195
2025-12-12 18:04:19.431565,Right,-45.884998372162954,-47.51104700385804,-45.00364779194024,-48.48048018441932,40.21057774559449,-53.45039161938803,-49.43117003776297,-45.21716259378081
2025-12-12 18:04:19.434570,Right,8.819843704825871,18.3465513583742,24.518538792801337,12.962051714283007,-49.39706095152542,10.105470490943844,11.297496141603915,17.404690990071686
2025-12-12 18:04:19.437547,Right,71.08359697419564,80.42256497860399,86.5508655284666,75.31772373324748,-55.779158022865886,70.7286491107061,70.57125123542482,75.94660492496223
2025-12-12 18:04:19.441633,Right,26.835068218701963,25.359284251650024,29.170073400044203,24.628388063812963,38.14710409972486,17.347504178289455,18.372319403101756,22.340176169633196
2025-12-12 18:04:19.446627,Right,-37.60092002755937,-39.2113105495755,-35.10404815440779,-40.234359821310136,63.46170313250332,-44.913386310969145,-44.916323091256345,-40.361141728608345
2025-12-12 18:04:19.450595,Right,2.6087558769768293,13.132868662587498,19.341379368121125,6.7900982511964685,-20.676375540574554,7.65409293626908,3.5816769822740753,8.83503844696861
2025-12-12 18:04:19.454593,Right,75.19353061226502,88.556342637954,94.21043944893972,81.1179693762715,-53.06683363582488,82.99124591963664,77.37927639582995,80.68447082270177
2025-12-12 18:04:19.458594,Right,43.384229502685685,45.67832465815445,49.06719970612903,43.51467070394756,26.5150137367591,42.27914468328345,39.729216693683156,40.449774700153284
2025-12-12 18:04:19.461588,Right,-39.988592890210384,-41.68012679216008,-37.21582836022026,-40.83048177901583,64.44803777806646,-42.30689215695929,-42.59421726119217,-41.512444978749045
2025-12-12 18:04:19.465638,Right,-30.001165167519503,-21.150411732827706,-12.607278474410123,-22.805680602685243,-18.005313190638844,-21.2174919345307,-23.252125601913576,-20.046520533313014
2025-12-12 18:04:19.469656,Right,43.304621270130156,57.23989226244521,67.22970534508931,55.43870932946811,-74.62577033351772,56.75606109084947,53.55211173480893,56.86466339761864
2025-12-12 18:04:19.473673,Right,35.035058664321696,38.570510584204385,46.25676962443504,42.5515916642853,-4.962213636803426,39.441994330176385,39.192770267382,40.87004486272417
2025-12-12 18:04:19.478609,Right,-41.31765418764644,-44.87815806264007,-38.23784499795147,-37.49195866807531,59.21931008490901,-42.043522184856556,-39.57900855709522,-37.93274191515229
2025-12-12 18:04:19.482649,Right,-39.997483170521264,-34.741700333250265,-26.170768157075145,-31.615976520070035,-0.1626026917128911,-32.26808587074629,-31.799426869227318,-28.58453449427543
2025-12-12 18:04:19.486694,Right,40.050211101961395,52.97028602831051,61.95818332389899,51.65605325150864,-68.96514746806133,53.750835936532894,50.802373073200215,54.07119852156757
2025-12-12 18:04:19.489695,Right,48.61078382761116,53.209404765437284,59.222076628080686,53.9412649120859,-16.750861974260715,54.367617924250226,51.10140588796821,52.92292140840982
2025-12-12 18:04:19.493751,Right,-35.572322215776694,-40.264948686666685,-36.0801248879543,-36.808352187388664,58.5331109280537,-36.95001710905126,-39.96944801868631,-37.70719047799139
2025-12-12 18:04:19.497734,Right,-60.6977759677211,-58.93177303611628,-52.88434739165132,-58.658923844277524,15.332684741318644,-55.21989997831042,-61.50206200955472,-56.57163548869721
2025-12-12 18:04:19.501744,Right,20.11860003396123,31.439162697457505,38.834254123732535,27.9809625737671,-64.14585272713202,33.37809017838299,23.2951812060237,29.353861165996932
2025-12-12 18:04:19.506781,Right,63.657517103075406,69.61779609138102,74.84416594469258,69.02705537193106,-26.123590475911897,71.09145922083371,61.79666569285655,66.21805284709262
2025-12-12 18:04:19.510754,Right,1.7080043251062307,-2.0818717370566446,1.4003532041879225,1.9018781947506795,66.47772997588254,1.325431611683598,-4.735337404097663,-1.2264981819571403
2025-12-12 18:04:19.514790,Right,-37.652553836247534,-36.437509284178304,-30.74009357268551,-34.34236425718882,48.98807366595361,-31.756645764231507,-37.80560910843087,-32.81230844482343
2025-12-12 18:04:19.517781,Right,24.723044799115087,37.04750647884066,45.29073983305898,34.52430715199807,-40.16379966777322,40.85118390986463,32.496638108488696,38.09969665013341
2025-12-12 18:04:19.521810,Right,70.4297000371862,79.20862818534079,86.05731651008318,78.0508518209499,-32.50290938488661,82.27295602207596,74.62507987504432,78.02801595296114
2025-12-12 18:04:19.525815,Right,9.442072375954012,6.034913101077109,10.47160023523611,9.652474316597363,56.64552057246249,9.455736747044284,5.104179293919515,6.889362735724717
2025-12-12 18:04:19.529850,Right,-46.96751176104408,-49.000247265399594,-43.24743985227542,-46.29167375371617,58.61844539744362,-46.61117508157622,-50.57494588794907,-46.9731049955808
2025-12-12 18:04:19.533824,Right,6.154125452345397,16.747501301020748,25.40048917279273,14.206583268807663,-32.60193546430803,16.06925873306318,9.180814599059886,15.376455071855162
2025-12-12 18:04:19.538850,Right,68.33572840671695,80.57825348743609,88.684095623943,77.79253120293288,-49.93150159934689,78.51458854900557,70.8130625663216,77.02507484907437
2025-12-12 18:04:19.542856,Right,18.58027459870209,20.377517761544368,25.694619225021597,22.44727555879217,33.276091201220765,20.983456854093674,15.639662998810309,20.66072213741245
2025-12-12 18:04:19.545858,Right,-59.46422271292795,-59.085746453487445,-53.98304538581215,-56.07372652806589,53.10470035923095,-54.633014442846616,-59.82127633002892,-54.6844543394418
2025-12-12 18:04:19.549868,Right,-31.703457943551257,-20.588403723506417,-13.773577066374855,-21.61289814265365,-37.106001579601525,-14.35320911601957,-23.2444752089541,-18.20096037343137
2025-12-12 18:04:19.553890,Right,40.56700967972574,53.796500549680786,59.75702466139046,52.45178536588355,-76.67412724020278,60.851363168108946,49.851712159750605,52.26835525394199
2025-12-12 18:04:19.557916,Right,19.171302202408697,20.579090060176895,23.866748718370218,24.318240656933995,4.652699122924332,29.354078294669307,20.56123893981021,20.151322712988986
2025-12-12 18:04:19.561908,Right,-51.14946147741102,-54.75510727411711,-50.91281548715233,-49.62778240225998,56.44087787439412,-45.24351526089231,-52.349123368401706,-51.98316225612325
2025-12-12 18:04:19.566935,Right,-26.915069520628094,-20.384178473561406,-13.070617481125737,-20.882841686508982,-11.525479005848865,-13.366709727739362,-22.615798312499464,-19.340568975441784
2025-12-12 18:04:19.569942,Right,62.28145118857901,74.33729469917671,82.2071212465089,69.98154041604539,-62.27418057850855,77.95648477047871,67.01860892681543,70.79680892737815
2025-12-12 18:04:19.573963,Right,63.11369600218677,65.02102750139784,69.38626722209301,63.68271776023903,9.237587082946902,67.97011538356674,59.52580369617135,61.44088066471704
2025-12-12 18:04:19.577953,Right,-20.005893378043766,-25.50858646974666,-23.183641931023885,-24.357928634544805,76.32801642463573,-21.449158063591312,-27.17977103350495,-25.517961925166674
2025-12-12 18:04:19.581912,Right,-34.27294328357311,-30.790212016821897,-26.597222991837043,-33.2987302200836,15.4335219948116,-27.015549570161966,-34.3512312019393,-31.01213705002374
2025-12-12 18:04:19.585978,Right,40.173157190645725,52.453094708742356,58.199010398349856,46.836956678018396,-62.086584087117444,55.19435774620433,44.97596756922212,48.13252962592742
2025-12-12 18:04:19.589998,Right,59.94882144594885,64.78625310728785,69.42948263063772,62.74052508202294,-15.17434598476757,68.37274241619161,59.00784565253525,59.55826245246135
2025-12-12 18:04:19.594009,Right,-10.147020636797606,-14.834603471663286,-10.186854117680923,-12.986956118160379,65.63298455214863,-9.914649539929087,-16.49819804863,-17.069269313518816
2025-12-12 18:04:19.599020,Right,-33.658429098968554,-32.04870878983456,-24.248146336656646,-33.25934084752589,27.486939376726696,-29.014174931824527,-35.46718628261624,-34.391775186486484
2025-12-12 18:04:19.601967,Right,37.86554673068349,50.16714924603548,59.9189604989042,44.20676405411905,-60.356350683259734,48.641319296039,41.235624437254955,43.35162796554505
2025-12-12 18:04:19.606034,Right,71.09875620543971,79.38229084942213,86.86485868766249,75.12287278805888,-37.17514097599724,75.14101338847468,70.112505759751,71.20085472291248
2025-12-12 18:04:19.610036,Right,0.20365976691209653,-1.440948130992183,3.7691558432779857,-1.2142117600978963,48.612017554273734,-4.5621086354403815,-5.984584203490158,-4.93948665537755
2025-12-12 18:04:19.614092,Right,-46.68565037777989,-44.38025634231053,-37.18668746980984,-44.97767573818237,31.675797954534573,-44.99215159500454,-47.335744161886396,-43.857095020601264
2025-12-12 18:04:19.618085,Right,16.129588358377077,29.61315683286921,39.88814653481677,25.64329731280486,-58.61985579372231,30.98598507288989,24.248680340220744,29.432786253848462
2025-12-12 18:04:19.622054,Right,70.91900931284181,82.13029720024133,91.90862032245059,80.39186540448281,-52.22742824551642,86.06362814999738,77.86512885306729,81.98576554160354
2025-12-12 18:04:19.626034,Right,13.506789330431275,13.315940097703788,21.19526366498394,17.05329924388934,42.378718110621776,20.43602198091685,14.475031886328907,17.882771886830596
2025-12-12 18:04:19.629145,Right,-54.16449009117423,-53.341186660618405,-44.24591905644047,-50.019738390628845,51.77896833366776,-45.29635660904387,-50.65750803074752,-44.924324152270856
2025-12-12 18:04:19.634126,Right,-15.362240213788027,-2.797366862216222,8.877719288610024,-4.796488310210407,-40.39526336505878,3.0816285342589254,-4.370819610880062,3.8836131374500837
