timestamp,label,FC3,C3,CP3,Cz,FCz,FC4,C4,CP4
2025-12-12 18:18:11.157146,Right,2190.8475865038354,2664.0935287975035,2654.557386313732,2354.3243609683755,1559.236047260423,2198.1270630039676,2474.2748402703733,2735.5331927524894
2025-12-12 18:18:11.165169,Right,11790.492956856302,14337.323265888948,14286.815248046925,12671.284009584193,8431.523004456301,11829.086001062162,13315.019198842354,14722.814433623247
2025-12-12 18:18:11.169170,Right,26980.628043708162,32811.16063481438,32698.606064593216,29000.751104349813,19463.806430257042,27067.684313751437,30468.53366260077,33697.04192783694
2025-12-12 18:18:11.173196,Right,33666.32155312492,40953.263497834116,40819.27530987398,36198.28445973941,24668.959246955492,33774.4086024767,38022.53780127002,42065.60931273257
2025-12-12 18:18:11.178208,Right,22732.362760193784,27677.62124054048,27596.359267191758,24458.71382937045,17145.241184845727,22807.63116739007,25688.07899533165,28434.453186972736
2025-12-12 18:18:11.181184,Right,2599.2039211040246,3200.443182560499,3203.72968132401,2815.549900514976,2369.489016177162,2612.455713916803,2961.7409109683067,3286.0418000115897
2025-12-12 18:18:11.185161,Right,-12452.278325679537,-15127.150621219596,-15064.835097905772,-13380.202478388412,-9178.70298610261,-12490.788494326756,-14047.21430241267,-15549.877638181788
2025-12-12 18:18:11.189225,Right,-16241.126552360249,-19762.129155421106,-19684.351091508288,-17462.056912475615,-12158.341229867714,-16298.661211802333,-18347.969845411833,-20308.382634551264
2025-12-12 18:18:11.193230,Right,-11676.853850830928,-14209.12506098632,-14147.839482063777,-12547.756964689179,-8467.498803321912,-11719.828057966311,-13196.959295078297,-14592.426004976383
2025-12-12 18:18:11.197249,Right,-5073.523525581288,-6159.326820720802,-6126.844778107479,-5441.7176604890265,-3442.1395016036695,-5088.240531365853,-5723.600618089084,-6320.380176785635
2025-12-12 18:18:11.201248,Right,-1391.5797819016734,-1680.2709043889772,-1667.6718551575905,-1488.4928876714548,-1043.8274445307907,-1391.2716157896211,-1557.717275560135,-1725.8679951786762
2025-12-12 18:18:11.205285,Right,-2119.587619715836,-2579.644107053173,-2564.899057285511,-2275.8694090147037,-1744.1135996818775,-2126.088896991103,-2388.8327312767506,-2649.446056668763
2025-12-12 18:18:11.209281,Right,-5212.5202651250875,-6341.093536713859,-6310.711666379357,-5595.185669388389,-3697.645354005159,-5232.027705337852,-5885.605672163074,-6504.046725675464
2025-12-12 18:18:11.212301,Right,-7181.379465288483,-8723.304656426655,-8685.379738221178,-7708.393293350935,-4952.190193848684,-7204.044512664201,-8099.801853272249,-8949.090958336601
2025-12-12 18:18:11.217296,Right,-6322.278003159561,-7682.20109717641,-7652.372915347805,-6794.282687704661,-4661.564482661546,-6340.231100681471,-7127.72779625596,-7888.535234491108
2025-12-12 18:18:11.222313,Right,-4087.4240767962765,-4981.421963076456,-4961.68098438601,-4399.694540264551,-3288.4346340815537,-4101.751019510673,-4616.922280654428,-5117.502127873362
2025-12-12 18:18:11.225341,Right,-3025.8404858768918,-3689.315525858314,-3669.5037552390713,-3250.6506556484383,-2197.965949792415,-3038.2083206257084,-3423.4477078402415,-3782.0495087795425
2025-12-12 18:18:11.229330,Right,-3779.2538440136705,-4585.359873624868,-4560.575118728215,-4050.2620846315986,-2421.2372643189738,-3788.9837404754944,-4261.332924446091,-4699.345570651349
2025-12-12 18:18:11.233332,Right,-4743.633523078985,-5753.867113485001,-5729.05708173546,-5092.326357353129,-3394.5999045884237,-4753.534602874541,-5342.730835965951,-5909.839428199921
2025-12-12 18:18:11.237355,Right,-4438.940176657052,-5403.134555887897,-5382.038303288398,-4776.183865232975,-3556.1305393048096,-4453.598437239882,-5012.272058155737,-5557.047837981256
2025-12-12 18:18:11.241369,Right,-3286.5276552520227,-4011.3235848410986,-3991.5237538579386,-3534.919987278059,-2514.5493734258926,-3303.716041061911,-3724.147459391621,-4120.765720098745
2025-12-12 18:18:11.245377,Right,-2723.084860953735,-3310.8469388564117,-3290.5183046676684,-2918.891847846331,-1692.567657762207,-2736.0463854431873,-3079.9353433658835,-3394.7154848463833
2025-12-12 18:18:11.248383,Right,-3209.349982601241,-3893.0003708740696,-3873.7117486696225,-3443.613988365163,-2190.7639341938775,-3218.311858790461,-3617.3552121862303,-3999.9969982311595
2025-12-12 18:18:11.252396,Right,-3778.2604703627294,-4600.67370333802,-4582.232713510748,-4066.4532971649896,-3051.738922285149,-3790.041912842891,-4267.426225024741,-4735.9538041302
2025-12-12 18:18:11.256419,Right,-3438.114106303896,-4199.831894071074,-4179.990827807458,-3700.8482113403734,-2750.544418119476,-3453.098386559752,-3896.3414055069443,-4319.049917831086
2025-12-12 18:18:11.261422,Right,-2452.92873147747,-2989.0501357545145,-2969.2336332369596,-2630.90965028957,-1602.534371704096,-2463.0649580043973,-2777.44548219,-3065.034141407581
2025-12-12 18:18:11.265452,Right,-1935.2285874342779,-2346.394967457978,-2330.3050833861344,-2073.31190851063,-1226.227860333398,-1938.1812163793948,-2177.7270351119805,-2406.6611828173045
2025-12-12 18:18:11.269443,Right,-2374.134783349349,-2892.8904317233246,-2878.871858166065,-2556.8993607501034,-1978.6831314186566,-2378.638058488141,-2676.464071590919,-2976.544601570349
2025-12-12 18:18:11.273477,Right,-2991.6040122206323,-3660.867190908408,-3643.679995975923,-3225.297589858994,-2504.548306854558,-3002.9946354085114,-3389.230079179746,-3764.5223123580217
2025-12-12 18:18:11.277524,Right,-2765.132767512114,-3376.727163132513,-3357.848754362203,-2972.8352815693943,-1944.0088019000832,-2775.6759397427086,-3133.8531825846294,-3465.8966856154148
2025-12-12 18:18:11.280491,Right,-1811.2395725355018,-2197.8538570578676,-2185.007283084793,-1942.4271443951875,-1124.8746572958771,-1812.9111444641603,-2042.4025097979465,-2257.5779150223825
2025-12-12 18:18:11.284511,Right,-1258.1646121562226,-1528.0569619641174,-1522.174248197116,-1355.1085516111925,-1071.3338662711903,-1255.9623938273871,-1414.4607046780875,-1577.9507303123828
2025-12-12 18:18:11.289510,Right,-1698.2802396279294,-2078.21450575185,-2070.5327966422774,-1832.0183484090958,-1524.3893867239822,-1700.7982067333069,-1921.5285279796226,-2140.2824358318467
2025-12-12 18:18:11.294511,Right,-2340.7029899357585,-2856.390680528013,-2842.653949893778,-2514.425785899395,-1646.4620169315021,-2345.1868059925037,-2647.2768680911977,-2927.41908368445
2025-12-12 18:18:11.297527,Right,-2116.8941337767756,-2569.748273404897,-2557.54953806696,-2269.250221287133,-1315.6898658362916,-2115.3301677863346,-2382.036994936643,-2630.1113697538385
2025-12-12 18:18:11.301542,Right,-1200.6344066925813,-1459.109797359095,-1454.9705001943512,-1293.699528361787,-980.8222124137683,-1195.1141660253052,-1345.9901934545487,-1498.1956666115439
2025-12-12 18:18:11.304558,Right,-737.0080560778733,-912.0670640341705,-910.254024853697,-803.7800405991729,-847.9079693126259,-736.716907023103,-837.6281150663272,-939.6072711074958
2025-12-12 18:18:11.308576,Right,-1181.376009270898,-1451.6821224121377,-1443.989328017924,-1276.1484629745828,-859.0053688801127,-1187.3988721136702,-1346.5208719116636,-1486.6409798851237
2025-12-12 18:18:11.312516,Right,-1694.8308402132243,-2059.755547904293,-2048.9937116332585,-1821.8836260380922,-999.829962224816,-1699.7220147093758,-1915.5996252306504,-2108.733037725673
2025-12-12 18:18:11.316596,Right,-1422.549552056007,-1728.317609394202,-1722.5469537262106,-1535.9406540530035,-1110.186898182379,-1423.5134822729742,-1602.0314630761277,-1775.8612737099174
2025-12-12 18:18:11.321601,Right,-688.0846966429381,-852.0361618064344,-850.7424376895651,-754.2472351705655,-864.5602064399282,-689.2822061342886,-782.9553534458391,-878.2332248996245
2025-12-12 18:18:11.325629,Right,-407.6697865020251,-512.5643478042912,-508.88078696397133,-446.0620604143478,-381.77618748584064,-409.9888573428616,-471.8674140931107,-520.5593863037648
2025-12-12 18:18:11.329624,Right,-758.2785238868091,-919.8960463774856,-913.4263321408071,-812.110305392067,-292.85679222643375,-758.0890630619833,-855.0401582018239,-934.4847465105122
2025-12-12 18:18:11.332649,Right,-1059.7534941497725,-1280.2624796269229,-1277.3443269649288,-1139.3104458135786,-735.8765250906581,-1058.3956479418557,-1185.4133815405658,-1313.9898271446582
2025-12-12 18:18:11.336648,Right,-826.4156048230361,-1013.8947462269571,-1016.383954078774,-898.19642007933,-942.2659339025267,-830.0143771795556,-932.2493816592032,-1048.6571166345384
2025-12-12 18:18:11.340676,Right,-346.7643839698285,-439.49391193222255,-443.06210139847826,-379.99955701688305,-423.32368704868713,-354.9257896079798,-402.8858731773216,-453.62671544065233
2025-12-12 18:18:11.344621,Right,-144.43733030813746,-177.4016713957535,-180.75292368943337,-152.22367877844954,127.4674616920529,-149.49180662835715,-167.53291657671798,-178.30764730926603
2025-12-12 18:18:11.349680,Right,-297.74942173151067,-351.94487239205046,-358.3508029469522,-318.3700423327391,-87.02335232152836,-297.68056682136375,-329.2516933006118,-363.65293778909836
2025-12-12 18:18:11.353691,Right,-478.42164979939116,-584.6360465204925,-593.7025732306065,-523.4733422131394,-620.3358488999656,-480.20205602404894,-539.906832333887,-610.2663443420897
2025-12-12 18:18:11.357725,Right,-413.04646800243063,-517.7021239267197,-524.7432203884819,-453.91073826677166,-510.14586185954977,-419.646422887221,-479.06220455339644,-536.091182113043
2025-12-12 18:18:11.360713,Right,-133.0499732742319,-166.00378423853545,-171.12082228797954,-142.75929868675303,114.84290892494028,-137.7028476774576,-158.46088672813494,-165.68422448914498
2025-12-12 18:18:11.364730,Right,114.43947206676239,147.91311061335728,138.97622214385774,124.74692047276767,298.46730886545265,115.8540692201932,133.65911092417082,152.9525627818075
2025-12-12 18:18:11.368745,Right,120.04949410038535,144.0452350548003,130.30052849068306,120.1516746225534,-111.03901385486824,121.16719134550658,135.60453802067786,138.71797469770536
2025-12-12 18:18:11.372693,Right,-51.916668008459965,-80.11599947424838,-92.46529444656335,-68.63721427388373,-294.6798568012309,-56.55390944442479,-74.14209233253496,-90.69132874559727
2025-12-12 18:18:11.377765,Right,-101.46970751372282,-131.90693139788345,-140.33889162988635,-113.67166139333858,68.38149864740262,-106.67973151130718,-130.53145534961368,-135.47892995388247
2025-12-12 18:18:11.381772,Right,128.37116036366206,163.64172053762013,153.6560433372797,135.8932067785936,342.28584072321246,128.59628415392945,142.05988249825896,167.23761094361544
2025-12-12 18:18:11.385793,Right,400.8664502168249,488.5744413076318,474.1439679817413,418.5310131668375,160.3460988906154,402.31002254219493,450.83736739437154,493.09371499526605
2025-12-12 18:18:11.388850,Right,401.7091786702658,472.5646629386101,459.3296286318364,414.1421205022052,15.171899310895242,398.01169588939956,439.5897844566207,478.810645234611
2025-12-12 18:18:11.392837,Right,210.60012450959584,244.0851738194051,236.17578016709376,218.20935897528398,246.15160140945773,205.31874160134885,223.0493133422733,255.62538349246825
2025-12-12 18:18:11.396788,Right,182.83284849117626,227.73137633108854,219.95643611317428,196.31363388284444,425.39174512896716,183.2209206105981,206.0452346278762,241.42422876760975
2025-12-12 18:18:11.403842,Right,402.7480156654201,493.9335787280579,480.5769832366641,426.8404833079112,245.3619310807917,406.8423204148421,458.8818058743054,505.8679263515951
2025-12-12 18:18:11.406889,Right,581.717469120078,694.9001220258215,679.2712548320414,613.46397813964,133.38924684935773,582.2934597074782,648.398038559666,709.1423461871454
2025-12-12 18:18:11.409838,Right,540.1229998985946,644.4435206624912,632.295991703606,576.4617015805561,407.30734038655646,537.7199047859467,595.8365796574508,665.4118405740301
2025-12-12 18:18:11.413854,Right,456.06763194000814,560.1461899660353,549.603840730153,494.84807169652777,617.9999159571016,457.0716209944512,513.390310718707,582.6066235454055
2025-12-12 18:18:11.416874,Right,513.7042982910643,634.2602110385196,620.5096091100422,551.8874363367504,381.4250004586647,517.7719730274985,587.36458447724,651.8800340137386
2025-12-12 18:18:11.420880,Right,615.0875357092882,742.8796227619168,727.9906021533534,653.2826081998646,143.69746629032306,615.7050342678267,693.6122632875922,760.8320786159602
2025-12-12 18:18:11.424880,Right,625.1013820504304,752.1468089564005,741.1970540586044,669.9222322206479,391.64222950625117,621.8963028563303,698.5637125957874,779.1664561598445
2025-12-12 18:18:11.428896,Right,628.8508378133993,772.9097283078008,763.8848494450795,683.8382684762473,740.6921179305937,628.1693037048681,712.658002838667,805.4828132570838
2025-12-12 18:18:11.432920,Right,721.0605311437394,889.9761632161099,876.9240265102708,778.9204157076892,612.6499384648923,723.7771660376457,824.4776485956972,917.1532969159307
2025-12-12 18:18:11.436933,Right,778.1406756104552,942.2194452434196,926.1130115237902,829.3566578876344,279.27579990786035,778.0352173674619,878.0271958044614,963.1405541620334
2025-12-12 18:18:11.441932,Right,693.7324660915183,830.7558584794169,817.623815783998,740.2414357169182,359.1225040385034,689.8219189852825,771.1669381645042,854.6676262144465
2025-12-12 18:18:11.445905,Right,634.0165271576261,773.8149095500121,763.3157734827837,686.5783176687546,705.7863799048355,633.4158124740352,712.0771326073445,804.1567876198096
2025-12-12 18:18:11.448976,Right,772.982490671624,954.7361916212831,940.5726645773975,835.9244916656171,718.4072361049475,778.0515720801777,882.264075239189,985.7119347163243
2025-12-12 18:18:11.452953,Right,944.9434213847271,1151.1902110552182,1133.052202516934,1010.9262752663344,448.3592913176399,948.3262209058739,1071.0567335491069,1179.9927613179898
2025-12-12 18:18:11.456913,Right,885.233374892443,1065.7894534007646,1050.7487513980595,945.9109507778194,447.93892848229734,882.5176415771712,990.0600910516223,1095.7370954237413
2025-12-12 18:18:11.462991,Right,695.9943834149744,846.4282990958309,836.7815697797341,751.7962059531128,711.3350404377561,693.0871423508506,778.7314010120463,876.824160927441
2025-12-12 18:18:11.466055,Right,710.3168559309561,877.290720045683,866.8560716160573,768.079083257122,726.4595268261619,712.46696603694,806.3052695879014,902.810195936705
2025-12-12 18:18:11.469953,Right,942.6149487418588,1150.5544425522676,1135.9515786526026,1007.5676050231559,493.37397526332643,945.6262542043114,1065.5966270676581,1172.9925524959108
2025-12-12 18:18:11.473017,Right,1053.8600410849322,1272.22421972116,1258.382042473415,1124.7448112159036,524.660078894347,1052.8502441365272,1178.9373702704906,1299.9830247013597
2025-12-12 18:18:11.476071,Right,898.1063275965862,1092.127403147635,1082.4923683453817,967.7169269078877,820.4063956748578,896.5094636399299,1005.554852859932,1124.794217063114
2025-12-12 18:18:11.481039,Right,740.4609399238834,916.6938959509134,906.8462101700716,802.3842876370763,818.7835469967104,742.6183274844661,841.4733168310486,943.7094482479151
2025-12-12 18:18:11.485068,Right,818.2086144950008,1004.1956492397003,990.4948535724543,875.7189125306904,481.9771476062597,820.2861224536318,929.1248868558323,1023.7544970235322
2025-12-12 18:18:11.489068,Right,997.7950927230995,1204.5627959314734,1191.221265483764,1062.5094968787162,443.28504922648426,994.951224351651,1118.1230174767552,1229.5105963156093
2025-12-12 18:18:11.493109,Right,1034.5038993116468,1253.525926464703,1244.9080560150323,1111.3604937449563,838.6078485333128,1031.153698914568,1159.2824188690865,1290.7398326593684
2025-12-12 18:18:11.497074,Right,929.536148821353,1145.8770461648237,1138.6858639281709,1007.6494815460173,984.2017328103539,932.752759772935,1058.4141566754552,1183.838360402733
2025-12-12 18:18:11.500102,Right,846.7499270832632,1046.847755951807,1036.742302837316,913.6019739247859,594.0149302036734,854.1420607292093,973.6977978093782,1074.475285787019
2025-12-12 18:18:11.504116,Right,854.6124309238512,1040.979335314245,1030.810733487946,915.8104221618269,344.3323235597927,859.0536242900416,972.581490782206,1066.0883048543474
2025-12-12 18:18:11.509050,Right,915.3367142216302,1115.2181879772106,1109.30688055465,988.0313526109094,691.1868585238699,918.0330435814103,1035.9309567023301,1150.554287357838
2025-12-12 18:18:11.513115,Right,986.6480575866299,1220.2499041941483,1215.8296917109983,1073.0627740651835,1040.3020461237757,994.1725601298967,1128.037998010288,1261.2804386708885
2025-12-12 18:18:11.517140,Right,1004.897184383939,1245.6297468153061,1237.9210620889207,1086.561660064268,788.8846657638205,1015.5295065772953,1155.2097107633017,1278.180449635489
2025-12-12 18:18:11.521155,Right,911.2803143215133,1113.298172317096,1104.6170794237405,975.2918151437771,383.8752445005812,916.5830689952709,1036.8264970910968,1136.8815874862485
2025-12-12 18:18:11.525158,Right,796.7022658786736,966.3521473491564,961.701316913357,854.7376166144386,512.0453408308094,796.1899617041927,896.3587900400162,993.2580940593034
2025-12-12 18:18:11.528179,Right,845.3827598508215,1040.7023221098352,1037.816057817312,916.0716412026668,903.4900098165963,847.3600434125401,959.6552359517664,1074.576193453744
2025-12-12 18:18:11.532159,Right,1027.8026524519082,1270.8058165032417,1263.6842003611382,1109.7457290082239,868.6980350434314,1034.6856588616502,1175.6910684151808,1302.095399107784
2025-12-12 18:18:11.538193,Right,1065.993631916237,1303.6806140781846,1293.7509141915943,1141.930053119664,522.3787938760361,1070.6813196877483,1210.943445741781,1326.8079508021474
2025-12-12 18:18:11.541210,Right,857.8269526582444,1042.5368062448688,1036.706732565537,920.944294754765,495.34377211204264,857.033625220065,965.008608854725,1063.2250865115784
2025-12-12 18:18:11.545212,Right,695.286359854741,859.8691691202112,858.3642837253865,757.0500175070483,772.7040491931839,694.9900832772255,788.3260789182968,883.0980403742287
2025-12-12 18:18:11.549235,Right,830.0205486698542,1035.4927194349002,1031.499948256882,901.3159760480048,805.4078126035165,833.6513061556034,952.2144315862097,1058.9797190737445
2025-12-12 18:18:11.553238,Right,1049.1418246561661,1289.1242398438044,1280.9710286327172,1125.7176867264789,572.1984086721204,1051.4365176188294,1193.9255173639394,1311.712894629687
2025-12-12 18:18:11.556250,Right,997.4937694069231,1212.0230570146814,1205.6510420730338,1068.230010959087,558.7249531033449,995.7652459646342,1122.6928566300776,1236.7714470324572
2025-12-12 18:18:11.560251,Right,751.146954568685,920.9120072689839,918.4120471880306,812.7487476418028,774.8616189168533,752.1819093322847,848.3593607146759,946.845624102978
2025-12-12 18:18:11.564280,Right,690.2152123776032,858.2969869705848,853.9738091074396,748.7799767315155,746.3285112095764,698.774611048284,792.8572161765769,880.2186478711665
2025-12-12 18:18:11.569272,Right,881.2371081042802,1079.4427451158408,1070.6028773954604,943.6139450049959,479.4339531058213,890.9431029632688,1006.1830952481832,1098.8915035377722
2025-12-12 18:18:11.573298,Right,993.4671873706393,1200.0826451031025,1192.3135414258577,1060.7039872736204,489.9528958060546,997.131738766213,1119.1096927276812,1225.1761357120704
2025-12-12 18:18:11.577297,Right,852.0438038809225,1036.4675845364109,1033.606725849444,919.1186121173669,792.9986871369183,853.0614649682539,960.3542703781277,1067.2393942207564
2025-12-12 18:18:11.580323,Right,685.8893050312763,852.3803783257026,849.8575314164627,746.6325838756748,810.3382466458715,690.7586767125176,787.6024786396883,878.3248229487799
2025-12-12 18:18:11.584337,Right,714.3722455587704,882.4613373950124,876.1999615889508,768.7146532266634,454.73024627845734,720.9702072941,821.6958795185201,899.9582849927247
2025-12-12 18:18:11.588338,Right,823.6876858785981,997.6589133313391,991.7338939451147,878.8821016072761,353.4797245276859,826.6088131201686,930.6759014974814,1017.2149748236407
2025-12-12 18:18:11.592306,Right,822.6429676600965,998.4096004930325,997.2315065700095,883.3140884633176,707.0753950441722,824.2700501407962,924.5415391398128,1026.801326096058
2025-12-12 18:18:11.597359,Right,745.9178029142786,922.0196139314212,921.8616630453616,805.2536813402548,875.3959909537807,751.6884568086825,849.3748850605916,949.8967441406567
2025-12-12 18:18:11.601361,Right,711.6793102633674,879.5892941392958,875.4138198874425,759.9923532870598,520.8670491131488,719.2148316000821,814.8962062008213,897.6189629745204
2025-12-12 18:18:11.605390,Right,699.3534408842679,847.8909711742308,842.6699501988478,740.3824289930053,243.02409278880805,703.4265335632954,789.7025459583383,863.7328062513843
2025-12-12 18:18:11.609395,Right,658.2105793360388,798.2124377738219,797.2838945228141,706.6902074754471,510.676648971159,662.4096044587204,739.6913948187139,823.8874903130345
2025-12-12 18:18:11.613365,Right,649.6174114125315,806.553998679854,807.6471641608514,710.6308250569273,817.7772815809585,661.1400015600957,743.9155907670502,837.8785189923365
2025-12-12 18:18:11.617432,Right,703.2251973731909,874.4861233532429,872.0869503202848,764.5892336860998,602.5519258953864,718.6958653806942,811.610548078781,898.1364429355599
2025-12-12 18:18:11.620439,Right,704.4428756519919,855.6457520860713,851.3735973027069,754.2279362755362,250.33328624570277,712.9686441188678,798.5958867446752,870.5208015304524
2025-12-12 18:18:11.625438,Right,598.7797340239631,717.752431238303,717.1902080771979,640.5530447296333,365.36307237960864,598.4369718766538,665.7705877852859,733.8481765401084
2025-12-12 18:18:11.630463,Right,534.4657004963374,654.3078235699795,656.3574566866737,578.0877926482353,677.0556905817939,534.3026088965125,600.7303732855944,674.3515805108473
2025-12-12 18:18:11.634474,Right,614.0749525289284,759.6754275539424,758.6423391420394,659.615925660939,575.5868895566091,619.1840247371001,702.5014702182962,777.5626068958081
2025-12-12 18:18:11.638503,Right,681.6173013945809,827.6677098465152,824.2054775210563,721.9969319715165,240.533298669965,687.7745385369053,773.8641541771358,843.4676327446941
2025-12-12 18:18:11.641520,Right,575.9602741453564,689.8436698887963,690.0317254073452,610.4424984742654,273.78600788861513,581.0788053409196,646.0963494125754,711.0262657534331
2025-12-12 18:18:11.644491,Right,428.0041776592843,524.214969872497,528.1971619846299,462.69621745008044,566.8328272375511,437.0928728749277,487.65446734882426,551.238992208615
2025-12-12 18:18:11.648520,Right,449.37424800975714,562.2367075515212,563.5359984950628,486.38942226127256,527.9057270509657,463.8334337017732,524.842781787389,586.8987037681509
2025-12-12 18:18:11.653513,Right,565.1551511639263,690.3898622740526,687.4344190155389,600.7506462178426,210.2805888976436,577.6869568548864,649.6511065465165,710.4182584332302
2025-12-12 18:18:11.657525,Right,545.5793196083978,652.4309228496859,651.1857412670506,578.5943649308756,205.23285770323128,551.5024603239726,612.2754538306035,674.5270766867325
2025-12-12 18:18:11.661554,Right,406.6324428769294,493.48352517804597,496.406844733865,440.216057923506,512.0133687260095,411.33484243392013,456.3117826728849,519.0154006103985
2025-12-12 18:18:11.664565,Right,367.754559053923,460.70770099258516,462.53450940630864,402.20593369368,527.4585583640728,376.5056577809155,424.3722590964753,481.612867892487
2025-12-12 18:18:11.668551,Right,456.24899650143925,559.1109632763546,557.2228649596218,488.0002319357591,184.32718465547077,464.97766195086297,521.9887089680415,572.6893286355771
2025-12-12 18:18:11.672596,Right,475.23809584020637,565.4522341041593,565.3286110757617,504.1324733106885,93.18448206631001,479.1091826905031,529.4002630979521,580.490823291475
2025-12-12 18:18:11.676610,Right,371.60078218381386,445.76455696008634,451.10150568163954,401.79023563174997,404.2866700893501,374.9748906507157,412.78949902858585,467.52434485114645
2025-12-12 18:18:11.680618,Right,318.58416436985135,398.5936226749327,404.29592402407434,350.3941897174809,517.4106912821298,327.1425473537529,368.41513577790465,419.4786152028246
2025-12-12 18:18:11.685618,Right,379.23919136461336,467.855861466378,468.8449606382055,407.32729824155103,194.93628773803357,388.51448891998734,439.87751556618605,480.7158452885924
2025-12-12 18:18:11.689582,Right,393.4369678286603,465.9445388430031,465.4758358610561,415.7141301117372,6.660084139672108,395.4516597155016,440.25118421344087,475.8217376922257
2025-12-12 18:18:11.693637,Right,293.78118415537756,344.2020398514578,346.69844192638993,315.2205509690102,273.4952745679766,290.4677264873171,319.2128437379142,357.77188079827465
2025-12-12 18:18:11.696653,Right,241.62736319901887,296.47181264474057,298.884853538475,265.5931720212102,476.02500030980445,240.92128798237536,268.93115576868877,309.5660278624855
2025-12-12 18:18:11.700645,Right,317.6526403797325,388.26254897238687,386.25768167257775,339.98076404072344,224.2195258840802,319.6726160378894,357.95557070185896,394.47956686862744
2025-12-12 18:18:11.704667,Right,353.5390524837421,413.65768070262857,410.60056795645505,369.69104966835584,-25.92378319730051,352.08562201005407,385.3302391548641,417.1195066983346
2025-12-12 18:18:11.708677,Right,238.90017128002364,270.58052614389453,271.83910459594335,251.16985033312812,163.20078746945364,234.43187574646436,248.10552148974966,278.4470064868219
2025-12-12 18:18:11.712696,Right,140.2697834833525,166.21721293323208,169.05150578427128,152.85378857026808,396.02479552838486,139.30653566028923,147.08562298526522,175.14510337938555
2025-12-12 18:18:11.717708,Right,210.45407573599368,254.4027862418443,252.5023597534746,222.37752688163891,200.29157238133484,212.77058679785114,233.48834158130921,256.8057729124557
2025-12-12 18:18:11.720657,Right,306.7104579723673,353.0474475098308,347.67173232731875,314.9427760983817,-78.81349634862272,305.0196677923668,330.09022634779103,351.5139984638663
2025-12-12 18:18:11.724732,Right,237.1700960760936,260.40403211070225,257.56133276759647,242.35355647606775,67.82298171240836,230.12070332991425,239.77532317012083,262.79228174255695
2025-12-12 18:18:11.729753,Right,97.50905719737057,105.69902907835785,104.60508563381154,101.20478950382676,345.18655111128464,91.34637326747179,89.49588841106743,109.94903846492525
2025-12-12 18:18:11.732758,Right,95.35086499282625,111.29745060077403,105.6410557780182,95.82487189478707,204.4296608439763,91.00357539835386,96.60445436940063,109.12898146163207
2025-12-12 18:18:11.736755,Right,188.0873087575892,208.44337355229072,198.1908673539292,184.61229896114673,-114.56275661644759,178.6025943759014,191.95203705551103,201.8122992530698
2025-12-12 18:18:11.740845,Right,179.94474393635755,187.1249011270702,178.93879219924565,177.29291140963323,-20.98101590218721,164.15647312131478,169.6486242978135,186.41680482716765
2025-12-12 18:18:11.744776,Right,74.41533893562155,72.52104244055226,68.09233604185283,76.71519307314884,309.8021706943982,61.421791460132226,58.00373541004956,78.7481976149138
2025-12-12 18:18:11.747830,Right,41.187650255160406,45.88937249116134,39.790437223389745,44.92492339969613,242.09046313131694,36.205234193301294,37.351676405465696,49.27885175216943
2025-12-12 18:18:11.751842,Right,96.02063211071072,102.05012755119242,92.53221214923542,96.03402366192313,-135.45334550744155,92.52546370774508,98.81877684406936,99.76790851389524
2025-12-12 18:18:11.756829,Right,96.22750125353923,89.04201863647904,81.05872087774333,95.10702559369383,-155.93892974313349,88.09001366910525,87.06155352579663,89.65889038180467
2025-12-12 18:18:11.760817,Right,25.46279019128997,13.79363382194424,8.63403341639787,28.761424055555835,196.39872293395456,16.75362938339822,9.032820055552293,20.394003616995178
2025-12-12 18:18:11.764852,Right,8.851492089917883,10.087633113900665,1.5790869112242945,13.665648813708685,249.1473821142572,4.444001142052002,2.912171170290094,13.283030254067853
2025-12-12 18:18:11.768853,Right,49.61853742873063,52.268893988628406,37.23545951989945,47.74626909045037,-122.13580349209951,45.40425102511654,47.5770006555249,46.275272973871324
2025-12-12 18:18:11.772868,Right,21.357989765761886,0.56013663939666,-15.782974030065816,13.252040244929958,-265.65544475457864,12.461751240945887,1.579584188060835,-6.890015646757092
2025-12-12 18:18:11.775894,Right,-63.8111382832285,-99.42116762889782,-113.18410383816808,-68.57365628838306,47.28791533029289,-72.94643681281013,-95.99897002079524,-101.08535400417168
2025-12-12 18:18:11.779889,Right,-53.743012419727165,-72.30344200861873,-87.6116641612607,-51.64291563886218,212.75070476951078,-57.20595142955426,-71.65652588650119,-73.47975492605474
2025-12-12 18:18:11.784900,Right,42.01697734044865,39.351272294763476,19.003410145174712,42.65811244392535,-82.63618751757895,40.07349904556759,38.412548004533164,31.949597836472094
2025-12-12 18:18:11.788914,Right,30.8360349276918,8.21758515900001,-12.612423764134292,22.862390160444193,-295.4611135084124,23.07900772796711,11.905838369799312,-0.966246094496455
2025-12-12 18:18:11.792906,Right,-115.13962146933773,-167.17387110646814,-183.97914782440057,-127.79140846279915,-45.96525695518358,-126.04179924516939,-157.51276900846278,-171.67506676289486
2025-12-12 18:18:11.796938,Right,-177.27374420737033,-224.09702200460015,-240.98668810242089,-187.7323152627796,190.99353614763822,-183.62777001180802,-214.92785990293487,-228.12314178951783
2025-12-12 18:18:11.799944,Right,-66.1587838944979,-87.49062624396174,-109.78262638239539,-75.18439788435353,-6.51716627861606,-69.26208721922012,-83.75261846274952,-97.96570483830874
2025-12-12 18:18:11.803942,Right,7.318303858744912,-15.655692635395098,-39.76744567640708,-4.9136075389396865,-222.76974171580514,-0.13032200373709202,-13.705578085879097,-29.09140147990547
2025-12-12 18:18:11.807907,Right,-105.54824688806548,-156.14704497306957,-175.47293506463757,-120.90906534701935,-5.960014596756082,-117.16616602515569,-149.84551720359013,-165.2814253102697
2025-12-12 18:18:11.813969,Right,-230.11690684093628,-290.0044254755776,-306.1266711264907,-245.34023257970694,270.0285403421003,-238.38660435235943,-279.3939358908683,-296.99306367657846
2025-12-12 18:18:11.819979,Right,-176.6634615229268,-218.31904021507944,-237.15738202561624,-191.34310492669465,109.84551769138488,-180.34400846008793,-207.54320905555505,-229.1403706720448
2025-12-12 18:18:11.823001,Right,-68.9514844587975,-102.12410048945458,-122.47189264718327,-84.28172599404934,-168.11419132884475,-74.54746135529422,-91.69632246757101,-113.35560794910998
2025-12-12 18:18:11.825958,Right,-115.20294316770742,-164.4462635138916,-180.09497639891924,-129.92821277459734,-36.0360591996141,-124.01497845046106,-150.55318645804073,-168.41601333046856
2025-12-12 18:18:11.828963,Right,-244.44628422051028,-304.9794049051561,-316.0930668843648,-257.32838967168937,239.1728723604174,-249.6221792412398,-285.6007178640284,-304.23577704289346
2025-12-12 18:18:11.833028,Right,-251.14048451898998,-302.67513350295485,-315.00359831613605,-264.43687099480303,96.7022158365944,-250.00379481125856,-280.1577776456761,-306.01038990856614
2025-12-12 18:18:11.836006,Right,-161.87362570613914,-207.95049097880838,-221.515312931253,-177.23915799019596,-244.4796718663638,-160.3599385773341,-185.06322775601438,-214.19320884839544
2025-12-12 18:18:11.840048,Right,-162.33008562862597,-220.22236438110122,-228.8934955690056,-176.55432945120992,-173.5044891571888,-163.58382758335574,-196.93666972133724,-220.07286639435188
2025-12-12 18:18:11.845046,Right,-251.10694503011655,-316.47900094475244,-319.34371403443765,-261.67336219192475,164.49893526201595,-249.9578577695529,-291.4305753176559,-310.2305369813198
2025-12-12 18:18:11.849080,Right,-264.8005148190932,-321.50297625856183,-324.7274146051659,-276.2601071036406,116.20267837636082,-258.4758703692605,-294.2193303261847,-320.18670086903876
2025-12-12 18:18:11.853072,Right,-196.50657779788526,-250.48679432101198,-256.06668462168454,-214.46266554155227,-270.5322805903961,-191.09910242235856,-221.65631899656,-257.2925291986612
2025-12-12 18:18:11.857142,Right,-196.65895485600777,-264.84817144401313,-267.0867569024849,-218.29481044059503,-324.1068094443217,-196.6204330296241,-236.26895750669792,-270.0756079021885
2025-12-12 18:18:11.860042,Right,-274.74300893871987,-348.9396437466057,-345.04384320905956,-293.1426049188085,14.613710891448136,-274.8875325873887,-323.2055095567339,-347.7258340344124
2025-12-12 18:18:11.864099,Right,-285.48545256242505,-344.0115871010057,-338.907389888278,-301.43413371515635,85.53075099490525,-281.04142742507975,-322.0686938019353,-344.8407612286537
2025-12-12 18:18:11.868083,Right,-220.36077052541077,-269.8717526436085,-266.3696400042245,-241.11100250587333,-269.5847707997018,-216.8663819424255,-248.88185098847316,-278.8861262991268
2025-12-12 18:18:11.873138,Right,-230.40381938940845,-297.4114275268221,-290.4735009857977,-257.14218753483146,-422.04728640191024,-234.62268254991795,-273.7347402195737,-307.6581491231336
2025-12-12 18:18:11.878096,Right,-326.4380389703874,-409.08635962576955,-395.26327620988013,-352.19827011495363,-126.93479716226284,-334.3978813051799,-383.5018134951533,-414.062742008653
2025-12-12 18:18:11.882190,Right,-339.1431998327316,-407.95241079761763,-392.3963242544851,-360.4802584639983,30.941583489329787,-343.0954310235684,-384.6434337614628,-413.7871671207831
2025-12-12 18:18:11.886164,Right,-237.82271585409762,-287.69926625170046,-275.4055926743895,-259.5270229706948,-267.55453659192426,-239.12413900555111,-267.75893917737994,-301.63773734518327
2025-12-12 18:18:11.889177,Right,-208.59986530654714,-268.4674430229352,-255.8476617410779,-233.97006013759528,-489.2238528012822,-213.10805936943507,-248.34156168432673,-285.69203307360294
2025-12-12 18:18:11.893221,Right,-320.70282996908645,-401.7580852753599,-384.1672855534125,-345.6334822746285,-252.01510576094734,-326.3570556594059,-379.2184364515415,-414.8473090758198
2025-12-12 18:18:11.897199,Right,-388.3066380045202,-463.9587515524763,-445.054273479589,-409.32272737895255,-32.54540039654239,-388.6489197895571,-441.32530425456935,-476.47267612142605
2025-12-12 18:18:11.900228,Right,-298.9055440252123,-352.76108135457616,-337.9760291936109,-319.55359452567063,-264.98138333961833,-295.4712634725729,-331.72117377916584,-371.1130966836354
2025-12-12 18:18:11.905211,Right,-218.39252459965064,-273.3040109393769,-259.2845617926796,-242.35424837828032,-531.2398546130862,-217.97710789187113,-250.4463719984342,-292.44417166284984
2025-12-12 18:18:11.909241,Right,-293.6116240429692,-370.19959382299567,-349.8757556058699,-317.85948604586883,-355.4694376643456,-295.2667200466094,-341.4863394355052,-380.8119628583663
2025-12-12 18:18:11.912238,Right,-391.82116450564354,-473.20627254538704,-447.42293097736547,-412.39419881301,-101.22948136518244,-388.28590220113983,-440.1448103150469,-477.74819766019937
2025-12-12 18:18:11.916249,Right,-349.53246645379113,-414.9433952710824,-389.6822784039541,-368.56068266846705,-282.74545081483666,-340.96026395767694,-382.2480001076474,-422.7560008300352
2025-12-12 18:18:11.920202,Right,-267.5692030119826,-330.2086522287573,-305.30923865834484,-288.43867129657883,-585.6780522654881,-261.9065421412233,-299.3187258277321,-340.8345744929975
2025-12-12 18:18:11.924264,Right,-313.9646374724689,-393.8822433415917,-364.39994060533354,-334.35775873158127,-445.8343910559197,-312.59929348132573,-362.6879927745322,-399.3578181026969
2025-12-12 18:18:11.928275,Right,-410.76394097000593,-496.01181836100295,-462.9929971972015,-427.02392514265375,-110.56959763882332,-405.6073016746086,-463.12646019627573,-496.76349836745067
2025-12-12 18:18:11.933297,Right,-385.05072100739926,-454.3758010335732,-424.09715453733224,-399.49029313452775,-188.7229261798202,-372.6117738089524,-419.72110288980184,-458.279435847071
2025-12-12 18:18:11.937310,Right,-293.47131371241994,-356.7424147402053,-329.5004808564554,-310.6040991998743,-518.9544620221131,-280.5846492856508,-319.457941953151,-363.56203776446637
2025-12-12 18:18:11.940288,Right,-312.84896729228785,-392.3525302047492,-362.0235421481775,-331.5491600189707,-470.59615930798464,-304.41048186580883,-352.1696875199559,-393.7792494738824
2025-12-12 18:18:11.945334,Right,-407.4749090449768,-495.35804043972166,-461.05990847112844,-423.9349372146535,-119.22400636243401,-399.2411246856209,-455.3694365400006,-491.4737474937574
2025-12-12 18:18:11.948328,Right,-399.0068618915393,-471.6349401982152,-439.95709208003245,-414.98143664066447,-103.59374945337186,-388.0795639985008,-435.95156527654035,-472.8368388451054
2025-12-12 18:18:11.952330,Right,-304.9090122860507,-367.7056032321998,-341.1783818168333,-325.2532256478444,-434.16010828863364,-297.08747424546164,-336.17086643882794,-377.04753769235685
2025-12-12 18:18:11.956357,Right,-306.7441194066778,-384.8012981362408,-357.7490085660247,-330.0956880149897,-479.68915257026674,-306.07685795158613,-353.2020607102313,-392.1845268557081
2025-12-12 18:18:11.962320,Right,-406.1827909775893,-497.0860984958126,-466.31966838560766,-426.18495328869903,-151.7058674885193,-406.29232836479787,-462.9641799402307,-496.0141826485051
2025-12-12 18:18:11.965343,Right,-415.8880104345735,-492.8372853603796,-463.2843758466188,-431.45818225259427,-68.72156447957968,-410.09464067820227,-457.81321276380913,-490.08158224768704
2025-12-12 18:18:11.969397,Right,-308.29221666418016,-368.64990069757914,-343.7105885656201,-324.67013616114855,-395.3392681981786,-300.59862118581077,-334.37238434614846,-370.8198112366372
2025-12-12 18:18:11.972421,Right,-272.1595053774072,-341.7780239068088,-316.65862084546825,-291.21716963429935,-531.1869816155522,-269.4300751039409,-307.37159598246217,-344.62114991864655
2025-12-12 18:18:11.976448,Right,-366.3944247064064,-451.89011521829525,-422.4050281169475,-383.9992678122944,-232.49270910955966,-366.5752895612386,-416.97287825809326,-451.190458693658
2025-12-12 18:18:11.980444,Right,-412.24947390606394,-489.56288174609654,-459.85314924421255,-426.8756314224447,-66.45000897842692,-410.0544699092861,-456.2358226075303,-491.2139331098879
2025-12-12 18:18:11.984444,Right,-324.2980322605581,-383.85614737682045,-358.56903505465016,-340.45301879709587,-347.42276927881176,-322.8392056420562,-353.43180625489913,-393.03167009854224
2025-12-12 18:18:11.988470,Right,-265.6902632227866,-329.7120721451938,-305.3751887601102,-285.9481388243148,-547.413567487034,-271.52041425794596,-300.30011931638,-339.8084960496053
2025-12-12 18:18:11.993507,Right,-342.87449779867893,-423.37639143608976,-395.1530975361238,-363.4401924239355,-286.18906824750593,-353.1842119381181,-393.0084010067512,-426.7784051843919
2025-12-12 18:18:11.996499,Right,-410.9419975427445,-487.62713708600495,-458.7165017580264,-428.66554589680163,-46.97364024008857,-416.92173217778327,-457.0287156238919,-489.10377990081906
2025-12-12 18:18:12.000489,Right,-347.0947021380998,-405.79626422328874,-381.7652506403392,-364.3889903606032,-274.3337860729662,-347.8908107780153,-375.53798767225817,-413.2037061424926
2025-12-12 18:18:12.004455,Right,-275.62031308485894,-333.9875929837581,-312.5678282829467,-294.0965712145553,-540.6144525271375,-277.57991109619616,-301.83292976388475,-342.9112830184167
2025-12-12 18:18:12.008529,Right,-328.3418570996728,-400.82201249792706,-376.1981379301287,-343.99032045865897,-343.76559546170756,-331.42115690896753,-364.8482617055997,-401.81262375903316
2025-12-12 18:18:12.012515,Right,-398.22921894915635,-467.85361155774444,-441.36113191745244,-408.4741209016065,-47.690771799650975,-395.20913722220575,-429.5769032064127,-463.35596734669525
2025-12-12 18:18:12.016558,Right,-348.224533843284,-399.4353907870827,-376.6615881677717,-358.02080710144946,-205.15790698223282,-338.25794225605205,-361.1486474823905,-399.38952706428245
2025-12-12 18:18:12.020556,Right,-274.461943330185,-324.4951857877895,-304.37849448027555,-288.9440680934349,-525.0076145405765,-265.53290017694235,-286.0294042797759,-328.85279783559963
2025-12-12 18:18:12.023563,Right,-322.80654768279055,-390.3629829637939,-366.939380216063,-338.7173372981488,-412.5819334529806,-318.4000596855767,-351.1898735220311,-390.4450976065127
2025-12-12 18:18:12.027581,Right,-406.2694996789796,-475.08789588708896,-448.6778015092714,-417.70642189186765,-76.05269246944226,-400.84084550634725,-437.16872804122977,-470.45476037368644
2025-12-12 18:18:12.032576,Right,-363.5651913721813,-410.8951329785632,-387.61027130822185,-372.1491168845678,-136.5536058571306,-354.5028291141498,-375.97950935724657,-410.15529569308273
2025-12-12 18:18:12.036591,Right,-266.2766424328438,-305.44823760702275,-285.66700416302774,-277.8268162846798,-473.3377423477359,-259.22584247612394,-271.2452823612839,-309.9310962931486
2025-12-12 18:18:12.040626,Right,-291.56980764021864,-349.0250235089334,-326.2931554861134,-305.6754799936898,-456.66177144349786,-289.1929643082549,-312.1359422504902,-350.290928895236
2025-12-12 18:18:12.044639,Right,-388.70615316339536,-456.00371781142894,-428.7330889934674,-399.9328957925318,-125.10221622983227,-384.86851239734096,-417.7998150960775,-452.1127159848111
2025-12-12 18:18:12.047625,Right,-366.170830342453,-415.07053626852576,-389.62861934362445,-373.9776312451577,-107.0264816977433,-357.2634685456287,-380.0367737953784,-414.9244906655513
2025-12-12 18:18:12.051645,Right,-248.3531839895295,-281.85388149356004,-261.3725548044313,-257.4666476994753,-440.8788624215522,-240.45975531288423,-250.45435653824825,-289.2066075116163
2025-12-12 18:18:12.055653,Right,-237.58916903095087,-283.55942404002417,-263.1088421159657,-248.9995583286509,-504.70402392424876,-235.53093674377305,-251.8963304766221,-290.7659806199372
2025-12-12 18:18:12.060696,Right,-343.1238871435635,-402.87816301186103,-379.603561863536,-352.81654271890875,-182.30342224461492,-341.43981648766203,-369.6166672112886,-405.8965271062916
2025-12-12 18:18:12.064667,Right,-362.80455755995354,-409.324413161492,-388.27937685430516,-370.02712310431525,-78.02883573289728,-355.53540888475254,-377.8096576407552,-415.35726187063847
2025-12-12 18:18:12.068747,Right,-254.98771237535402,-283.0668872250244,-267.91200119408313,-264.1240044251317,-379.95365350862266,-246.60093975649215,-255.52705561148468,-296.471523815766
2025-12-12 18:18:12.072698,Right,-215.1403820432024,-250.8265819188673,-237.10804807487875,-228.01292097219266,-506.1039681547554,-212.82477861118969,-225.03102331317496,-264.14215818885714
2025-12-12 18:18:12.075730,Right,-316.1057788617909,-369.458223908674,-353.1717082703253,-329.5574041119544,-197.9916825980763,-317.6860323973815,-342.9313404891873,-376.91911881708074
2025-12-12 18:18:12.079724,Right,-374.6548433298012,-423.5352317391662,-408.7435339409858,-387.46946082252543,-9.769365596061107,-373.81885224493453,-397.12386843247805,-431.8244874239899
2025-12-12 18:18:12.083730,Right,-285.9594468861469,-318.6068944579456,-309.481337227975,-301.1266904360382,-272.63690340548055,-284.1892753924476,-293.506555072614,-334.11571865563747
2025-12-12 18:18:12.088728,Right,-207.39489058486652,-242.83679547102656,-234.85738936578855,-225.16849816369358,-474.0142778126756,-210.23149589373497,-217.47405138402246,-258.7753232483519
2025-12-12 18:18:12.092813,Right,-261.8452485067537,-311.64761696837377,-298.79058661160525,-277.5674358330434,-218.69189974165056,-267.28918633569265,-284.32406996481586,-319.3751297653653
2025-12-12 18:18:12.096811,Right,-318.82770039793104,-364.5345649130177,-349.6637288519414,-330.95422614435665,25.760111054754816,-320.56244860455627,-336.56639397819526,-368.7748278444633
2025-12-12 18:18:12.100832,Right,-250.96646929963026,-280.03429153037723,-269.46487894805614,-264.51305957348086,-198.73141641315306,-250.61221748660319,-253.52166932018008,-290.23828971059993
2025-12-12 18:18:12.104814,Right,-173.29140916327015,-204.13619872776326,-196.41937223670539,-191.13438484584913,-476.3217554341536,-178.25081150373444,-178.91078246023972,-217.97670702578034
2025-12-12 18:18:12.107827,Right,-219.90226503711892,-267.1754719665041,-256.5842610623222,-237.17523397144396,-282.8190729315975,-230.04115235654172,-242.64802918909118,-276.17186464660335
2025-12-12 18:18:12.111820,Right,-288.5786322760978,-334.0709002095973,-321.7606052648043,-300.84119542571716,39.11333640856901,-296.08019260747824,-311.5754385347245,-340.0745985682588
2025-12-12 18:18:12.115834,Right,-236.9165858234046,-262.39568792132195,-254.2218032440869,-247.73754041065695,-84.57310704246629,-239.7922020413098,-242.47028594044968,-273.79900051793084
2025-12-12 18:18:12.121829,Right,-155.82531528716208,-177.1524747160729,-172.50881612522062,-170.04503104707692,-394.3773107943125,-160.46565308538266,-156.9440228799358,-192.09577377233654
2025-12-12 18:18:12.124840,Right,-198.39242294372525,-236.10300436487887,-229.01644924213178,-213.2230956607964,-286.1669703407679,-206.74360719055403,-213.0958653409034,-244.74369559902698
2025-12-12 18:18:12.129842,Right,-284.04536408983404,-324.4687086365884,-314.994603267638,-294.08105077862274,61.39420138904825,-289.5691053768969,-300.7760271546431,-326.87170094961766
2025-12-12 18:18:12.133877,Right,-241.79043295240263,-262.0853914897889,-256.5975699645933,-248.795857943187,23.303474337153602,-242.02860749681713,-241.62632062874036,-268.95054728735704
2025-12-12 18:18:12.136863,Right,-131.5043332357891,-143.11567877151538,-142.8733768427046,-141.4799056404736,-306.0467294898699,-133.92159500537673,-126.32333902543178,-158.02530254691374
2025-12-12 18:18:12.140918,Right,-138.34633734234376,-167.60459095658734,-166.8534787504468,-151.62047626147978,-294.84759416396264,-148.26995099079795,-152.38284047553316,-182.89915370708331
2025-12-12 18:18:12.143838,Right,-230.42188046581578,-271.04814142524265,-268.0096982854884,-242.6222258078633,44.87719517259393,-242.73006754135713,-257.4044087821385,-283.4685930366395
2025-12-12 18:18:12.149911,Right,-217.64529412047705,-242.63858285581227,-242.6967719165841,-228.75616330851335,86.79149889166001,-226.6258948816103,-232.3045334929484,-258.78040167095605
2025-12-12 18:18:12.152876,Right,-105.45565780444304,-116.39476554642897,-121.50250647682697,-119.60000915406272,-233.36771400854923,-113.97000344813569,-108.41084427043097,-138.3303349816706
2025-12-12 18:18:12.156934,Right,-86.27260154654505,-109.3512521990342,-113.59719598013908,-103.0368825282203,-300.5949771197629,-97.65661486022873,-100.09766191930976,-128.36305636458565
2025-12-12 18:18:12.159934,Right,-183.0990902033518,-220.21687613375252,-220.1568653798313,-197.3453503838973,22.847777288407087,-192.30137579428265,-208.45173191983486,-231.29771145503037
2025-12-12 18:18:12.163939,Right,-206.7974866492441,-232.5707633959828,-233.35396507836413,-217.79205969913164,137.93880937702488,-208.8137401615386,-221.03405945649138,-243.0846433028346
2025-12-12 18:18:12.167958,Right,-106.7740576879587,-116.1475737975561,-122.04868750611786,-119.69640824390808,-167.24374662787886,-107.04459196393145,-107.0915854863124,-132.33475721394643
2025-12-12 18:18:12.171950,Right,-63.31055532430764,-80.67898584116483,-87.47503496077843,-80.02624424704118,-317.47696107567754,-69.67864298011409,-73.00331620685756,-96.76772737136343
2025-12-12 18:18:12.175971,Right,-151.02330793108558,-184.36422065657098,-187.51152438495774,-166.78841565281618,-26.073309528408572,-160.90032417146722,-176.7120472653187,-194.2138481019647
2025-12-12 18:18:12.180990,Right,-201.06416303029982,-227.14181882567937,-230.3693078653887,-212.95055492501706,167.31239958805963,-207.00395672942977,-220.73630343558034,-236.38527823082404
2025-12-12 18:18:12.184986,Right,-116.47447649255628,-124.39014274528017,-132.7277824326302,-127.83187742525479,-93.9779909075587,-119.7902899144101,-120.4221111779334,-140.19051418598974
2025-12-12 18:18:12.188016,Right,-49.84143982134992,-61.033642794413026,-71.43558125128038,-63.00828544347314,-314.993252324115,-57.47415721730795,-57.67687959870091,-78.51411437272327
2025-12-12 18:18:12.192025,Right,-114.1784980337834,-141.81059299310436,-148.9170310194022,-125.97987844544696,-74.52455673436634,-125.33853335137246,-136.73566395696253,-152.83388220041525
2025-12-12 18:18:12.197037,Right,-171.90964979876298,-196.40768193238182,-202.5462113392423,-180.78813133429503,185.59657498652814,-179.54313928936608,-190.39189265284222,-204.72180159401614
2025-12-12 18:18:12.201037,Right,-95.91869947663508,-102.5102185740252,-113.16026994009735,-106.6750307631446,-14.770404146343935,-100.0186957863043,-97.6071629562066,-116.98105079628294
2025-12-12 18:18:12.204056,Right,-10.581281328981277,-17.750804033654276,-31.032687773637008,-26.646618762402795,-296.4782354644267,-18.316552082367707,-13.792546057899017,-36.18610430363333
2025-12-12 18:18:12.208016,Right,-60.2206825647736,-84.97284700506134,-94.91913408780238,-77.20334207749693,-129.35208547627553,-72.62506427714834,-81.05049214715837,-98.59099497046554
2025-12-12 18:18:12.213083,Right,-138.83163269422948,-163.756219176983,-171.2364900803659,-151.61956795904553,177.68908966670278,-148.99784981959965,-161.26609183032997,-173.56535695848288
2025-12-12 18:18:12.216079,Right,-88.29213586583501,-92.947965466592,-103.74595533672255,-99.28127610398224,55.538129911001306,-94.19948206428671,-93.46008985524531,-107.13799729535822
2025-12-12 18:18:12.220093,Right,5.527155864110682,6.728660602180753,-6.959945954324212,-8.331907287996728,-260.9274085877696,-2.0544546426390298,5.299643436621409,-10.772962212911807
2025-12-12 18:18:12.224112,Right,-25.807097678538412,-41.49124777968973,-52.12547975120833,-40.62414549046662,-173.7175780107209,-36.63757316058036,-40.351086980022956,-53.09912079281639
2025-12-12 18:18:12.228122,Right,-115.67950595560251,-137.24084092921112,-144.76770912430948,-126.49725409544772,158.61812848137924,-122.99870003591059,-134.03324708214495,-142.7266779629863
2025-12-12 18:18:12.235147,Right,-84.29939252405893,-87.5159950069501,-98.52186842338415,-92.09775120619452,118.03977190278238,-85.61193213553634,-86.13884217996383,-96.89009598031407
2025-12-12 18:18:12.238156,Right,25.15743708476657,32.763661815726664,16.67915636562975,15.609556588518899,-215.47938245360274,22.287900788884144,30.589099842414726,16.62137079524109
2025-12-12 18:18:12.241174,Right,23.61704662622651,16.786068692745175,1.6917089259950444,12.54587498435285,-212.41347287822282,14.315897697582841,12.9641604628996,2.5565118629601784
2025-12-12 18:18:12.245166,Right,-75.62677300331416,-93.56135004101088,-104.98124627309153,-84.25947309052572,129.48091159254545,-84.87550467753317,-97.48751559818629,-101.7964490649174
2025-12-12 18:18:12.248180,Right,-84.67243711370975,-89.31340056640329,-102.09387027320918,-91.69447056477657,181.90679993591039,-87.26599017030094,-93.87241441535298,-98.73206407518592
2025-12-12 18:18:12.252182,Right,9.64661153650377,17.504727645253297,0.5988962494884618,-0.2932675149641,-137.94782226381358,9.713751086732373,12.74261836806545,3.165774369437713
2025-12-12 18:18:12.256203,Right,27.223126634024084,23.719952222774737,7.425159461214207,15.341180132876616,-213.41754457054776,24.135992450115737,21.05521600379143,11.941586272558197
2025-12-12 18:18:12.260199,Right,-62.58683194790501,-78.31799994548783,-91.06689694325905,-70.25876955664717,114.63739876679028,-65.45534233417129,-78.52200533950236,-83.03667233214946
2025-12-12 18:18:12.264221,Right,-82.3793869568035,-85.48424060927937,-99.52515728736762,-84.76625569089083,245.41209516240633,-79.63844288035762,-85.95274356537266,-90.81630287965527
2025-12-12 18:18:12.268218,Right,18.562312845519045,32.23519860411761,13.311721768928692,15.59618398960447,-61.114739117067074,23.25441019414575,30.022316575457808,20.197226886171848
2025-12-12 18:18:12.271218,Right,65.87129911730881,71.29177576012444,52.39416608464671,59.41632158483844,-234.49481756862951,66.08397300264915,69.05762016755762,59.3239137090859
2025-12-12 18:18:12.275289,Right,-16.04118854907574,-26.990975243563298,-40.80523598077707,-22.097131531627383,43.52358215855202,-17.705343018082203,-28.208019271027297,-31.48031117382925
2025-12-12 18:18:12.280280,Right,-63.67151293347706,-67.35106232919497,-79.70485156273935,-67.24346734306891,248.88098667241866,-60.81111072053318,-69.54701297037536,-69.62985582469264
2025-12-12 18:18:12.284270,Right,18.912471696501598,33.473117999441456,17.17698179424042,13.465354252781253,-1.4916535503580235,23.706637497874908,28.70570173408487,25.209841178555507
2025-12-12 18:18:12.288287,Right,80.41635549833882,90.64117204979993,73.08144467766397,70.30119380608085,-232.6395842578786,79.48481669323519,84.80440986799658,79.72266731504351
2025-12-12 18:18:12.292252,Right,7.930899951432366,-0.2897115894884337,-13.703610117081553,-2.399868740758393,-1.0196863773453515,2.4016320711234584,-5.684779077535495,-6.2917389189242385
2025-12-12 18:18:12.297311,Right,-57.16913650094648,-62.74265250330791,-74.22330215544207,-63.35449004697148,273.7763335373602,-59.10108123481041,-69.1947555123188,-66.69226732256357
2025-12-12 18:18:12.300314,Right,18.82334013975924,33.528708943136735,18.26266055839369,14.202683743904345,90.53587014973164,21.734685569885187,24.42519153180183,24.173645004921127
2025-12-12 18:18:12.304322,Right,109.8426075297175,126.64661996677751,109.12715934077278,103.40436086273985,-200.26472303306218,111.11099322489463,117.00722780145588,115.22790609966614
2025-12-12 18:18:12.308342,Right,61.48184066286194,60.35235492908396,46.37156300703646,56.342612886073766,-54.56292161309102,59.814414741063956,53.702987872384256,56.56175404324313
2025-12-12 18:18:12.312349,Right,-23.55774377853959,-27.654429670015816,-39.201488373451866,-23.264638947381172,250.00289364292985,-22.246396239032038,-31.220690838468727,-24.54769451788161
2025-12-12 18:18:12.316369,Right,21.707735682139173,36.00593413130264,20.738029114174424,24.498835586564383,140.21223678742535,26.710478858294664,32.820937823853455,36.672850756993284
2025-12-12 18:18:12.320324,Right,117.86511008502566,138.08922359003918,119.49306517647346,117.62122446976718,-175.04211393343576,119.27198343680357,134.24854012273136,135.2972269608872
2025-12-12 18:18:12.323343,Right,89.56350661860779,92.5032578742539,77.09498660263489,86.9845565056894,-96.31566676287912,85.15192609577207,88.93363345391117,94.17674906976754
2025-12-12 18:18:12.327398,Right,-6.208110655337805,-11.561731445835903,-23.088038694579154,-6.910999228042783,240.08418942718708,-8.747017088986468,-15.377752655535005,-4.6856674885202665
2025-12-12 18:18:12.331415,Right,13.438994641823228,23.802139320672723,9.473582344129682,13.885873477032874,213.57848328078398,17.305169254279463,17.90692140738247,27.317384987632977
2025-12-12 18:18:12.336428,Right,116.76728006039048,137.21996827909607,117.67968838251545,114.53884176441352,-119.75265568346367,120.86379547641263,129.59742585549247,135.32266197842546
2025-12-12 18:18:12.340446,Right,117.46536100286175,124.08941531839082,104.81793217855738,113.84796829006518,-130.41771171505388,116.41294709940848,117.14989313625847,125.02842893949128
2025-12-12 18:18:12.344448,Right,21.385129354384844,17.450539219746133,1.2904296630003955,21.188124074047664,207.6977857521415,19.8862685172935,11.724627108807908,24.130763621040387
2025-12-12 18:18:12.348453,Right,13.645305589641794,23.617167842923664,6.007344293262577,16.386221700973692,267.8766134697362,17.071577939146664,17.22339688440843,27.822241188405314
2025-12-12 18:18:12.351476,Right,112.4672821337299,135.94218486410682,114.52125556368264,113.22747730850824,-57.30692971561075,117.07300061262504,128.48696199976257,133.66063484441838
2025-12-12 18:18:12.355429,Right,136.83742663254088,149.18712444634002,129.16726685647154,135.74230708158575,-153.7756343724759,137.69522957845766,142.6811875361018,148.5341357900761
2025-12-12 18:18:12.359478,Right,46.260883431939874,44.99741939883097,29.8152912936348,48.82116879486421,166.7729175326822,47.104731952480506,39.74607931212813,51.488557599135675
2025-12-12 18:18:12.363491,Right,15.53421189225628,25.309308121126378,10.136437272914918,22.743119444930926,314.18216932622454,21.439508064140682,18.5227492730628,31.56804319092771
2025-12-12 18:18:12.368499,Right,105.52926946993102,132.0683128198143,112.65828387766669,111.82859101177019,21.575214753051114,112.33531478175428,122.34609439723135,131.23946069873637
2025-12-12 18:18:12.372528,Right,148.63485860876972,167.87398107998888,148.3750624999957,151.44219365033496,-157.0778230288779,149.45257917050913,157.39849815414345,166.02085200540023
2025-12-12 18:18:12.378565,Right,65.18150110324495,68.21333905583015,53.21481325036439,68.41700141783804,116.78757067240076,62.30970954683289,58.445465779150254,72.78591969054833
2025-12-12 18:18:12.381542,Right,16.097287453834724,25.756224385724636,11.228996694393572,21.587398589603254,333.49554700052613,16.3546409492119,14.68522900516109,31.666760971274925
2025-12-12 18:18:12.384564,Right,101.35018478079292,128.9645786507608,109.08819336004672,104.53806460736087,88.77701431969035,103.36789790351759,114.87884298471909,128.00693898943427
2025-12-12 18:18:12.387564,Right,169.25454013483977,192.40174928645865,169.83767166281177,167.38598645714956,-159.68652158615805,166.1493361768371,177.03738509461255,188.1660664393712
2025-12-12 18:18:12.391590,Right,98.61744888206158,102.1607156101818,82.8312662991957,96.1634836411904,52.03202139522182,91.07828489623353,87.60543065114325,102.73049668085878
2025-12-12 18:18:12.396588,Right,27.246996465299162,31.600394682827755,13.778736620493873,28.442093205128913,326.818090224333,22.813531754924043,16.925382053894282,34.219442873720254
2025-12-12 18:18:12.400541,Right,95.91131587974087,119.57145027920342,97.55892170673178,98.10441476182314,149.88675349100095,95.73192448271584,103.43666882043908,116.41909821407899
2025-12-12 18:18:12.404625,Right,184.0301248342912,209.69319604748307,184.97361445437127,183.61951633169156,-148.35473856563056,181.35775495723283,193.6926476314875,203.69967627694496
2025-12-12 18:18:12.407657,Right,132.16476991613672,139.25840454467107,118.14434780809097,131.50652251964857,-10.85822179677325,125.09084727380286,125.19606061205195,139.52479617096833
2025-12-12 18:18:12.411625,Right,37.97970109904236,40.98515396906441,23.30660116758372,40.50102572649848,304.7186200191427,32.828418103837976,26.92623566616021,45.856227286516514
2025-12-12 18:18:12.415596,Right,74.63108071386887,96.105340711385,76.19088426691087,77.83595931576565,210.05902766771578,74.02943873148251,78.92211975692408,95.62348223998015
2025-12-12 18:18:12.419650,Right,170.31562979609998,199.30179826090261,177.20416232676143,170.39383311814163,-112.16436197239818,168.5959392891334,179.88137210213245,193.0419997536419
2025-12-12 18:18:12.423676,Right,145.03106736988093,158.33771383165492,140.02199246318924,144.8175347379805,-51.85098425525939,139.71574621176933,140.5357996853627,156.1175637364404
2025-12-12 18:18:12.428695,Right,47.1299686603852,53.121658831615605,39.19558097638219,52.122293411677674,283.66385013235777,44.56244510261968,38.226653583147254,57.56114421757411
2025-12-12 18:18:12.432711,Right,61.09083302547333,83.8078312566413,68.08962291049193,70.08295957644441,268.33417040925633,65.07266552231158,69.876238538709,86.87503631364962
2025-12-12 18:18:12.436651,Right,161.09202927265505,194.68241179227334,175.6178717109196,168.45913907388967,-70.69707652620127,165.7595583363618,181.08278999860704,193.9505435617939
2025-12-12 18:18:12.440725,Right,158.87806713219834,177.95564513600766,161.76110951886858,164.49768236392993,-101.52500171589054,159.46485964150997,166.41822851631878,181.7144876686798
2025-12-12 18:18:12.444720,Right,55.65107408434051,62.33976238604737,51.94561644724308,64.51995466602966,232.61292060527194,57.061651079158764,53.03243958424355,73.94343318858591
2025-12-12 18:18:12.447803,Right,40.50054741405984,60.250148502622324,50.355611993170896,53.19987954242242,307.78524720534915,47.66090349514707,50.851228741244995,71.18089438480092
2025-12-12 18:18:12.451796,Right,138.40622697380604,172.54896784222365,159.68619808833319,150.20727575800265,-14.656511381697783,146.71508455089497,162.21336576816248,177.49432363812957
2025-12-12 18:18:12.457748,Right,165.0210676599163,188.80301892030548,177.5542094988923,174.77333439825452,-130.55238422017283,168.82275772808498,179.2614867877419,194.71997474736418
2025-12-12 18:18:12.460744,Right,72.00751328365732,81.38214291464828,75.28653596640652,83.60715171855554,175.85553725583304,75.01052302411699,72.94214408425614,93.60893169360497
2025-12-12 18:18:12.464798,Right,36.325286452170985,55.54068744562392,49.89956985288882,50.087418168732256,328.67413102079445,44.46281654221821,45.7586896175053,67.01986067550752
2025-12-12 18:18:12.467804,Right,127.36057265596901,163.17594883052516,153.406356053536,138.22899282773142,38.53825823029911,137.52634550940274,151.04253980984504,167.12082404145622
2025-12-12 18:18:12.471791,Right,176.48990926168335,205.07032201338006,195.10912977445696,183.3019292740937,-155.74798701728287,182.20219065822312,192.9507851886592,207.48970025382005
2025-12-12 18:18:12.478783,Right,92.88913737764233,104.31700895041286,99.39686089801398,101.6518530788453,105.25307515131135,96.24095141045109,93.86367799028085,112.98020444677968
2025-12-12 18:18:12.481789,Right,33.43706367127743,50.70811435332871,47.92134341047495,47.90023737135925,330.56504168549145,40.888413464592304,40.19232223556901,61.12097722123144
2025-12-12 18:18:12.484849,Right,109.0052117278683,145.5743124920118,139.58258576929802,124.9257061345561,98.43910548787971,118.77793471881887,133.4189762070746,149.9469853897026
2025-12-12 18:18:12.488832,Right,177.08944592207263,211.77574227386503,204.7192440942017,189.941435933506,-155.41764664232323,181.7573029572668,199.61788944341242,213.96381418225064
2025-12-12 18:18:12.491877,Right,108.70370325467957,124.82499414343329,121.88549177169625,120.64034459399409,44.641948194330325,108.6902696765028,114.54881441566977,133.32014976724167
2025-12-12 18:18:12.495871,Right,30.738754177247756,46.71192136697937,45.80812764116854,44.96110373247939,322.00894222701027,34.33008027417236,37.18339444884623,58.87277352940873
2025-12-12 18:18:12.499908,Right,89.67678464255005,124.27719804442313,119.4335096366267,103.7860899950756,151.87382093000633,99.54175740784558,113.87354485850665,131.29113540693652
2025-12-12 18:18:12.503906,Right,177.06266440462787,214.52042271532991,206.85771173592366,188.09179464571935,-154.90880169623415,187.55032982233388,204.5723936934519,217.87423553375993
2025-12-12 18:18:12.507910,Right,130.33042508453946,150.2742526592774,146.1439174520783,141.53353178100951,-30.21350536310638,139.528896908756,142.9491471862857,159.1155522512854
2025-12-12 18:18:12.511928,Right,34.71386251998774,50.393643109317054,50.00399227289017,50.5751095355954,290.6965274397953,47.932685829669936,45.00333711794519,64.8914900101372
2025-12-12 18:18:12.516942,Right,64.27319784472638,97.40058147806849,94.9412056832225,82.54455092777789,209.24165315102437,82.32697954117612,91.85499237551994,109.03070166234102
2025-12-12 18:18:12.519914,Right,160.427494455158,199.9871628509427,194.83673968879157,176.2016798643308,-119.10541732031561,175.55416166402574,194.4609776444122,207.7570579413441
2025-12-12 18:18:12.523966,Right,145.35732639215712,167.7612485615973,165.82227875840908,159.94904713126016,-78.72547112361644,153.67494782725407,163.67516150603478,179.80248383487924
2025-12-12 18:18:12.527961,Right,54.25448935292661,67.2576505789184,70.00266708950221,72.35963811504189,253.22729618106678,61.94140117663483,63.5590963288123,84.84229581117688
2025-12-12 18:18:12.531990,Right,64.81308444681054,92.90063523589924,94.70468715533207,85.08511423798336,252.68011456518434,76.25769429934735,87.12110367901914,107.14845262124436
2025-12-12 18:18:12.536000,Right,158.92750608628558,197.40102451646817,196.1761904409941,175.6300053967134,-80.55509058230382,168.85405070295383,190.2243039472378,205.42221187448013
2025-12-12 18:18:12.541963,Right,154.32803858083207,178.20758978645608,179.30170211596123,167.23440166498767,-119.78090953324863,158.37905951283756,172.85223362897523,188.52669108862756
2025-12-12 18:18:12.545012,Right,48.98918373644119,60.34947339838254,66.20065522179357,63.24459270713851,215.92745971059776,52.60399784348556,57.03383136269986,76.90274672472151
2025-12-12 18:18:12.548028,Right,30.53376807741006,55.53526547877118,60.464959524790174,46.878180106708896,307.2519976996555,39.27903910441091,50.76307005346462,69.77168719438487
2025-12-12 18:18:12.552030,Right,128.12201588552853,168.69040696154116,168.91741066487157,141.77297258056933,-10.206859607482329,137.39102435979294,160.8290522301977,174.68863706296543
2025-12-12 18:18:12.555991,Right,157.20722747046966,187.28133306416566,187.71302896506677,167.26474866564968,-139.95856354836724,160.67762566021702,178.90475554931618,192.26660469427588
2025-12-12 18:18:12.560045,Right,63.29438039389788,76.67265348756337,81.77958886879787,74.75951442217047,159.66840441612294,64.80426892233663,70.24887119894265,88.01496293608216
2025-12-12 18:18:12.564068,Right,23.13297807975323,43.828311913704965,49.523668345209444,37.671221674914705,324.3110794851236,30.090188325266354,38.814934884620016,56.930424828024115
2025-12-12 18:18:12.568078,Right,113.33315457349818,149.6301126399194,151.10998620453756,126.20327404468844,40.17675571249856,123.87082156368706,145.38888494724233,158.59227666718652
2025-12-12 18:18:12.572082,Right,166.1520854135888,194.69617399160052,195.3393309128296,175.1825752162258,-168.66718299296917,173.47130407571967,192.50986293095048,204.64108206523815
2025-12-12 18:18:12.575116,Right,82.98631150423898,92.60718665510649,97.24867472570622,92.77475490313373,79.62979642780556,87.94015445135301,92.37700147880241,109.78221382549964
2025-12-12 18:18:12.579114,Right,19.151807154878043,32.15833070204826,37.46729103627149,32.522445089009125,311.91193667036714,27.416247935558204,30.389522346435115,50.40740533021744
2025-12-12 18:18:12.584104,Right,94.30018154904246,125.33021961530903,125.45783197923447,106.96448809534195,87.48698661659728,104.42843505679048,119.291167351068,134.95243177670636
2025-12-12 18:18:12.588073,Right,170.17837364863954,199.51301623944892,196.66356590640498,178.61932873624028,-176.79216855762934,175.8387160053826,190.83696112642065,202.88652747578453
2025-12-12 18:18:12.592136,Right,108.83312780680717,119.72933842628845,120.21316603262676,116.78665992742754,11.4061225161131,111.16446838260163,111.2248707478575,125.56929955791566
2025-12-12 18:18:12.596165,Right,26.80744570060051,36.71273709178786,40.04294354040758,38.39386825740803,295.9567733067961,33.34635400265688,28.25482120763627,44.41121915302938
2025-12-12 18:18:12.599168,Right,73.70770889655978,101.0563871418417,102.2099521990167,86.12207475930336,138.321998127416,85.12259524408728,91.96493337507127,104.39078772513312
2025-12-12 18:18:12.603164,Right,152.94731628306909,181.91950120471301,181.88903586231754,162.22795390960528,-171.8281055174739,161.8616604183917,174.9037345655961,184.403475295112
2025-12-12 18:18:12.607197,Right,106.54529269292834,116.01461405746522,120.26108560393914,115.37496270565316,-55.29472772023291,110.85415324472706,114.37902360208682,127.51329070082284
2025-12-12 18:18:12.611201,Right,15.376350578444544,18.150879998342134,25.659086757834302,28.135483572725207,273.0715907958365,21.59280240695807,20.508120721642626,37.50540019967593
2025-12-12 18:18:12.616143,Right,49.803486525372136,68.78562997523113,72.71394061695901,63.99646929901792,203.52486556085933,60.23698246042477,70.572489168233,84.56695831866818
2025-12-12 18:18:12.620209,Right,149.03901613270864,174.8427932986233,174.44151142641203,159.21603342340677,-130.49600909840956,156.60338743426837,174.03941199716064,183.75617084818077
2025-12-12 18:18:12.624219,Right,130.96504095231649,140.25805430821492,142.30656467925292,138.25804541705293,-102.52488108880061,131.54890521228663,137.97010572251747,150.46285541940597
2025-12-12 18:18:12.627262,Right,29.896610805066302,29.93552179427934,36.85894067460322,39.743297683948185,236.017083501647,29.91608656840981,26.510817459697137,44.492236104182666
2025-12-12 18:18:12.631253,Right,31.614998199045658,47.216734558780445,53.5266729016148,43.88340214418713,252.67590237130935,37.06226700762636,42.01614290897851,58.917587494594045
2025-12-12 18:18:12.635245,Right,126.01932204826153,153.08865227011847,156.2053559909982,135.59372789086774,-83.364459136792,133.02283617673675,147.66708327256492,159.51832307621953
2025-12-12 18:18:12.639272,Right,126.4816221226938,139.24234097986482,144.25540174989146,132.8784835539409,-144.1845369026414,130.05469749338226,136.45175997569459,148.7341248554585
2025-12-12 18:18:12.644275,Right,20.51400208970881,19.38414558453951,29.226515258807922,28.571634864871157,182.15540398808662,24.145370077400003,18.72949910981697,35.98636504035676
2025-12-12 18:18:12.648316,Right,-3.5116896476538386,7.331852184055606,17.200276110030245,7.0107546386134345,281.7876572177629,4.2987019498541486,4.809734661510447,22.71588141581742
2025-12-12 18:18:12.652313,Right,95.05509159376379,121.10036709616543,127.57929868274368,102.99210629903246,-37.32523848193523,102.00406772553106,114.57122983844602,128.8461440198589
2025-12-12 18:18:12.655314,Right,134.12220402571256,150.14274840490543,157.76463565105223,137.70117395327543,-185.6552827912965,133.840454047604,141.58028063978418,156.28662492803414
2025-12-12 18:18:12.659349,Right,46.38279908528784,45.83663861337118,58.72376014047768,50.20042754468159,106.48552901894436,42.681504888809286,37.11250344334985,56.43230457662139
2025-12-12 18:18:12.663349,Right,-0.1579539004014805,6.972184361715335,21.27786254568491,6.469274800590938,286.5850438592024,0.3363198665319942,-2.8892684486927465,16.286516268301057
2025-12-12 18:18:12.667418,Right,79.16326169666718,103.68548383255256,115.10157987382263,85.28341294050915,20.60114578208595,82.43557031606906,92.51078554292326,105.47875487268902
2025-12-12 18:18:12.672375,Right,127.03706436425273,146.11700920871226,158.28091568208765,131.12413601359003,-169.8915214839799,126.88022745060152,136.96362382097868,146.7360949620197
2025-12-12 18:18:12.676401,Right,42.63754519406939,43.539009879605146,61.26191664554062,49.1029069958895,122.88636276396574,41.270111596997594,39.14037144131726,51.574875234859064
2025-12-12 18:18:12.680421,Right,-24.089791412479826,-20.650917319580913,-0.7918134446372278,-12.650407680368517,420.58821482966596,-18.854006028108415,-22.043955324275885,-9.329541483544745
2025-12-12 18:18:12.683413,Right,50.92382509537856,71.62938549384126,87.7487607121293,62.80719560399302,231.65004342286556,62.04987118279678,70.18215605817386,77.53088965616189
2025-12-12 18:18:12.687407,Right,133.63473360794887,152.1863448031654,166.74691866736975,141.60047933275928,-51.19063812207605,142.11895589415508,150.62984574430448,155.4134536413767
2025-12-12 18:18:12.691433,Right,78.31316213587706,77.00707631805562,96.12211237102747,84.9362845273281,104.69824260362657,82.14338878667331,76.54667969007278,86.25812611854053
2025-12-12 18:18:12.695429,Right,-5.868902674454148,-10.34819403392612,12.292147222033236,2.969791190495016,383.2818810844765,-0.4820541712688282,-10.887025826756144,3.268036747496808
2025-12-12 18:18:12.701464,Right,36.815233061046456,48.49301141771139,68.78352156089386,44.972928289775155,231.68120808151434,44.879025441914564,45.68365381624608,57.51277695473982
2025-12-12 18:18:12.704474,Right,117.72259935023612,130.90156959279557,149.17960036618751,120.80296408441791,-83.44284603543929,121.63097103967448,126.12865113829321,135.32008720148588
2025-12-12 18:18:12.708469,Right,74.59600281140592,67.9590093260922,89.90625621558866,74.73146229056874,36.25083510273544,72.5630287805543,63.040735864968156,75.77980599657167
2025-12-12 18:18:12.711484,Right,-19.02705946014612,-33.20516314925044,-7.606603859254392,-17.253293305417174,395.2060667482001,-19.646993936781655,-38.40325962411589,-21.95837290585041
2025-12-12 18:18:12.715501,Right,10.905901791906217,12.62499430864409,35.751905123586766,12.71531959544518,352.2479906501103,15.132354904024396,5.893720567284618,18.810500815248815
2025-12-12 18:18:12.721462,Right,111.13135348989454,119.82217440928798,139.3630764344125,108.21913217524707,3.252798658402753,113.78664786572335,112.82017103889666,120.2212091612455
2025-12-12 18:18:12.724465,Right,96.10894388084125,87.13844878032978,108.8899266619992,89.70734109007753,-5.076712463531294,93.43471613680595,82.86326093724347,91.23716934217373
2025-12-12 18:18:12.727536,Right,-8.709382368338993,-29.791304023674456,-3.9608780750859296,-13.039297823619563,320.2587501288217,-10.170274117437657,-30.976011376289534,-18.838147542235674
2025-12-12 18:18:12.731534,Right,-14.41251068447309,-22.142929766720044,2.3048356668732595,-16.04813070180535,342.62729265932285,-9.39435261869221,-22.816031366804964,-12.844126757772756
2025-12-12 18:18:12.736555,Right,81.75481389352353,85.79177967045689,106.30612085918256,78.71852773107821,-6.96265715509071,87.88323556279647,84.3002742704848,88.7462969811022
2025-12-12 18:18:12.739578,Right,95.41745923206327,86.63635048957076,108.20791273638315,91.01756148115965,-102.80001214107324,96.56063801592973,85.63278640173667,90.1889735583245
2025-12-12 18:18:12.743579,Right,2.0305439234361984,-20.100348695894354,5.289995533181354,0.9383375774486922,200.7577251734765,1.759507199836662,-19.948807257125736,-11.044698966201395
2025-12-12 18:18:12.747574,Right,-18.468484444063506,-28.868862462913967,-4.998380427787197,-15.918270269437926,296.9696701236535,-15.10409695126873,-29.09615414025029,-20.643205060463515
2025-12-12 18:18:12.751582,Right,77.9803327821428,82.90389425461763,101.11960205117066,78.71635718032485,-34.239272720573354,80.7019121246849,81.5121526508301,85.07376051534084
2025-12-12 18:18:12.755612,Right,114.48429717315594,109.31262837385293,126.22787968366174,111.33386555894685,-211.1079736612446,110.15420874860138,108.37742650967266,111.60645080909308
2025-12-12 18:18:12.759612,Right,23.85028898155724,0.6510976256395224,20.816669204607024,21.080118674362893,63.09249264196842,15.813191180597642,1.242264384389273,9.271851747093024
2025-12-12 18:18:12.764612,Right,-25.864583868460613,-43.48122499800229,-23.667700472506112,-26.198684401679202,246.04320413055393,-30.14078962430358,-42.75651818390179,-33.909020772218355
2025-12-12 18:18:12.767632,Right,54.22886077288422,53.19121193709725,67.92774591076886,52.28622089161945,-28.586530658663833,52.42959161843464,53.100046373088844,56.945953102229396
2025-12-12 18:18:12.771631,Right,108.43335328622197,102.79314704715216,115.65159484054311,102.81935090740444,-267.3673354063649,102.45973408926511,103.45936700211314,105.40937339073571
2025-12-12 18:18:12.776668,Right,28.46342672429455,6.123228257871233,22.33745060459478,23.908705685375025,-42.11043152501952,19.299425436736783,8.560072902779211,14.781365856193588
2025-12-12 18:18:12.780661,Right,-42.63797991658794,-60.6037466636335,-43.50454405150958,-42.48421881378454,208.51982804380532,-47.987785054094275,-58.48187895078445,-50.48974026886572
2025-12-12 18:18:12.785671,Right,24.122786498614005,25.83216064001317,38.3696943216637,25.078655897974386,-0.8984763955959352,22.321955578314373,25.614296023908537,28.421046168892644
2025-12-12 18:18:12.789698,Right,103.17708464936004,104.81473344724509,114.76197220488393,100.23563974254648,-295.9137850337647,97.197237853572,103.66954444984731,102.31334107145085
2025-12-12 18:18:12.792700,Right,48.10974112566328,30.632544884254457,43.88861672002531,43.53832928050542,-143.89553084481304,36.31666160322493,30.894068422319833,32.09407414532325
2025-12-12 18:18:12.795703,Right,-36.45518620671646,-56.80577224533772,-41.42029119383369,-38.57664989090699,150.66150626190938,-47.26835907319037,-55.67852362820122,-52.04684857155371
2025-12-12 18:18:12.800769,Right,7.276355444366345,4.621668021776713,15.821437489474192,5.376903276177472,19.191091541251808,-0.21779546191100962,4.868774806411238,4.3939335958421
2025-12-12 18:18:12.803775,Right,93.57628072015359,94.95522628766776,101.8522620354197,87.4750176937232,-304.85691254205085,83.5927894100023,95.06474781122233,89.86659344645159
2025-12-12 18:18:12.807795,Right,53.34244948490232,36.656288592057535,45.161376106130774,44.923002596071456,-223.71455428393892,39.17177302268101,38.562158518863725,35.25039938655391
2025-12-12 18:18:12.811792,Right,-48.62908631541359,-72.21944772696588,-61.297794556448935,-54.35124322724005,103.84671667238217,-59.87354274887184,-69.18174090397952,-68.81002721670666
2025-12-12 18:18:12.816767,Right,-32.990915675400174,-39.45601113596058,-31.64701054051693,-36.7150356649654,58.55894566410643,-37.60745525227685,-37.367046780185774,-39.32408604309603
2025-12-12 18:18:12.819782,Right,61.749306057186914,64.93484365365293,68.61701772216475,55.701181161537534,-279.6861798032987,57.340816587471636,66.89229210438498,60.24506005726289
2025-12-12 18:18:12.823784,Right,54.794364042783855,42.84458292639465,48.311495809510234,47.134041710261954,-280.6531967202318,45.234437281716964,47.557687542488566,41.75822467438411
2025-12-12 18:18:12.827794,Right,-37.459325603966136,-60.83441366170882,-51.399758989413385,-42.48433273869159,55.08595426388638,-47.843256351516175,-53.27736272047332,-55.756370234303176
2025-12-12 18:18:12.831827,Right,-34.2072662494611,-44.801359393968596,-36.75310309170163,-37.60669325043273,94.55775239263039,-40.7678762165815,-37.32932998914475,-42.283357042761054
2025-12-12 18:18:12.836761,Right,67.12815856553061,67.85718948207796,71.71047202559566,59.95279355459934,-241.33953246398596,59.94782922723971,73.85712457871705,63.286868594863336
2025-12-12 18:18:12.840787,Right,80.52660596561327,68.0843204068151,72.52565683049761,69.35566254598234,-321.9856753302938,67.82130854236311,73.97700732365047,64.03865373968438
2025-12-12 18:18:12.843846,Right,-24.302697934304888,-50.76876712766534,-42.82856781970622,-33.7739280718597,19.699048470632533,-37.37706897759199,-44.52252883865731,-48.687426234457234
2025-12-12 18:18:12.847843,Right,-64.07325134058192,-78.89324479550851,-72.58364394732052,-70.10337358152901,172.40608609632454,-70.38247317111382,-74.0161760134506,-77.08777179880417
2025-12-12 18:18:12.851883,Right,19.760857430417673,21.63102055692434,22.129113683979085,12.221066215453902,-120.04888236698935,17.07459421349631,24.80916544563661,17.20582116656442
2025-12-12 18:18:12.855876,Right,56.67969069718674,50.4249724864203,49.50928707001731,45.25616865804477,-290.25353323789295,50.311369689196,54.35371345014573,45.439005503030785
2025-12-12 18:18:12.859901,Right,-29.78923243231111,-52.47895742805849,-49.78979159431037,-40.5365916140363,-13.289576462957484,-38.431702462279645,-46.628810618436546,-51.92705580992333
2025-12-12 18:18:12.862914,Right,-78.02486796763696,-93.343292914833,-90.30200690311176,-84.8639316392364,188.6490896018786,-82.87455434956064,-87.92897073322092,-92.94066285572626
2025-12-12 18:18:12.866960,Right,6.167258846166078,9.739916864971747,8.110206383644254,-0.4604578291910002,-70.52863289450943,3.0029676708509214,12.645074370149814,2.7345383915380808
2025-12-12 18:18:12.870943,Right,68.06692882234347,68.0742393841283,64.60730647622404,57.97451897300198,-314.73442647808224,59.20527683114051,69.7954139867361,58.63906646626128
2025-12-12 18:18:12.876963,Right,-9.812263997773698,-28.35091115887917,-28.155839339342492,-20.762767043597705,-96.38848807709655,-23.24351944407681,-25.86485691148846,-31.555603383734706
2025-12-12 18:18:12.879969,Right,-87.49393964416231,-104.8130022868936,-103.04845359604951,-96.1776672430351,165.2166486365677,-97.01612530294005,-102.37456207489595,-104.98522718391905
2025-12-12 18:18:12.885977,Right,-27.115969236583624,-26.2852220390414,-28.80228556820657,-36.235933826497785,-28.865848813442426,-31.663941965274716,-25.65953162180449,-32.699950674603315
2025-12-12 18:18:12.888919,Right,51.18416984139185,52.401355726899055,46.67179187818692,38.51581478913431,-314.929134587368,43.737479276242084,51.995507226554764,40.66831389110666
2025-12-12 18:18:12.891930,Right,-4.703003675193031,-22.006240237875318,-25.406118254049943,-17.536262447705667,-138.30170907716092,-17.63588484678621,-21.25173464465115,-30.782245726892143
2025-12-12 18:18:12.895005,Right,-93.93114894336759,-113.78836136258542,-115.5826408310968,-102.12296998450984,207.85791735988823,-105.84416562107799,-111.79123451224586,-119.68415666035071
2025-12-12 18:18:12.898956,Right,-51.85456340643577,-52.60460304914159,-58.40114801316304,-57.0380898873409,118.72644028575087,-59.55514825940918,-50.43350231808654,-62.746006539673544
2025-12-12 18:18:12.903021,Right,41.64225598077246,47.43025349136224,38.10259020925514,35.3970678036967,-206.5269204366159,33.4455495207294,50.9487574326231,34.24094988671641
2025-12-12 18:18:12.908052,Right,11.883740959758143,1.4153663219221926,-5.098395350152714,6.254619553685188,-147.52104727691403,1.4947046942816087,8.033527811232489,-6.040332911328733
2025-12-12 18:18:12.912044,Right,-83.6273123608371,-100.44782785662755,-103.31816654951763,-84.52364815253168,177.85504447869243,-90.6383290052654,-92.72985990091183,-102.3684617957897
2025-12-12 18:18:12.916062,Right,-63.316812232573284,-62.499624735148245,-68.00422354215152,-61.74560863795523,143.58292137124226,-65.38713583474055,-57.96507101779571,-69.26840901497417
2025-12-12 18:18:12.922084,Right,37.61406159748367,48.79436335516584,38.50289483831148,35.408043473875296,-205.15121231173543,32.72523579346307,49.07657304793247,34.14900650692107
2025-12-12 18:18:12.925087,Right,32.0190482563321,27.838569168126924,18.05632181476176,25.54018694969818,-235.70782443611824,19.086719394271313,26.376695114977338,14.246810703028132
2025-12-12 18:18:12.928094,Right,-69.29644436735362,-85.77385546400365,-92.82574982725646,-75.19268448609182,85.85338365135249,-84.63644132244099,-87.65032774134124,-93.83989732836835
2025-12-12 18:18:12.932107,Right,-77.42798225622391,-80.61890312973082,-90.15753912023388,-81.7431384379579,131.79190170671063,-88.78567920663363,-83.96848975228932,-90.13948491883411
2025-12-12 18:18:12.936121,Right,21.177975140308263,31.50864143551007,16.959414736737926,14.681526605028012,-208.6066019962309,10.713105491080682,26.87487546571265,16.63079965026759
2025-12-12 18:18:12.940084,Right,38.48645514686632,37.051673281581316,23.10090320810059,29.594978768299825,-317.289478647348,24.030716542544724,33.33855333391102,23.84756892556925
2025-12-12 18:18:12.945147,Right,-63.911372259690324,-80.3262978028506,-89.76102615178024,-70.60446907387438,-1.4215344363619806,-78.5982838536811,-82.77146177828627,-87.65923827544339
2025-12-12 18:18:12.949146,Right,-101.92549378859258,-108.22738697231216,-117.82400017975124,-105.33985887497374,145.21407270758937,-111.00596876119107,-111.90960119733069,-117.32400926615537
2025-12-12 18:18:12.952175,Right,-11.258131244287597,-0.8859100948766354,-14.973058184683396,-15.955046033253439,-150.0312593240742,-17.804167283788047,-6.727934659571474,-17.53874122554589
2025-12-12 18:18:12.955168,Right,34.38602803787347,37.246868408948956,22.87619876527424,26.57853653588245,-332.97115221017157,23.97161736322596,31.98769933662652,20.55848234831501
2025-12-12 18:18:12.962183,Right,-51.28213714632443,-65.56024073491835,-75.13590518496494,-57.90028323423576,-62.374064857009216,-63.40928458427152,-68.09013754411717,-73.8360898713945
2025-12-12 18:18:12.966208,Right,-107.53534433330242,-116.13804774912387,-124.09925426696282,-110.62878466225447,152.2981019805593,-114.88377687106367,-117.58118956703674,-120.72499859681375
2025-12-12 18:18:12.969200,Right,-28.813247689367927,-19.565486937884998,-31.20323653012383,-32.622315868356964,-93.15830501029268,-33.279443184672346,-22.182505359172865,-29.080395911289088
2025-12-12 18:18:12.972152,Right,38.15008894557468,43.42652404467481,30.29489054599253,30.37859278186079,-339.53743655757717,28.863278413235093,40.031497726607995,31.2598720283313
2025-12-12 18:18:12.975234,Right,-30.385908651051068,-44.76899216408674,-54.647575162940484,-38.70764156166297,-123.0988473282996,-44.77394770981846,-48.266826760956974,-53.1136176730397
2025-12-12 18:18:12.979217,Right,-103.30421737619145,-118.13983338159596,-127.36864640584827,-108.84424912170834,155.9668024752682,-116.32962106418927,-123.36579053219975,-126.28926640258214
2025-12-12 18:18:12.983244,Right,-39.908645955429165,-37.11152021162525,-51.57964036915291,-45.61499836447547,-19.42041329944186,-51.11533902047813,-44.91891583458528,-52.6528137799869
2025-12-12 18:18:12.987257,Right,46.219328108942136,50.411007271522976,32.226779068936594,37.37933765698472,-317.92319895503897,31.10684901466084,43.02197267325937,31.341353996300313
2025-12-12 18:18:12.991282,Right,-1.3392345783177007,-14.739286869631542,-30.477168066048762,-9.384063075882295,-181.24249520492594,-19.371773361424857,-18.356348844070453,-26.95459808368105
2025-12-12 18:18:12.996280,Right,-89.69737478333263,-105.68587457382455,-119.4692897136556,-92.0925194049596,130.94284180957038,-102.02002552139675,-106.35701649760449,-111.29909884835433
2025-12-12 18:18:12.999289,Right,-51.30110841180067,-48.42678119026459,-66.22492127922305,-50.80953634321486,27.81384561899904,-55.78667478636635,-49.051725203760725,-56.51616322654081
2025-12-12 18:18:13.004295,Right,40.390127084847336,49.46475284458211,27.61082025304495,37.820919613757724,-304.66361320406577,35.76728616570108,48.638975816713355,38.09694546868195
2025-12-12 18:18:13.007340,Right,7.048227021678031,-1.8112122331585851,-21.563317575724795,1.8708662300014112,-248.73395193136093,-1.822173824373749,-1.0856388900901948,-8.143244465081807
2025-12-12 18:18:13.012332,Right,-99.24348693865613,-117.61628241510334,-134.3306850631052,-102.4549928081251,91.08253677296307,-106.20570077872617,-115.59297157325636,-117.91308588290121
2025-12-12 18:18:13.016274,Right,-89.63636606160799,-92.9929807001572,-112.76268306328711,-91.43064068847161,83.41577402616531,-90.67802026291974,-91.65509334808303,-96.17142726920065
2025-12-12 18:18:13.019354,Right,12.111706794068596,18.585291374260123,-6.091475994697248,7.241169862714742,-250.54042836576264,10.88238234102755,19.409534512906248,10.088052024380886
2025-12-12 18:18:13.025382,Right,15.960968124549254,7.806672341892408,-15.876469539784011,8.59204038763346,-279.2589036708596,9.40962682287136,10.508961804811406,2.873317379031505
2025-12-12 18:18:13.028366,Right,-81.03064459654342,-100.85723092368426,-120.52798503793747,-85.77682985290812,56.4177481485749,-87.74833589742047,-95.78512900100395,-98.11403344997962
2025-12-12 18:18:13.032376,Right,-94.23945983209705,-100.22626552426664,-120.70057319125772,-95.99980935011627,134.34464595450845,-95.45744038436533,-95.09430785105724,-98.10014937284723
2025-12-12 18:18:13.035385,Right,0.1924119235627586,8.684141442976397,-15.522544275452674,-3.5905153307685396,-182.15889662880363,-0.04327904813544592,12.505458148119942,3.992761927562242
2025-12-12 18:18:13.039390,Right,22.127346684566874,19.611230408525444,-3.443053896553465,15.18535981385503,-287.82114843533054,16.263191275014833,23.001187157326058,13.635859736794373
2025-12-12 18:18:13.043413,Right,-72.48687555883225,-90.17216680799174,-108.44998809164827,-77.95487996049633,30.762138828475145,-80.80809585620591,-87.24730231122521,-92.47693604163214
2025-12-12 18:18:13.047424,Right,-106.95258550495782,-114.91123203393363,-132.9639168812646,-109.24369554944133,193.79675397903338,-110.79765116464114,-114.35865930760338,-119.28083722303563
2025-12-12 18:18:13.052434,Right,-13.675601245406142,-4.1779208478401415,-26.17547902037768,-16.797061826538993,-89.03442648440978,-14.617589897767175,-6.229427623045922,-15.563625657145167
2025-12-12 18:18:13.055448,Right,38.67148464429192,42.460160689290205,20.893552164452558,33.29746779123525,-277.17846046940394,34.92777083082183,40.6026217525432,30.999694375728723
2025-12-12 18:18:13.058445,Right,-40.902476347815536,-52.7855360248941,-68.76900842927716,-43.98365214213845,-11.338292411222938,-45.192197651609604,-52.74271850486548,-56.77129042739398
2025-12-12 18:18:13.063457,Right,-97.4925435955156,-102.87886105569487,-116.91255341070064,-96.292034225924,214.88887317921035,-95.90199146461237,-103.17108869332878,-105.02312348340638
2025-12-12 18:18:13.067495,Right,-22.704457603860646,-9.18266845872131,-27.31878743746347,-22.430236809523194,-19.654347373292694,-17.468390464578988,-12.260973608885251,-18.787677584819903
2025-12-12 18:18:13.071494,Right,39.95280481496593,50.889935552550014,30.734709120137268,35.43040171130269,-273.2666545036991,40.76311235316098,46.61930268620927,37.03055241929542
2025-12-12 18:18:13.075543,Right,-36.165304950394784,-43.89836811922578,-60.47203121286293,-41.42748752346961,-66.31572628227877,-39.578479820011125,-46.245163190338644,-52.68280613100069
2025-12-12 18:18:13.079532,Right,-119.57273020581488,-126.96763814599399,-141.70197431303677,-120.86324817239802,220.82336106679577,-119.37991452397546,-127.51376996061299,-131.99755309669854
2025-12-12 18:18:13.084544,Right,-60.800832019463996,-49.21222284149553,-68.02152102524269,-60.57591350300936,57.65258848470694,-56.05796635033039,-50.29258363187546,-58.93798406269343
2025-12-12 18:18:13.087518,Right,31.894502092800394,46.20932815643755,24.308023013421916,29.546578714878706,-245.50275282543225,33.35107531077665,43.97319739023078,32.3360273412909
2025-12-12 18:18:13.091542,Right,-6.11994217573374,-9.616700185724767,-28.557548353026505,-8.787415648126625,-118.36426171505445,-10.709002256124222,-12.288093205243058,-19.77412393128907
2025-12-12 18:18:13.095574,Right,-94.31774167044932,-102.26901036460185,-118.40568533408077,-93.21261640395096,203.92146297949876,-98.44887963005021,-105.89464265989227,-108.9133456840209
2025-12-12 18:18:13.099598,Right,-63.99040065804729,-54.737573476137186,-73.99865103382035,-61.27050973889709,122.77457756260992,-64.05323896373011,-59.77959571106476,-65.4265698262534
2025-12-12 18:18:13.103565,Right,25.59091430620174,40.99440651668556,18.25477439592214,25.389346884054248,-203.66004498699112,25.01771983318031,36.85319498216268,26.77224491679226
2025-12-12 18:18:13.107618,Right,2.95185794414283,1.248267712595407,-18.83696921486262,1.3628768208800466,-158.47942270633393,-0.45668945059151156,0.9100853034469765,-7.628681757130835
2025-12-12 18:18:13.111595,Right,-89.4977825147871,-100.26945155522844,-116.45740373230365,-88.10938484307553,176.69079384312136,-90.61946288992476,-97.76638175800326,-102.89116158791876
2025-12-12 18:18:13.114601,Right,-73.99593225620629,-69.56619844709348,-87.93398909427924,-71.40337496491702,173.15025605702613,-70.60888830076146,-67.935028277745,-75.50806147647381
2025-12-12 18:18:13.118606,Right,25.861575083705247,40.49419924176618,17.66575339998235,24.26038204489305,-165.09292723591898,27.11028719767637,40.0429781787534,27.888329595130926
2025-12-12 18:18:13.123631,Right,24.337421786869527,24.24388661520061,2.4722974007672747,19.44826227855083,-202.1751865719507,18.964800406742143,23.738446454663062,13.460718055102916
2025-12-12 18:18:13.127640,Right,-80.0701093777825,-92.8119268543669,-110.64499578331743,-81.93577575303789,143.15147338362294,-85.74301959686272,-92.34899435725674,-96.98703685055807
2025-12-12 18:18:13.131588,Right,-98.31497662278707,-97.96610955404321,-116.94944810016023,-95.87832963883557,242.9076077712989,-97.33405005851091,-97.64972380785184,-102.40518028604856
2025-12-12 18:18:13.135657,Right,-0.3444767734326888,14.649304689875862,-8.925456177617889,1.2843801395501941,-66.64196220381245,3.568623694656708,15.093372733994329,5.224991044749913
2025-12-12 18:18:13.139612,Right,29.74148896458064,33.58172937108611,10.211148013870115,28.84921592046885,-173.86052775784037,29.944437801670574,36.71005902352772,26.065110782663396
2025-12-12 18:18:13.142680,Right,-63.223049550557334,-75.99561463809368,-94.73412636310968,-61.98217656675115,168.52264975162836,-63.941857326244644,-69.20679040233517,-75.5755476591512
2025-12-12 18:18:13.146695,Right,-103.68806212738127,-108.31210973660927,-126.0419011767226,-98.22804939333582,377.2145378853355,-98.78969760403561,-100.2125881131069,-105.93915310643933
2025-12-12 18:18:13.151757,Right,-13.947989146799955,-1.490422239068721,-22.456341922355932,-8.853181406942895,119.50425805597752,-5.812900942910346,5.660959127402748,-4.410324931886862
2025-12-12 18:18:13.155755,Right,41.39129734089511,48.10710119908617,27.433264200983103,42.985723692290776,-74.23069669494589,45.69869838155864,54.42505920656549,43.65450666291872
2025-12-12 18:18:13.159701,Right,-36.148060524581524,-46.21749091523088,-61.82922703296936,-34.79328402366809,191.74249440380208,-34.47982784368651,-40.890878158686974,-46.645807507848076
2025-12-12 18:18:13.163761,Right,-95.64786440917669,-100.66685537889862,-114.32741369734867,-92.17400241937867,437.74125390631525,-90.19648716972006,-98.40695710582804,-102.40891862077842
2025-12-12 18:18:13.167761,Right,-21.67770767366892,-7.956187796837185,-24.891241472025285,-20.082240581527003,208.58753694133156,-13.947961796657182,-9.409662657395529,-18.296334489998117
2025-12-12 18:18:13.170708,Right,47.36696384212701,59.21481413218862,41.79512753673771,43.695523611335375,-72.23542117440775,49.93904735441902,56.94557405744126,45.576133719870995
2025-12-12 18:18:13.174772,Right,-21.48189744180854,-28.269155898771714,-40.00753632098349,-26.716828689044632,107.02914742003941,-23.581101657902764,-28.63219822454994,-34.96053876209044
2025-12-12 18:18:13.178774,Right,-103.92291547002242,-110.98158643548231,-118.62740440371999,-106.23519271678379,391.5095352283106,-102.583512170022,-110.36221009435394,-112.23231411478628
2025-12-12 18:18:13.183785,Right,-47.91303806234646,-36.11714617276448,-46.0369157595851,-49.60726888242789,228.07236723341248,-41.78471261350933,-36.4472693708376,-40.68899752823927
2025-12-12 18:18:13.187810,Right,42.28589095526695,56.83428085428022,45.11536248417542,37.269844831957016,-93.93948008080497,45.69762661369896,56.397117815882666,49.867902441525075
2025-12-12 18:18:13.191824,Right,-0.8252905512126745,-5.118425678199856,-12.512657039158512,-6.676610094655189,20.12017525709325,-2.5178016302452306,-4.019209527708881,-5.9865990804028115
2025-12-12 18:18:13.194781,Right,-96.78618663972156,-106.78080648025934,-109.63862038018851,-98.7373501659822,356.6173993963657,-96.49405730060971,-105.55756931748328,-102.31035257197072
2025-12-12 18:18:13.198869,Right,-67.99972933116806,-59.961050288256956,-64.28741023659677,-67.43061870014208,287.33673988846385,-61.83482725425711,-61.0343115028154,-59.675202568447276
2025-12-12 18:18:13.202854,Right,29.683415516556124,46.64631448464934,40.018881778443756,28.633509368853993,-62.13056628832055,36.66759093383007,44.65613104442309,41.983668272230716
2025-12-12 18:18:13.206869,Right,12.919212319349754,14.770746203175804,11.83652061932662,12.12851600504655,-50.750410825714425,18.117238186037866,15.75938161976228,15.399948053796834
2025-12-12 18:18:13.211882,Right,-86.59414177564031,-93.64567803838872,-91.33550730304705,-81.67055395906209,280.7404483734499,-76.80942062332906,-88.7362519528615,-83.97218850017816
2025-12-12 18:18:13.215876,Right,-83.2619632267888,-74.89852605350461,-73.34136149828555,-73.01780888837675,290.72383572922445,-64.57906880811788,-68.43628949722188,-64.53854591197887
2025-12-12 18:18:13.219908,Right,13.885041610257758,33.76239494982292,32.048191184105235,23.968378713841958,-61.29142508914833,35.111305077167344,40.62069643972791,39.96399137559638
2025-12-12 18:18:13.222855,Right,18.77888584438915,24.710317569035396,25.344262535516464,27.298816809743585,-141.56643980416987,35.141406911512604,32.772714156519214,32.810127558354
2025-12-12 18:18:13.226932,Right,-81.52405710062885,-89.100099786192,-82.80926932350485,-71.36315068086697,170.58830142480417,-67.95412605983438,-80.77681938667956,-75.9398134535586
2025-12-12 18:18:13.230926,Right,-100.87272532940551,-96.1768077823508,-89.35521152759975,-89.65831417512527,259.90673170656146,-85.36610279978777,-90.47613521812309,-85.51264952726342
2025-12-12 18:18:13.234982,Right,-1.1106410488355323,19.35538633070246,22.599542103736894,6.084151965718775,-70.45024630619491,13.755300494842231,21.933061441770406,22.699477418806055
2025-12-12 18:18:13.238955,Right,36.6988848079709,48.2500696743009,52.017843463847385,39.04540500148141,-231.58159233187962,46.97186260519811,50.303178613430646,51.36742089463951
2025-12-12 18:18:13.243906,Right,-50.88425393023499,-54.85328026863863,-46.65334409042771,-48.463052848455845,46.80816286531717,-41.00235349113791,-52.151731412093795,-45.99944633671839
2025-12-12 18:18:13.246977,Right,-93.64990663485514,-90.10436681313149,-81.70251542958795,-89.55524635317852,211.34098948435258,-78.35110741165408,-88.5299331144488,-82.00978704143199
2025-12-12 18:18:13.250971,Right,-7.492413008832955,11.819638780827518,15.768225848416478,-6.277798297734989,-76.38813220342126,9.354520341803436,11.576188451355847,11.954892428686435
2025-12-12 18:18:13.255003,Right,48.13680304108857,60.14039314116235,63.6698109039753,44.80947443503101,-304.2019759346367,58.66794133406074,60.298864999109355,57.87424918806937
2025-12-12 18:18:13.258996,Right,-31.388759259905783,-38.095094809257716,-28.964799004002998,-33.68016679457651,-67.19506730404282,-25.57254063784785,-36.207891979931446,-34.06731597088947
2025-12-12 18:18:13.263015,Right,-99.92880419747962,-102.74071150602686,-90.46799726409517,-97.00281900106347,174.34870339501686,-90.53499949561956,-101.12379007209165,-95.65759856125806
2025-12-12 18:18:13.267087,Right,-32.90282585463865,-15.878182672960975,-6.536299292729382,-28.17087292701035,-43.71611193973877,-18.950173057546635,-16.349611762598215,-13.939424699125084
2025-12-12 18:18:13.272042,Right,41.92642186359444,59.53006179930526,67.2349228599378,44.535776723656454,-320.751150093809,53.76659702396864,58.599463304104574,58.7260055259394
2025-12-12 18:18:13.275110,Right,-14.356337665078172,-14.266981452288746,-2.627195261629822,-11.379938569880323,-141.7738449719327,-5.996876708337368,-13.365632901401113,-9.68739640478816
2025-12-12 18:18:13.279000,Right,-91.85376794543117,-93.00008843846445,-78.42126974874554,-85.33889176323282,157.15703529777602,-81.12444037522437,-90.96631170819455,-84.76810170907629
2025-12-12 18:18:13.283081,Right,-39.45736656565714,-22.788533888007805,-10.880301590439558,-32.57512058837165,16.08713926866767,-25.431665277013963,-21.364495083587826,-19.161859236777673
2025-12-12 18:18:13.287099,Right,50.41288322752371,70.0767952183378,79.915387220306,53.4336314017346,-301.6835428968843,61.1187984903263,71.56196735227786,70.06492648117637
2025-12-12 18:18:13.291090,Right,14.617628673819127,15.78881521141011,29.262409419625328,16.28842556086238,-202.1598956310263,20.073505944437784,18.825158273648412,20.507897534422227
2025-12-12 18:18:13.295138,Right,-74.29244726526667,-79.73694087414333,-62.983946292724795,-69.19916136722532,127.71991663371955,-67.44243601477865,-76.21785578043637,-70.66282105286518
2025-12-12 18:18:13.300210,Right,-43.706359444106056,-32.721272988434066,-19.103283584698147,-36.755847313121194,69.875367125107,-32.37375271228302,-30.83279038622277,-28.38925318820111
2025-12-12 18:18:13.303139,Right,54.76287735020742,73.60687894561124,83.21879181461372,58.9899650581101,-266.5940070989527,64.62324978524703,74.44327605302897,71.93486851752459
2025-12-12 18:18:13.306129,Right,39.7969204921319,43.02196985602495,54.978270609226456,42.745526340138895,-245.7655120844356,44.80144317109807,45.0040946660265,44.217186402172956
2025-12-12 18:18:13.311170,Right,-61.709849154132826,-67.80207760438134,-51.45994163863952,-54.885371434320405,108.24077883313294,-55.400926385016646,-64.92781177982397,-61.17496371512971
2025-12-12 18:18:13.315159,Right,-63.435322957331664,-54.02201182345016,-39.025725767565746,-53.4956896390504,155.18856021067404,-51.152051344870415,-52.59923812173656,-50.40297375613591
2025-12-12 18:18:13.319107,Right,34.33647957867652,56.25863517131074,67.39071903131344,41.76621067803717,-168.32343604944617,47.23832740263606,56.06648052579112,53.4177359960413
2025-12-12 18:18:13.323196,Right,45.76136596926153,54.814482513651456,67.79270018699691,50.32320742885349,-235.1725665209815,54.13864416760771,55.53858957891498,54.16034697325085
2025-12-12 18:18:13.327197,Right,-53.19359470744166,-57.24139913073304,-38.70750770886889,-45.83950374431879,96.48684235656037,-44.066774333885405,-54.55234587315499,-50.1129800253766
2025-12-12 18:18:13.331213,Right,-79.74855350414146,-71.1285491556373,-51.75040806224115,-67.81643596273352,218.3551442595708,-63.38573667631499,-68.3589503872463,-63.23993581006653
2025-12-12 18:18:13.334206,Right,13.981163844586263,39.202176875096484,55.31830087166145,25.90099320531226,-86.97704343596706,33.019904899374524,40.6914415548672,41.49634227361639
2025-12-12 18:18:13.339229,Right,52.76329764180264,69.18906521732424,85.7317579334167,62.592102913888084,-236.11583905109364,65.89341856222018,70.21820244983974,71.22847598451881
2025-12-12 18:18:13.343179,Right,-32.14203852108403,-32.43367963661876,-12.04089550975823,-20.70367107383936,63.841343154155766,-24.094798976777383,-31.92764446248475,-25.11451073767239
2025-12-12 18:18:13.347244,Right,-74.20320503073526,-67.78039362774143,-48.08212962987818,-59.99342298301053,263.778631205525,-65.11657501779518,-70.04709866635494,-61.14195579789521
2025-12-12 18:18:13.351266,Right,14.594507136233005,37.89458259156527,52.21160321433126,26.450772611282446,-3.092125042414409,23.53704324380851,32.47060412256724,37.377509438319976
2025-12-12 18:18:13.355290,Right,75.2793946224956,92.76147880819553,106.09899953804961,81.67631752579109,-233.67515639266276,78.449866300356,87.85921418632097,91.50361973088002
2025-12-12 18:18:13.359298,Right,-4.037242822108965,-6.00767017445105,13.026061668922921,0.7494025799769588,7.491787727569317,-4.601587960813049,-7.32549998799368,1.2307965863419668
2025-12-12 18:18:13.362295,Right,-79.99650337947969,-80.98111188319126,-58.17508356979306,-73.5284031898882,275.8250157199327,-76.98483722475976,-80.3978991633212,-69.09712211242004
2025-12-12 18:18:13.366318,Right,-19.73987580800167,-3.582297597591605,17.090385084289665,-14.524394456848313,76.37310176687606,-13.501056358249116,-4.2788965346662735,3.133488289808156
2025-12-12 18:18:13.371266,Right,56.27821413982383,71.7548545596419,91.54299629990237,57.83153144620519,-217.40757311743073,58.49249954920015,69.7991684091885,74.35270989002402
2025-12-12 18:18:13.375329,Right,4.591620967770723,1.8889227496165404,26.26977291643925,6.769916236104109,-69.42703977859856,2.074357063305797,0.43667722685131594,8.38749233917315
2025-12-12 18:18:13.379347,Right,-72.2449345682071,-76.75379037206767,-49.11601649945078,-65.0302430578904,216.25721817292288,-72.08368363934642,-77.91625234099592,-67.51106001725839
2025-12-12 18:18:13.383347,Right,-20.78710617159959,-7.302429437630053,17.168273870807752,-11.656517911505944,71.43325933574306,-15.384670364800513,-9.214893736932936,-3.5402485916465594
2025-12-12 18:18:13.387366,Right,71.2873325471046,88.55654742115985,109.61942896253458,77.1209901129132,-265.76299521560213,76.01017208230314,87.10726160219474,87.51525278355757
2025-12-12 18:18:13.390397,Right,35.6807339873867,34.63917269278318,58.05980464546883,39.76893031255531,-192.9345207356855,37.16614808815393,35.54930291603614,37.94900174719169
2025-12-12 18:18:13.394396,Right,-61.58891548451538,-69.764912908302,-43.29298172518611,-54.58603596353623,129.9472417772522,-57.706252163298814,-67.32666198707284,-60.51768137608633
2025-12-12 18:18:13.399402,Right,-41.34341872616096,-33.22723086069709,-9.197550529162982,-32.80859277845684,79.3087547736286,-32.49872602906362,-31.373942913610335,-25.720996533861808
2025-12-12 18:18:13.403432,Right,55.934014507891334,71.81906095898285,92.57506986075168,60.71322878965839,-266.259167082615,63.28230635584896,73.51894599200932,76.02538432289487
2025-12-12 18:18:13.407426,Right,47.447485052327465,45.999346162836446,69.57617960542484,48.43221019729299,-274.19684532940664,48.91762398916262,49.56466876644481,54.54576551341944
2025-12-12 18:18:13.411425,Right,-49.99017602663662,-63.86390590681731,-35.26180110483256,-48.27645650058366,57.51141045222903,-48.96709312644202,-58.947922350895624,-49.30067267617369
2025-12-12 18:18:13.415468,Right,-52.99258472056681,-53.222663124990504,-25.142815467490436,-49.97311688571335,96.33404133867589,-47.25111650800477,-49.68012018746322,-41.57608914971138
2025-12-12 18:18:13.418465,Right,44.123288713790316,57.19485516802797,81.67061953631128,45.261418614037666,-239.61653123621727,50.37176022171565,58.84800641287029,61.594891462424584
2025-12-12 18:18:13.422464,Right,58.51823608832001,60.25430085064818,85.77134637472409,59.073053120347936,-324.63032941178244,60.412235147346564,62.37079948788869,64.86170024189141
2025-12-12 18:18:13.427485,Right,-38.83005823691019,-50.41789236265731,-20.82264133892386,-33.37445253465148,6.996784431637934,-36.965056686900425,-46.91155282614261,-40.55143736759965
2025-12-12 18:18:13.431486,Right,-68.26861989756435,-69.02818078993778,-40.147916096528206,-57.74080507981762,150.96252519861082,-60.73254850692774,-66.15119546564556,-60.536731703968144
2025-12-12 18:18:13.435499,Right,23.137983618681574,37.19140925389388,61.48317678238527,32.24818503915935,-139.22068003040476,32.62976038530314,38.34242684633739,38.78896090732178
2025-12-12 18:18:13.441536,Right,64.0338939996127,67.88522011327359,92.05335217069296,68.48148596884766,-295.77250588458264,68.9804002665237,69.04733550233573,69.01755665692781
2025-12-12 18:18:13.444559,Right,-18.461955522783228,-32.98848683597524,-4.033661060268059,-14.883730284288959,-4.229717889516905,-15.565180045727175,-30.860191036005745,-25.483554839211138
2025-12-12 18:18:13.447570,Right,-61.79082662895826,-71.0275851398585,-40.571040808787075,-56.7413934026099,204.67040411245398,-54.49140408010044,-69.99481818067534,-62.34247116070401
2025-12-12 18:18:13.450544,Right,24.958194114418234,32.4290460069592,59.49097227281163,27.698407793272054,-52.492499122352456,34.60341862666883,30.82760854525077,34.92450260548139
2025-12-12 18:18:13.454559,Right,86.2535560405795,88.5658429631685,115.07277508088009,84.37760133887878,-292.6403615493764,91.18120922173512,86.25803460458428,89.00205414755328
2025-12-12 18:18:13.459568,Right,9.157770501596133,-7.655964464288445,23.36949736547831,7.050498615742072,-67.77178785517754,10.360763476283864,-8.346325999724286,-1.7318835933529044
2025-12-12 18:18:13.463598,Right,-62.44446618658685,-78.16599014662779,-45.3375637494828,-60.95700916316309,198.1516313852153,-57.923519189418585,-78.07492758904118,-70.34801592537224
2025-12-12 18:18:13.467708,Right,8.097935263814179,10.019199262110305,38.60839691510046,10.108329755285013,3.5914076225380995,15.317289783510205,9.074924720542185,11.484268449814408
2025-12-12 18:18:13.470597,Right,96.56640398279796,97.91173182187777,123.72556709166383,95.51992794728721,-289.3187879115467,98.57180883097317,96.5936063347699,95.64589240472378
2025-12-12 18:18:13.474628,Right,46.71425283379358,28.572838806634536,57.55631198913761,45.690300060517984,-128.35133356725055,42.8022750769378,28.5488187455594,31.641510479945282
2025-12-12 18:18:13.478672,Right,-43.333096313941496,-64.92719743360158,-33.63582383313042,-40.066439721225834,197.71183354275854,-44.55505903103949,-63.81558686411154,-56.98738254147065
2025-12-12 18:18:13.482584,Right,-8.182771663449785,-11.805484319864263,15.66502942918305,-2.873936449361281,97.78827427341639,-3.007879665494329,-10.0229918853438,-6.615662636560955
2025-12-12 18:18:13.487643,Right,76.6733684079918,78.18673873161242,101.92747675481951,79.93996018087091,-220.44151482370944,82.54563038192646,82.4737543694846,81.91569311396597
2025-12-12 18:18:13.491709,Right,41.73203450449182,25.637335160850853,51.83083789403463,45.24190683114648,-144.80128293864982,45.78108837530999,34.22106457352311,37.151328708911024
2025-12-12 18:18:13.495683,Right,-52.861853491669535,-76.26480262076802,-46.98893955715175,-44.41931439259497,192.57931414685663,-44.877215703583715,-65.81076553723324,-56.969198702008725
2025-12-12 18:18:13.498763,Right,-26.42393055170578,-32.46852176165521,-6.490051849228621,-15.058542631417367,162.0956437253044,-12.814767170617415,-25.090381897605766,-16.355229648663226
2025-12-12 18:18:13.502750,Right,82.97811598217231,87.74298311606617,108.53942374081089,91.11513307449059,-184.57614891139565,93.51479347411441,90.29781730503237,96.3901792267061
2025-12-12 18:18:13.506745,Right,84.39289440301945,74.54350218567015,95.81200228686066,88.68604040330683,-209.84723950211446,85.42036857457788,74.3538222322968,83.31057629023053
2025-12-12 18:18:13.510748,Right,-15.32848525872032,-37.08696054138818,-13.151117575354874,-10.466582740591548,119.80272485358819,-18.447766011218846,-38.814065836688314,-24.686286380077945
2025-12-12 18:18:13.514692,Right,-27.85753794417178,-36.566035816631484,-15.552735058474354,-21.904450914465997,175.14792030532135,-28.215087734188273,-40.72612379081693,-27.89574280301531
2025-12-12 18:18:13.519732,Right,65.83011052132679,70.26801650836933,85.48308553262905,69.09830191587753,-155.71311496537055,65.56899933415116,64.4086761859271,71.76116517378614
2025-12-12 18:18:13.523790,Right,84.92314842669475,77.82691788277589,92.71422635007184,85.89342428252712,-257.94800191143077,79.92290368479371,73.43309419745492,80.7047099700685
2025-12-12 18:18:13.526766,Right,-8.487202694714142,-29.832510300080685,-11.338171823219454,-4.570407087219792,58.17547367480165,-14.481444442368229,-31.2842458586656,-19.322260760738573
2025-12-12 18:18:13.530770,Right,-37.51927170501949,-48.56178572615863,-31.173148456065974,-29.76940830941021,201.3361227313384,-38.61176994488051,-48.89510679707746,-36.982428872615856
2025-12-12 18:18:13.534783,Right,56.87164975680935,61.63724649723554,73.35973295634176,62.76734107060838,-95.05378923451667,57.5135808955165,60.985157228675234,67.43255132064951
2025-12-12 18:18:13.538784,Right,103.28848318090968,99.33038940664846,109.32806289913424,104.34740221940592,-275.1058619862624,98.94807722446785,99.4602330439593,104.36105939796471
2025-12-12 18:18:13.542752,Right,19.160387875799643,-2.660890724910132,10.643079563880747,19.25248155405643,-1.2181897024993305,11.801045239866653,-1.0649195556870836,8.112127385924396
2025-12-12 18:18:13.547815,Right,-36.18547815625061,-52.38080152751718,-38.68761309077672,-34.2424950943132,215.17451360821178,-39.70620310450977,-50.965325445507915,-40.671400378956605
2025-12-12 18:18:13.550827,Right,38.81423213393646,41.263692031414394,50.64657994108711,39.70190593495863,-27.908374034957887,38.28404373642479,41.581672384494595,46.818714383534825
2025-12-12 18:18:13.554818,Right,98.03431487034686,98.68277937509993,106.68205322444555,96.27199516567634,-270.85447026672955,94.1890247163683,99.87426108278669,102.38465079805974
2025-12-12 18:18:13.558855,Right,22.817987764046848,7.335082187779335,19.205437477648957,22.8427941084301,-53.79198832477414,16.792653710053855,10.989644231758575,17.17540211629239
2025-12-12 18:18:13.562845,Right,-53.9954379063347,-66.35160831286703,-53.17323002070043,-49.09137265201207,222.2578323192174,-54.45371678522861,-61.95364223026991,-53.53244600083417
2025-12-12 18:18:13.566814,Right,4.8149706833282835,12.055190385264723,20.369256618330837,10.216741376862046,46.10973432790706,10.689531428874034,15.332969736944506,19.564211581160635
2025-12-12 18:18:13.570873,Right,83.91686429177207,92.34042703677551,97.05832746691158,84.82336776333977,-246.77418923844198,88.37580543999866,96.21730684141221,96.96648427889522
2025-12-12 18:18:13.575928,Right,30.00123560430802,19.09413511134335,26.338987207360333,28.553764066004078,-102.5170109063838,30.074376738644787,25.940337380641722,29.719533876770583
2025-12-12 18:18:13.578920,Right,-62.21116972079835,-77.86449285977505,-68.48970314132748,-61.64624109731085,213.5422106598562,-60.739102439329145,-69.49837719842617,-62.60872464784552
2025-12-12 18:18:13.581909,Right,-27.40124370324338,-25.452194824400067,-19.799648097225145,-26.019653719347843,112.29895379511436,-21.53345056370381,-18.448828663000313,-14.964016898240516
2025-12-12 18:18:13.586926,Right,62.14125129309832,71.0008355095888,72.97606929707035,61.13263016415294,-216.81495929709126,67.85110253707899,77.39256779202697,76.54697744753503
2025-12-12 18:18:13.590927,Right,34.069253564000974,27.46771718089076,31.96772280503137,32.85660412974539,-159.3523204387202,37.74911026908376,36.28283427166025,37.33837287822462
2025-12-12 18:18:13.594916,Right,-60.23246889888105,-73.61331574805445,-65.56318977487899,-57.4037297400464,175.41625051234587,-53.49103194498457,-62.457378210314346,-58.112528756075335
2025-12-12 18:18:13.598954,Right,-42.49350837203383,-39.196371109279426,-33.58512957706989,-37.588880263112515,159.71627030089076,-31.67315470966423,-29.158565185603948,-27.945194291954977
2025-12-12 18:18:13.602970,Right,57.22064686517115,70.79564892847338,71.86844910975196,58.43452954585882,-176.81348354520742,63.74841735190785,77.67829856946992,73.29507959192415
2025-12-12 18:18:13.607990,Right,55.600767438783805,54.27861641292475,55.843878411502374,52.7963761633946,-200.68275322180853,52.27703847431985,58.977785159298946,55.00567459149897
2025-12-12 18:18:13.610939,Right,-40.36591232024875,-54.058468687675486,-50.15013925007588,-42.5756243284377,141.0580611633486,-47.469510751008784,-50.60940463537918,-51.00769194986424
2025-12-12 18:18:13.615009,Right,-44.93830084921865,-45.74465592744673,-45.10375391855996,-45.78659899426202,220.0312249386552,-48.485213656924316,-43.6843626875343,-46.14608349023183
2025-12-12 18:18:13.619006,Right,58.40730038973925,71.31602529164593,65.75427367669545,55.37276148558158,-101.31102095557435,56.01781819839016,73.0622540073091,64.93930967977576
2025-12-12 18:18:13.622961,Right,82.73608433130721,84.56698922027499,78.36461700980726,77.9566250291864,-214.61429911393498,76.75987239859023,88.02007849961592,80.11458299634614
2025-12-12 18:18:13.627016,Right,-15.326466455746413,-28.089766970675555,-30.37626565449682,-16.850047152627667,97.00136557548831,-21.298610393627314,-23.392722077733197,-25.895523232968117
2025-12-12 18:18:13.630993,Right,-52.83888501623369,-55.491265006177855,-57.750316764286254,-50.73039481959495,255.35894417146483,-53.4925328260033,-52.44183657489339,-54.19617428280253
2025-12-12 18:18:13.635053,Right,41.79032591699797,55.71889381802612,49.312228884555225,41.45199399699777,-29.90540816093562,42.24004496295311,56.5637669283642,49.7970342349945
2025-12-12 18:18:13.638056,Right,97.69803405797211,103.46284492957784,96.73408753837793,92.42314631025874,-218.28734099715075,91.78617133692023,105.59749059909154,97.2763777279979
2025-12-12 18:18:13.643084,Right,19.80999990339842,6.862937942256394,4.4864580395769735,15.089141242566257,48.92844790399977,10.01819167170106,12.972409691639768,8.734131078123028
2025-12-12 18:18:13.647082,Right,-38.11805555027968,-46.58643277756346,-48.24964544252725,-38.10422149774968,275.7967740486929,-43.64619930639674,-38.48492221164997,-41.649408050463535
2025-12-12 18:18:13.651097,Right,33.94536930286267,44.095622649998404,37.27421175406562,34.92020076144399,40.23387961889239,32.07788856710249,50.72086493236566,42.77098058197589
2025-12-12 18:18:13.655046,Right,95.54623355103831,103.77691398719617,93.80475274485798,92.8531962686393,-212.72897496486985,89.40521174114838,108.42026649980471,98.41290289115932
2025-12-12 18:18:13.659122,Right,21.900247495363146,11.750861159074702,3.984788020930864,17.294038012929377,0.024148196091118734,10.421028440025111,15.582227939066797,10.232164257631666
2025-12-12 18:18:13.662111,Right,-58.056885036217864,-68.56077014658513,-75.9325383344767,-61.61995098907573,296.5268610859421,-68.08222005701828,-66.00733953905728,-68.33971181703237
2025-12-12 18:18:13.666163,Right,0.0680795779080654,7.422773782975128,-5.3211893575316935,-4.8544971978299145,141.07452213949,-6.9756179240575875,7.6201290547978715,1.1860461548021703
2025-12-12 18:18:13.670162,Right,85.8067013498985,95.34616460248435,78.43951472525805,76.62656710563897,-159.2015713650544,75.78517365267908,93.89948775376615,83.7051896058183
2025-12-12 18:18:13.676218,Right,37.80976560178169,29.964935876385425,15.203671005798242,27.36498872256925,-32.964102758152876,23.650618153682444,27.62740258548729,20.61731913310723
2025-12-12 18:18:13.679165,Right,-57.19062369563835,-68.66177657111257,-81.1962064939762,-65.2681100629743,287.2732791747403,-68.98344325537255,-73.33263517318483,-76.59676992756431
2025-12-12 18:18:13.683194,Right,-27.04666353137145,-20.89862935613928,-37.05135665382841,-35.76523224421908,204.3076400787977,-34.546800272473774,-28.708346356404945,-35.04378327762606
2025-12-12 18:18:13.687193,Right,66.41577036023591,78.41820760755218,58.23695521193622,52.567974347093696,-123.8017672214628,56.396741140393715,70.44739911832221,59.62914369090504
2025-12-12 18:18:13.690207,Right,45.542588476611854,39.85596284460917,21.897765935293137,29.51194393708647,-79.99635975199635,29.811477431347157,35.35667059628395,26.80200157642321
2025-12-12 18:18:13.694224,Right,-50.74037936362947,-65.50914979559457,-79.53069260591656,-62.455866738178884,255.94925181397412,-65.2030800041066,-67.0735179434705,-70.82369025384833
2025-12-12 18:18:13.698227,Right,-40.4679211137518,-38.97030407654529,-54.650176798435496,-48.26247802566286,256.18315335431544,-48.16193211716018,-40.91926761879586,-45.87369191199468
2025-12-12 18:18:13.702251,Right,60.789140338594734,74.11879149265224,54.55491253805849,50.94880722463131,-80.43551836453844,54.71376885404243,70.7288839009343,61.734939923135244
2025-12-12 18:18:13.707252,Right,68.96462065160085,68.50696988885466,50.23069887834026,55.97873360151425,-125.90196104864299,58.40604390080989,65.27568038093523,58.22543056149516
2025-12-12 18:18:13.711237,Right,-24.64503857191812,-38.232121990062296,-52.71331825460766,-36.022604921679886,202.04565909127996,-36.37044297991815,-41.08668976690751,-42.43817889054117
2025-12-12 18:18:13.715340,Right,-38.59207119617349,-40.26215114540901,-56.1208611815382,-46.944149000883044,285.6091562440997,-46.435746256745915,-44.58236064778612,-45.63201512849264
2025-12-12 18:18:13.718302,Right,56.32794218248819,68.89738570421105,48.47798294189852,47.11975336214891,-37.46409752477484,48.88738441892747,62.9277259322771,57.77962988854415
2025-12-12 18:18:13.722287,Right,79.92108226607888,82.2443527579635,62.31718400216232,68.82954207534931,-169.6962100245728,67.66671870232312,76.83803761604213,72.27039821905055
2025-12-12 18:18:13.726262,Right,-18.890930188430502,-31.80203946376787,-47.03644615001576,-27.886866529985127,129.20461049808364,-32.376643687081014,-35.987832297461864,-35.361659502646944
2025-12-12 18:18:13.730317,Right,-61.45748713883586,-65.61560420270689,-80.41023916789527,-67.42390645058913,293.055770800318,-70.15010306196746,-70.7630717700631,-69.4997517479569
2025-12-12 18:18:13.735314,Right,30.42586594786917,42.50091064412118,23.50438696836318,22.760241832384054,8.39063178448123,23.220139495075273,35.34495572305241,31.73364633226447
2025-12-12 18:18:13.739339,Right,88.69701816251836,93.03345698784324,73.4378434531618,77.44524511671989,-198.87996232435398,75.61001723769914,85.9930353961172,81.37134665246776
2025-12-12 18:18:13.743327,Right,10.762602990584128,-3.7351305651463917,-18.965466735362497,0.8349902119334729,53.35407212242717,-6.520339077156677,-9.121354045222688,-8.357847165705607
2025-12-12 18:18:13.746355,Right,-53.24007725731644,-63.65939828557748,-77.63595838753099,-58.504514376229054,289.9085015281307,-67.18351929853452,-69.31839115482217,-65.6566385694332
2025-12-12 18:18:13.750345,Right,15.377316260884982,24.357148669911112,6.046851890127073,11.097500574516744,68.348041792211,4.911712093287861,16.477696807887696,16.489913465222344
2025-12-12 18:18:13.754314,Right,82.75162899243878,91.76772804332722,71.19034244548357,76.14035168470582,-194.06986196755315,69.82713866421,83.4812661681899,80.86954482203691
2025-12-12 18:18:13.758407,Right,16.587674841975968,8.81096443286151,-8.510757668355836,10.792457159619516,-3.262695604003966,1.49771941499057,2.6080235179797455,2.962621922904873
2025-12-12 18:18:13.762422,Right,-63.09293459013497,-70.4730733354263,-86.18109871295337,-65.1799207361255,285.3937350502529,-74.62544508607607,-76.18670330745954,-74.07092533074865
2025-12-12 18:18:13.767359,Right,-6.628900808416802,4.696172109430336,-15.310749685201927,-9.142629672667681,131.12566990565392,-15.90592425232353,-4.0273730897934,-6.141341309026757
