timestamp,label,FC3,C3,CP3,Cz,FCz,FC4,C4,CP4
2025-12-12 17:19:52.972242,Right,433.23783124341696,260.75543788539517,340.36706103468237,338.1635283294017,1690.748677587178,1911.8013832585998,1523.6512158951716,3431.452541683752
2025-12-12 17:19:52.989290,Right,2329.7313359262453,1401.6906311286784,1830.4027401615253,1820.6377965352235,9099.075774377114,10290.19346813959,8203.578536376164,18468.381652642405
2025-12-12 17:19:52.993302,Right,5324.435572825501,3202.2831697154684,4184.579644999686,4168.396096857726,20819.838027083064,23550.920933033496,18784.56977226678,42265.13021597349
2025-12-12 17:19:52.996305,Right,6626.954712460043,3985.3767836576526,5213.337415611218,5201.4812042508365,25954.94466879168,29371.013907514505,23443.94583599909,52708.08065046155
2025-12-12 17:19:53.000324,Right,4439.956703517735,2674.2630484476895,3502.795694083352,3497.0320777242505,17416.295855167,19720.72620627482,15757.23995467832,35394.831635322844
2025-12-12 17:19:53.004330,Right,436.31099631996767,273.92074538708766,357.54216390879446,348.40779684022345,1685.965859582182,1915.7939987781865,1536.6218987685133,3451.377563418122
2025-12-12 17:19:53.007396,Right,-2553.384190650402,-1522.493645025148,-2002.693750728933,-2010.950530650145,-10094.344127051241,-11430.216626451554,-9136.559399728663,-20502.503755388258
2025-12-12 17:19:53.012353,Right,-3299.6709507104097,-1978.4500803895498,-2599.4752165803075,-2591.0972645533475,-12999.978367938631,-14719.76772104064,-11758.82408181901,-26422.075535485114
2025-12-12 17:19:53.016359,Right,-2378.988751184588,-1430.4517115201525,-1873.4454589892339,-1853.314525385511,-9319.380210847477,-10541.709174052754,-8403.158536491683,-18930.946713702404
2025-12-12 17:19:53.020378,Right,-1055.5202558867459,-631.8222201350945,-825.4404840747011,-817.242578747886,-4125.893614791217,-4661.251724777219,-3708.675054861349,-8366.781362882466
2025-12-12 17:19:53.024338,Right,-323.1603882928903,-187.70608859752247,-250.35526652781118,-257.83755040545657,-1310.5815446442575,-1486.3738781667198,-1193.2555138801108,-2660.556478732731
2025-12-12 17:19:53.028401,Right,-469.5460714014771,-278.63096811303694,-371.0881726249936,-372.50969774428813,-1887.532453913649,-2142.5078197943512,-1718.843061852036,-3845.310721682268
2025-12-12 17:19:53.032440,Right,-1076.9401959960815,-647.6485021682165,-847.3838525603787,-834.8571859287913,-4210.953198851086,-4760.8015092614805,-3790.442246077291,-8551.104946509935
2025-12-12 17:19:53.035419,Right,-1457.3436585509917,-873.8318680974917,-1141.0252706661413,-1133.2025869111385,-5693.225038978271,-6434.477049296256,-5123.618264465011,-11547.60435188096
2025-12-12 17:19:53.040421,Right,-1284.3764028569858,-766.4375097753655,-1007.0843278988468,-1012.8352023470507,-5071.168680564617,-5742.183750723139,-4590.345938970859,-10298.299727012869
2025-12-12 17:19:53.044457,Right,-843.4230675733997,-504.87868361866276,-667.4570337387122,-669.1599000946007,-3352.1250081078615,-3802.235558729735,-3047.179635383538,-6824.2880085371435
2025-12-12 17:19:53.048466,Right,-628.3021845362091,-380.86865182097245,-497.55687875628064,-485.0684768695064,-2443.263157764799,-2761.887250034022,-2197.252529591322,-4965.057442022022
2025-12-12 17:19:53.052467,Right,-767.4261265659879,-462.53747794328956,-599.4603039021458,-590.1864508573199,-2961.7993644817034,-3340.8954443145776,-2651.141045804834,-5996.261198651511
2025-12-12 17:19:53.056485,Right,-954.3962413231493,-569.7239883228904,-746.1433704485244,-752.6666042004508,-3753.935852817958,-4248.2423568425,-3394.539811214898,-7614.440680386964
2025-12-12 17:19:53.059445,Right,-896.044536999776,-536.1959057955683,-708.1594238206453,-713.9582441466919,-3560.781612694962,-4039.6663686472457,-3239.8362907388946,-7246.857019800693
2025-12-12 17:19:53.063482,Right,-664.6917347811395,-402.89289614744484,-528.1233862008085,-517.7074792416242,-2599.6132775639417,-2942.8207047957694,-2346.7370532583445,-5290.9233039622195
2025-12-12 17:19:53.067535,Right,-544.1555862494861,-329.92015014833305,-425.69834679353517,-413.6225390555046,-2082.4363193776226,-2346.131096300436,-1855.3911672475515,-4216.340961115202
2025-12-12 17:19:53.072522,Right,-637.2775127695058,-380.15354244109767,-495.7073277630261,-500.0310892997368,-2493.7203595952597,-2818.8714979314245,-2247.6619937532814,-5052.040405783802
2025-12-12 17:19:53.076481,Right,-754.5097902020207,-450.5507501261891,-595.0916157604661,-603.9926795668725,-3002.979047870147,-3407.723123587086,-2735.1692931455327,-6110.404104009038
2025-12-12 17:19:53.080556,Right,-687.2884824039647,-416.42503260409285,-546.9224284411175,-540.4216535409505,-2698.0589726277394,-3057.4160881722346,-2443.8726598604117,-5494.230251669884
2025-12-12 17:19:53.084554,Right,-483.75193987134844,-295.8401382744487,-380.91316468192963,-367.66730367872515,-1840.733873822377,-2073.983831489808,-1640.1527240813011,-3729.391916419845
2025-12-12 17:19:53.087576,Right,-375.89601071891957,-225.72906866081757,-290.8208347875334,-291.96156425448135,-1445.8493027763907,-1630.0548033493105,-1294.4904381566448,-2920.234527919907
2025-12-12 17:19:53.091574,Right,-466.70926043679356,-278.24123466083256,-367.3160239403369,-377.44979576944024,-1861.229317465215,-2113.232688861317,-1699.6192111842101,-3785.315127839567
2025-12-12 17:19:53.095608,Right,-591.3288207604783,-358.32883460972516,-471.25939114784705,-468.7982304907928,-2328.9381878392305,-2641.404374060221,-2115.4780056215823,-4744.852385514183
2025-12-12 17:19:53.100603,Right,-539.1691614503216,-330.198593690453,-426.4820969938155,-413.6573592665518,-2061.5180138392607,-2326.021220792667,-1844.4144883587724,-4181.989900519373
2025-12-12 17:19:53.104618,Right,-342.70304096172913,-208.34686711484392,-266.34923982324835,-264.5591234671738,-1298.7630082702963,-1462.3936401753454,-1158.7256866443204,-2620.2196127381176
2025-12-12 17:19:53.108647,Right,-235.12760665887618,-141.18865078310773,-185.30941360048018,-195.10163574648323,-931.5785108760465,-1058.9525694982149,-856.3149083402241,-1890.1445419634692
2025-12-12 17:19:53.112648,Right,-326.2578858937486,-200.3529948870273,-263.2592840587604,-263.76046377877356,-1279.6839837342268,-1454.195866305614,-1170.6422028673114,-2608.5635884741787
2025-12-12 17:19:53.115713,Right,-448.81063838646514,-277.61054521764163,-357.0992678352195,-345.35561470298853,-1700.4190986799076,-1918.316120307427,-1522.006601014873,-3447.1544347170275
2025-12-12 17:19:53.119664,Right,-396.7836158750288,-242.6299976351729,-309.9204890162946,-306.1703545823402,-1498.307928203838,-1687.171912580845,-1336.9692079176311,-3023.8387311475817
2025-12-12 17:19:53.123685,Right,-215.53752698842436,-129.5725999432616,-169.25765121827135,-178.64929034719535,-849.4718126597581,-964.9057818417205,-779.3953162722173,-1722.0837011232506
2025-12-12 17:19:53.128715,Right,-127.80442323788884,-79.67819604625402,-106.42826846921525,-109.43450183984532,-513.3506239383714,-588.3980138344923,-480.9937149329926,-1055.6566006337525
2025-12-12 17:19:53.132629,Right,-213.0087023243832,-134.86363124162017,-171.80275379001978,-161.20345567679033,-788.9256050210097,-888.6185828223825,-701.383031036763,-1602.0218930003466
2025-12-12 17:19:53.136701,Right,-308.26475396975,-189.47046504436003,-240.1110698995908,-234.67242848212481,-1149.430186272657,-1291.3681441326626,-1018.5066490806639,-2316.654065182316
2025-12-12 17:19:53.140674,Right,-255.0775779459509,-153.3600172730221,-199.3493469421228,-208.34982545798994,-998.2866085852147,-1131.536202166928,-910.2106701835874,-2021.0797384864418
2025-12-12 17:19:53.143732,Right,-114.5774811872252,-71.59867815468169,-96.04096711556485,-101.53247943938186,-465.40142225526506,-535.129756547627,-441.1939643296646,-957.6375742123928
2025-12-12 17:19:53.147736,Right,-56.45866657032457,-41.667134272051044,-50.33605776898912,-40.802095975508564,-178.93403012835188,-200.28074573894264,-155.24747171998024,-366.06645320600364
2025-12-12 17:19:53.151748,Right,-117.5781243130914,-76.41682173874142,-90.99363025720231,-83.24741818301845,-391.69595194165595,-432.84399754792685,-331.1384800149244,-777.500143181067
2025-12-12 17:19:53.155776,Right,-176.08816240316082,-105.94473027884669,-135.7814569897164,-143.6713903050113,-678.7001934739528,-767.4834487250773,-615.7519070495036,-1368.155639192788
2025-12-12 17:19:53.160761,Right,-136.2845253564592,-82.73989544389042,-111.62940651936515,-119.9544606216732,-561.7844162049005,-645.1751133189537,-530.3933626281214,-1154.3462315725628
2025-12-12 17:19:53.164777,Right,-42.28479833173333,-31.459259049617685,-39.76907180652779,-32.47332247102895,-145.21306146739516,-165.54084181640064,-131.5455665907939,-305.7929204138927
2025-12-12 17:19:53.167766,Right,5.3344096924120095,-2.302788745255384,4.857548223910271,14.624394744656456,83.80866578751011,104.6949976424803,98.99537036704714,181.87748899671715
2025-12-12 17:19:53.171802,Right,-20.791636698369985,-12.2310118924579,-12.261938641764573,-18.040869575095712,-63.655648027255666,-68.93949090817478,-53.2676454425673,-117.9717111880891
2025-12-12 17:19:53.175768,Right,-60.30999999578489,-35.32035123469905,-49.73038315343729,-60.36251686482865,-269.87604413271765,-314.48557955256547,-265.8410380393907,-560.2359021236771
2025-12-12 17:19:53.179823,Right,-48.47857005152764,-33.52797485551855,-44.50297670111104,-40.39901072167777,-188.70533519473975,-217.8745513210597,-177.26802951999707,-399.36545167904114
2025-12-12 17:19:53.183829,Right,13.432625192170235,2.604620857768168,10.16830514074536,21.08204760762237,106.81404678887338,129.02439624030376,117.8676832462661,222.42957785230828
2025-12-12 17:19:53.187834,Right,65.63619627342268,39.337463287172795,56.229297696867434,53.30896631467476,281.8748509603611,323.90861752255296,264.62636657782423,584.055956515891
2025-12-12 17:19:53.192851,Right,60.25318478050394,37.93352358574157,46.78749800114929,35.10058649722123,203.92138370767498,222.83680932800053,164.65308964878204,405.0339008496085
2025-12-12 17:19:53.195858,Right,20.686870374704085,8.916567769516405,9.939765711388645,10.727257011085385,72.08644757268485,75.20515980952769,52.85974810820335,129.14700769287447
2025-12-12 17:19:53.199863,Right,14.99275680208109,2.6886569609273465,9.668281183680392,20.732935923596187,111.53818188669084,132.84447926349912,118.53803275712926,229.6329440042955
2025-12-12 17:19:53.203816,Right,65.4138276292224,37.532004309949116,55.309660273928785,55.262888956272946,296.0826735441733,341.78608161431475,281.5618928944823,615.8156084656948
2025-12-12 17:19:53.207849,Right,115.51920227357186,70.86059530529201,91.1898790802461,79.47915100255159,430.80729245422117,481.36977455164015,372.87737228598417,871.1080430084548
2025-12-12 17:19:53.211914,Right,110.36345870500736,63.667660595723646,80.79290271323771,78.63213757887752,416.62757518855506,463.6823069528473,360.06179658790643,829.0478174015007
2025-12-12 17:19:53.215856,Right,75.8788942225292,39.33247963987924,56.48520194082812,67.07220319504995,343.77894072602794,393.8973535625846,324.57374192796124,697.9215810825699
2025-12-12 17:19:53.220923,Right,76.43638788896351,43.45254808457685,63.651161739402596,66.22634609898523,347.0942560498079,400.7938808866602,331.20872144776513,719.9274873295217
2025-12-12 17:19:53.223952,Right,117.72511312966526,72.57607603618817,94.21102703137876,83.01200030000473,445.41133166252985,499.69760589901125,390.0661618321028,904.3348720596405
2025-12-12 17:19:53.226946,Right,146.78170366927225,87.14214452667147,110.23412789309077,105.27654756905395,547.9276177236461,610.9089233728591,475.2584055721527,1094.696353895415
2025-12-12 17:19:53.231956,Right,139.38792162502068,78.45866231623222,105.6918477844738,115.21094160125358,578.0754598832864,656.6677245748579,531.5257331471657,1168.095580956142
2025-12-12 17:19:53.235961,Right,128.25054374503088,74.53115636811708,104.15929406159557,109.18653792380064,550.5475400660362,631.7015905888984,517.7716435133188,1130.8459379539127
2025-12-12 17:19:53.240047,Right,138.60039779165527,85.5772145122246,112.08403849545721,102.0471299472556,532.5621091198991,600.4478009079467,473.9163908948831,1084.2316910687368
2025-12-12 17:19:53.243958,Right,152.56135759112658,91.83541378153313,115.80273532650608,108.36312916907627,563.7189880557708,628.1292955094832,487.3754131537862,1127.7845153480303
2025-12-12 17:19:53.249016,Right,154.5478994664445,87.82370517183153,116.56752201473864,124.53162205974513,628.0257996247965,710.8814520164742,571.115962790791,1266.5448621663963
2025-12-12 17:19:53.252014,Right,160.5367984600598,92.78522783558583,128.38048599523609,135.70490953192348,683.5279492830741,782.6483718432719,639.2210771313985,1400.7708507516654
2025-12-12 17:19:53.256059,Right,177.63578425033484,108.4114012781647,143.5432320870459,135.34988332539797,698.9560386057128,791.3792300080531,629.8425571335247,1427.2929573032307
2025-12-12 17:19:53.260029,Right,181.2578884777322,109.9752358465339,139.5460550487478,129.9428806574433,674.3413755570655,753.4586178364116,586.5719258767203,1355.3736251707887
2025-12-12 17:19:53.264026,Right,162.9574833147053,93.698262152393,122.58979806648858,128.28056666674092,648.07332631998,731.0750014893711,583.2883963334025,1303.8143254833994
2025-12-12 17:19:53.268049,Right,157.94006170115608,90.77462795798783,125.14473732413899,134.23192478319106,671.7850959946518,768.7866151109338,628.2075010465342,1373.8353188334731
2025-12-12 17:19:53.272099,Right,187.87712309566268,114.1315615997155,152.01662546260923,146.30768801849626,748.670505824557,849.7627013749443,680.116672926757,1530.9728661811678
2025-12-12 17:19:53.276105,Right,215.0252522022347,131.0778244411049,167.2508073884528,156.2960161882802,806.5876015417743,903.6615219542291,706.6658801065641,1627.1735813334817
2025-12-12 17:19:53.280085,Right,198.55162884946913,116.025766505918,150.27620564540848,153.46731698959775,776.048469827103,873.715266144136,693.4391151382588,1561.7738866619766
2025-12-12 17:19:53.283189,Right,165.37105081076152,95.15947037302249,130.03781970088312,140.2699452835659,696.8727943935664,796.3523207973922,649.6553017110564,1421.7494583004154
2025-12-12 17:19:53.288101,Right,171.61397843429586,104.5980439982377,140.08986632485176,137.02271207813465,689.0743840376381,784.2916150480742,631.8150639387895,1410.6621017307043
2025-12-12 17:19:53.292163,Right,212.89907449114253,131.86756932910066,167.77907684617094,155.9452004993218,789.5719719633926,885.0822174714413,693.5327730430872,1592.6332250304986
2025-12-12 17:19:53.296284,Right,230.71989522551303,137.82383884133014,176.38009283988504,176.7672048630484,879.1715111847734,987.8908104626462,781.7920198522042,1765.607310139807
2025-12-12 17:19:53.300124,Right,203.41994893661467,118.48176502516435,159.1027485550585,169.83705082006054,835.3449985246407,951.4390786844306,772.3857335589128,1697.6729910792783
2025-12-12 17:19:53.304169,Right,174.78702913463349,105.28032225975767,142.34696491908107,142.10561322975263,714.4499035808258,815.0199228276033,659.5328476028517,1465.3162715884391
2025-12-12 17:19:53.308190,Right,183.33013299584854,113.27114157751203,145.2593746788334,133.1872449432849,688.10144873627,772.2568678406533,604.6877067305613,1394.374962690752
2025-12-12 17:19:53.311224,Right,211.26796454555006,125.98388785490533,160.71058582991827,158.11990714768763,802.0018008038169,899.2807191477623,707.0536864899332,1611.7998812757432
2025-12-12 17:19:53.316137,Right,221.25671768089524,128.53654038747482,171.5082624053175,182.02404939263943,902.42965641513,1025.830416445504,828.8863703792449,1832.0905573458876
2025-12-12 17:19:53.320201,Right,207.00805241489434,123.82747893457417,167.37001432449324,170.08894561853958,848.851673708763,968.8842283475678,785.2556653550128,1739.3945160303265
2025-12-12 17:19:53.324351,Right,188.41880438290536,116.82793091099302,150.87528484969516,139.4481254259299,713.5540209203027,803.4265665604034,632.6199197217356,1450.4408095553517
2025-12-12 17:19:53.328168,Right,182.80915198518778,110.12015585605695,139.11738788866205,133.65934026514878,681.1262060528388,761.4617921933532,594.4442547524814,1367.026857584715
2025-12-12 17:19:53.331230,Right,195.00631919692387,112.62334792724869,149.45825140472152,158.97352658456657,791.201403323561,897.7093984576641,722.8849774488481,1603.15746188513
2025-12-12 17:19:53.335232,Right,214.48848095352878,126.89817195637443,172.13584127946524,177.72916120375157,887.27109928336,1013.303279644344,822.3218364183558,1818.1287979700137
2025-12-12 17:19:53.339272,Right,216.39396364003187,133.2966118757904,173.94462271095836,164.15756069566123,835.2311692031799,943.771656188881,748.2311876302119,1702.9031127265189
2025-12-12 17:19:53.343275,Right,189.89106487168465,115.74553950567497,145.96789655281464,138.10805669394904,702.757784557296,785.6508961779764,612.532954636612,1412.8274784223177
2025-12-12 17:19:53.348267,Right,165.72443976416253,96.11010634036211,125.88917390065035,133.5820053803036,661.19309498847,748.052966004936,599.8170888232999,1334.6394168036059
2025-12-12 17:19:53.352310,Right,181.6707015336724,107.12759299390018,145.6344086699828,153.3862177489209,755.1999841756187,863.6377521455288,703.8737210300751,1546.115458086133
2025-12-12 17:19:53.356317,Right,219.5400522594282,135.87274433816492,177.80500691218185,170.02965173654957,849.1885286705801,961.5432994534494,766.6619485869305,1731.6168956274632
2025-12-12 17:19:53.359307,Right,221.36648267009878,137.24617013847455,172.9066752604558,163.01369673220324,810.9288629455259,907.732726506656,710.5067299853545,1630.525325876195
2025-12-12 17:19:53.363331,Right,178.4085246362083,106.44173650823359,136.4557175822847,141.71779667786905,684.1136355762137,771.0521210184088,615.5251995618455,1373.3259710902348
2025-12-12 17:19:53.367328,Right,151.99229066021508,90.22590078365465,121.91920667488012,131.2590243286977,627.0272484667366,717.6193774498533,588.0844179391861,1279.6781285258476
2025-12-12 17:19:53.371282,Right,180.19495344682946,112.07209197025804,147.44589195220033,142.3035939381807,702.1369311914314,797.1975303613581,639.3584316925844,1434.981980818091
2025-12-12 17:19:53.375360,Right,215.62149052432505,133.82729451473278,169.2000042332511,158.2830692223506,793.6809187572217,889.1548782046884,695.7489001838258,1600.4695626681205
2025-12-12 17:19:53.380367,Right,199.23193840240128,118.5864447162603,151.9571241173544,154.84131806195364,763.2484019368421,859.0116682958324,681.5127396300668,1535.2742230186705
2025-12-12 17:19:53.384393,Right,153.28148935252102,89.50248895846016,121.2852954803675,131.6479870120529,637.4683158267289,729.1565388323506,595.8716993540293,1301.3711342215538
2025-12-12 17:19:53.387393,Right,143.46943818061845,88.75303195884044,118.58981233675149,116.00129559426568,572.4966403879225,653.0292191621847,527.2906515414361,1176.2165313409641
2025-12-12 17:19:53.391363,Right,175.52376475025085,110.24010582844494,138.95817152332165,127.21842846772051,639.5548617943423,716.0789674319094,558.4341694968753,1291.7159372023307
2025-12-12 17:19:53.395391,Right,193.1500614627439,116.1220703577419,147.2155016422621,147.36400548322126,726.9298238685587,815.9265005709603,643.5615074534435,1459.590002090903
2025-12-12 17:19:53.399423,Right,169.97684156388277,99.47149057373463,133.17771871041623,144.09815744281514,697.0631140061887,795.1440777759999,646.9474466869142,1418.5555205051787
2025-12-12 17:19:53.404416,Right,141.9347463499289,86.9112755262613,117.25293167523341,117.66570194222732,577.7740923590027,660.8968559206696,536.7840526622022,1188.985318366671
2025-12-12 17:19:53.408420,Right,141.74092836573254,89.74187622626778,113.53859784518136,101.82180375658209,517.4891185120214,579.8337568738498,451.4011683590943,1049.6683366310317
2025-12-12 17:19:53.412404,Right,154.67149272942333,93.05001692897349,116.84213836249546,114.128780132276,574.0551559648011,641.6323092798702,500.7898794906214,1151.2385590902995
2025-12-12 17:19:53.415454,Right,155.61119805488852,89.61232994926104,120.03073962702183,130.6472697725403,641.7432100920705,731.0072529240279,592.6722464052727,1305.3073605988175
2025-12-12 17:19:53.419478,Right,146.93873264617287,88.40156069368823,120.45130370106199,123.75757892781985,610.1134212133475,699.1587519483874,569.9386094331276,1256.7843783914577
2025-12-12 17:19:53.423502,Right,140.1538282193651,89.67605009961699,114.04636790120276,103.05039962477167,514.3644291850505,578.3838353612227,453.7387962039793,1046.2040842971765
2025-12-12 17:19:53.427511,Right,134.11979470198276,84.08024555098382,102.58596501563443,97.05781986776856,470.2649708145764,522.587976234383,404.4883034370141,935.9741479852237
2025-12-12 17:19:53.431541,Right,129.2427388583019,76.77645246752945,99.53193057075259,109.03139693965204,509.08361480140593,577.8420598660596,468.18781344778836,1025.5208456143737
2025-12-12 17:19:53.435514,Right,133.54355794153525,81.38631976938632,110.01891522741062,116.02370759472251,549.6866289399331,631.030820094631,518.082920964458,1128.8091362554114
2025-12-12 17:19:53.440495,Right,140.33684457777417,90.04280563250359,115.47832100643427,106.02382637842675,522.0936129832407,589.5400630135555,466.3112473039655,1065.2744445765857
2025-12-12 17:19:53.443553,Right,129.9615075296897,81.99275630283228,100.0470425542153,92.0504525420838,453.1671785922954,503.1392693523085,387.2954215441132,904.7188450845424
2025-12-12 17:19:53.447551,Right,106.79788358326186,63.04293901046913,80.64894185820594,88.24176154754241,413.87721181556117,467.907982515404,376.3511682981625,830.4219704018906
2025-12-12 17:19:53.451552,Right,101.32655181729933,61.07346238763421,83.53289486566791,91.69748597909347,425.7936803661287,490.9550962281646,407.0966493067099,875.6206640794408
2025-12-12 17:19:53.455587,Right,119.62649117165711,77.636093352834,100.23807296954328,92.95866778647178,447.84063307510223,507.9069596657064,405.3087619864382,916.9603413091972
2025-12-12 17:19:53.459605,Right,127.05198410045705,81.7775068343617,99.36067510250723,89.55049184092786,435.7181866678875,483.67340909305494,371.8084332694998,870.6496358499862
2025-12-12 17:19:53.464647,Right,103.93100559167215,62.30430788717058,78.01603702246211,83.3280460867536,389.9182703655679,438.62622409663163,349.3119126370875,778.7066357093863
2025-12-12 17:19:53.468626,Right,80.64166035331436,47.72163535909203,65.87867358495714,75.71806649405335,347.52044205938,402.1845186447026,335.9723819679348,715.2654811586253
2025-12-12 17:19:53.471611,Right,87.538919630897,57.10696534505405,75.07191501533089,70.457739436868,338.1260960884392,386.3490806048503,311.73487412091345,698.7864597155713
2025-12-12 17:19:53.475577,Right,104.17394833054277,68.16064808375086,82.33211508016393,71.40655818556843,351.273686574772,389.0451038280735,296.518880912452,703.600487818243
2025-12-12 17:19:53.479613,Right,95.9963752773765,58.053131980181206,71.3725508874486,74.14496363839135,349.79727750760503,391.01274986728095,307.39952291327063,695.3826032015495
2025-12-12 17:19:53.483651,Right,73.08958123027696,42.56594057813345,58.65489731162961,69.53053575968079,316.2491437328281,365.6880474690115,305.6948256812175,648.5067517445423
2025-12-12 17:19:53.487660,Right,68.62304432562087,44.90038683668536,60.3896450545144,58.61461849794432,275.1130743174581,317.0868623747956,259.8420744203031,572.8354278102051
2025-12-12 17:19:53.491703,Right,79.74394415644929,54.02188341256988,64.51763520992245,53.039570771041326,258.88372357352637,285.7892454973189,215.3420257511898,519.525217954535
2025-12-12 17:19:53.496718,Right,77.06730287370738,47.7561666352849,56.55637495980773,56.54445460932038,264.1725794519298,292.1881556104636,225.00367236562306,519.8667289644945
2025-12-12 17:19:53.499737,Right,60.10507025089464,34.43069390258461,47.01147028304695,58.203179522650316,260.48628257471137,301.07199018110987,252.17568536446197,531.8922467580996
2025-12-12 17:19:53.503776,Right,54.973249798073084,35.287308021230274,49.16779696322919,50.28501504434098,235.03951966302702,273.64073605602607,228.1558938412927,494.099717031233
2025-12-12 17:19:53.507758,Right,62.61129282601178,43.045876479693106,51.97847464325605,40.53801354605821,204.87670356512535,226.77355791290756,170.20651914383052,416.4120700189378
2025-12-12 17:19:53.511751,Right,57.64561597233114,36.08973489362688,41.2925034838845,38.28670965752099,185.99598885403248,202.54909480025526,150.22792662575375,363.1963990991935
2025-12-12 17:19:53.515756,Right,39.4270968100318,21.28666795157187,29.20548637281172,39.830969381393516,175.45414748199983,203.02797788684256,171.0260721978848,356.6417170857312
2025-12-12 17:19:53.519763,Right,35.99696066220349,22.90109696800937,33.651638714640285,37.62259306512715,167.05374859570293,197.91095031425357,170.333393057168,355.72155139700044
2025-12-12 17:19:53.524066,Right,50.56485420206445,36.434502994365175,44.00663057237398,33.588526924548205,160.17263886221917,178.20510770898545,134.93745786102954,327.8166220529238
2025-12-12 17:19:53.526729,Right,51.70186618590378,34.54114991486131,37.890385829276056,32.37113448929449,147.63503048371058,158.05872525426093,113.25634886091575,283.3186618426116
2025-12-12 17:19:53.530785,Right,29.660932309619966,16.58745263437595,21.0124659135181,30.515846838985453,119.96876539767254,137.8802446568734,116.2608932282892,237.7475806636503
2025-12-12 17:19:53.535798,Right,16.16513752558967,10.741192302863055,17.67481677333126,24.156155253120232,89.38717478734907,110.64430131443078,102.63977894053096,195.41804631601553
2025-12-12 17:19:53.539892,Right,28.887143144544098,23.530796420505794,28.27682902800734,19.299507242176333,82.23578297300264,92.36095982120605,70.0143816115451,172.4812517099781
2025-12-12 17:19:53.543821,Right,39.71821603870194,28.35676890805189,29.562669150021975,21.58756762142002,95.23638636758551,98.39406836841954,64.35233233915642,178.1020028797211
2025-12-12 17:19:53.547851,Right,23.933651308121625,13.111816119861032,15.40081272921816,23.016169584647287,88.83072767412523,100.29237851459766,82.379358881386,171.64341731288005
2025-12-12 17:19:53.550844,Right,2.2309772103326395,0.2925009610989946,4.947780187736498,13.636924719656236,45.00138848734787,60.7505183579633,63.11459220777033,105.95285326975863
2025-12-12 17:19:53.554857,Right,2.7820480215304997,5.551090482003929,7.503186505455233,0.8412083038783749,2.94825932639651,5.577499956183601,3.71971502865199,19.129149117972702
2025-12-12 17:19:53.558834,Right,13.965169427567162,11.942686496018723,9.531678319988714,-0.10346069336083019,5.247100988985039,-2.628136718645692,-17.5546355881379,2.1409272694727406
2025-12-12 17:19:53.563888,Right,9.569568830862409,3.871348920110904,2.8311105115135433,8.223291901034827,30.705798942188267,32.5209782095626,23.687988735619,53.681130350450985
2025-12-12 17:19:53.567891,Right,-5.132787261667545,-5.543097840127302,-2.4535741017607506,7.893569055646367,22.35468199333991,34.76311501895543,41.858396508032456,58.9773356296937
2025-12-12 17:19:53.571894,Right,-8.915079339712975,-2.596344091994979,-1.3929872853987035,-5.429045085409598,-27.51557294020313,-26.499173703603446,-18.110080210200977,-38.94604054291267
2025-12-12 17:19:53.575926,Right,-5.308405025258253,0.5805277433537412,-4.4047942803154,-15.257347884275077,-65.76271386156441,-82.0787906498881,-80.35417346583563,-138.0076893090736
2025-12-12 17:19:53.578926,Right,-10.849160513811512,-8.19254485822239,-13.717315682384651,-11.02438488619373,-57.18503826347296,-69.02956144840573,-61.26636895936099,-126.0160765122273
2025-12-12 17:19:53.582941,Right,-19.46609562877711,-15.33848874069372,-15.419516119487525,-4.091497743647778,-33.23819257764262,-29.08037171853357,-10.415137184318155,-56.223607068066485
2025-12-12 17:19:53.586985,Right,-15.922181944275508,-7.965297812093922,-7.016732420946937,-8.08154135946097,-42.88575826809392,-41.67147009019391,-26.648574675054988,-67.97276908764616
2025-12-12 17:19:53.590984,Right,-10.530585450054787,-1.7356316706391226,-6.963359100282105,-18.25252784671102,-85.13297358233831,-102.67153605792555,-94.94534852111246,-174.96409584686626
2025-12-12 17:19:53.595986,Right,-21.911260949833377,-13.051982477671118,-21.86577873099668,-22.069498167526035,-117.08692428570066,-139.0490789350588,-120.11068648341461,-251.56490052465233
2025-12-12 17:19:53.599923,Right,-37.5283008190454,-25.909274623722013,-30.668224861568888,-19.215515713138302,-114.01746089363587,-122.57379938130907,-86.75861944135977,-226.13578813051572
2025-12-12 17:19:53.604005,Right,-32.44780931114292,-19.127383448379987,-20.41117658796793,-18.545518718216044,-96.40125577813888,-100.79324381805782,-70.72008765370992,-175.71169532154454
2025-12-12 17:19:53.607005,Right,-17.61012952765668,-6.703857445752874,-11.600315835690708,-22.60826249715683,-99.45296711023548,-116.94302289678308,-104.07281240139855,-198.27123214647872
2025-12-12 17:19:53.611046,Right,-24.804720032796467,-14.525026937853909,-23.94573734110054,-27.005351184210667,-131.44134226249298,-156.59145622408687,-137.0013762884264,-279.5637684040703
2025-12-12 17:19:53.615023,Right,-48.73576150573717,-32.729958319936486,-40.675830463616876,-29.847147489881536,-165.6945933341558,-183.24953128826746,-137.91894070293347,-335.5152719883772
2025-12-12 17:19:53.619024,Right,-52.2641164748311,-31.523575794626595,-36.33420826759084,-31.65008712857616,-170.88103421016422,-184.38049245494403,-134.77571734782396,-329.26467945979675
2025-12-12 17:19:53.623053,Right,-31.391263795875602,-14.473255597883508,-20.96526426613491,-30.886311818748254,-149.6198686243024,-172.0410480077844,-144.53750199666138,-298.6173032765255
2025-12-12 17:19:53.628060,Right,-24.877652733279206,-13.2913526558807,-23.087322529155472,-28.698176451521704,-140.61868226413844,-168.21032037358418,-147.92078695653436,-299.024795780133
2025-12-12 17:19:53.632071,Right,-48.050547794923204,-32.35067315527016,-41.360700769541836,-31.84861760680178,-170.9683745672446,-191.64082219107513,-147.96642318104568,-349.93589839294145
2025-12-12 17:19:53.635067,Right,-66.35813705232977,-41.80834231060635,-48.837409459732044,-41.71473896492989,-214.59164502120257,-233.08919310978672,-172.50466971497372,-417.1322271056124
2025-12-12 17:19:53.639183,Right,-55.251102365113184,-30.535808775252917,-39.59629970400238,-47.83591191485539,-222.76124580844044,-251.91738003068895,-205.4419628825708,-439.85145903291414
2025-12-12 17:19:53.643093,Right,-40.68043209520147,-23.606423619464294,-35.50084760247046,-43.212019874370526,-194.56123608168855,-228.74909562632092,-198.2069457339967,-402.63701597461477
2025-12-12 17:19:53.647149,Right,-51.33715757331811,-35.69473684153854,-45.82476022763876,-38.01373352887822,-182.72826358304883,-206.5006676294288,-164.40677982076886,-372.99139754782664
2025-12-12 17:19:53.651162,Right,-70.31054024399418,-46.62319204923733,-53.9940931687961,-44.670766453902615,-217.1355302468437,-235.27091515727807,-174.36347174760886,-420.56726354837883
2025-12-12 17:19:53.656170,Right,-68.91247657874555,-40.290146957089746,-50.25661495899112,-56.273689982619544,-258.5260200585617,-289.58300981114735,-232.23562411898456,-506.85291426166077
2025-12-12 17:19:53.660156,Right,-56.29252079369326,-32.31033927483804,-46.70022704832445,-56.24968901130342,-256.4646748702362,-298.4977869281429,-254.16967180652136,-525.8927282598452
2025-12-12 17:19:53.663156,Right,-57.63962905797234,-38.05161315621808,-50.94829761846995,-45.63304798502577,-224.6922285160108,-256.71541499739396,-207.88216259737965,-463.5870003112359
2025-12-12 17:19:53.667181,Right,-68.14642550398275,-44.71453773731264,-52.84341154280264,-42.07091039945226,-218.41309093724703,-237.80253079751856,-175.83568618580466,-429.6192049566307
2025-12-12 17:19:53.671129,Right,-67.48779904560797,-38.79300084982606,-47.927284372857685,-51.316367123257805,-251.26650703366613,-279.47569533335627,-219.50270210244344,-492.9651157230837
2025-12-12 17:19:53.675227,Right,-60.79243455688993,-33.28739987283916,-48.21857048224774,-58.87940702003107,-280.16776411645696,-324.73447412563837,-273.76568725836114,-573.5679706346127
2025-12-12 17:19:53.679248,Right,-66.15533053104446,-41.7211127704868,-57.48176717505703,-54.84194179224869,-273.8118803993566,-314.74510991366697,-257.6663751259912,-567.3458399033407
2025-12-12 17:19:53.684229,Right,-76.4088608315069,-50.1970605241695,-60.73148476188362,-49.00251378492976,-254.23081830711453,-279.6597289154015,-210.49894500040682,-506.41113904776284
2025-12-12 17:19:53.688268,Right,-72.54201608202857,-43.33676685587852,-52.239861288355314,-52.59886757235654,-256.22958431733423,-282.98560477618594,-218.9767255941406,-500.46410667768214
2025-12-12 17:19:53.691237,Right,-63.17657607203,-35.283662797861325,-49.239912315955735,-60.26870402949862,-278.2442519891192,-320.85724548686994,-269.3600217170606,-564.1485197500442
2025-12-12 17:19:53.695268,Right,-70.47667999461555,-44.30302789261623,-61.18846124249103,-61.54305396226846,-294.3113438113651,-339.5316142523079,-281.22621095657814,-608.3618508697837
2025-12-12 17:19:53.699355,Right,-85.9602625052139,-56.82497059147863,-69.87750633438554,-58.23768637039757,-293.28633475798415,-325.42335580376675,-249.50179959271918,-588.4380123513984
2025-12-12 17:19:53.703286,Right,-82.61080960575782,-50.535998521445435,-60.53280588180496,-58.07943903902924,-285.3514385598246,-314.30768092360813,-240.97192730964161,-558.7402984605869
2025-12-12 17:19:53.707340,Right,-65.51372329470178,-36.27152733797993,-49.558060646821104,-60.31615943784709,-282.43639027135214,-323.73138521413784,-268.7832954765763,-569.5620607817546
2025-12-12 17:19:53.711362,Right,-65.83098854824493,-39.97393396052212,-56.67423033154046,-59.97713553388894,-288.6146150305867,-334.5736937089241,-279.47840806635213,-598.5320670221699
2025-12-12 17:19:53.715348,Right,-84.75552693252394,-55.579837030760245,-69.8685686678291,-59.05084467431152,-301.06711584777804,-336.5873061064631,-260.96094567817636,-609.8834811204579
2025-12-12 17:19:53.720361,Right,-89.67657095423783,-55.33412410951132,-66.5649674617598,-61.38928707670857,-309.41616679367144,-340.8314674143912,-259.6268684929237,-609.5011715098517
2025-12-12 17:19:53.723345,Right,-72.07831731157785,-39.69951844831667,-53.29923526283528,-62.888672853463504,-303.7180694779381,-346.0060180443106,-282.9968731041299,-610.9523283932358
2025-12-12 17:19:53.727396,Right,-62.812670640065335,-36.03847834976477,-52.93917504626006,-58.71752030511561,-291.0738895080867,-338.64077471575,-283.9124296294758,-606.1254444000078
2025-12-12 17:19:53.731403,Right,-76.71288459266361,-48.91938081994158,-63.80637470988586,-54.347995775635354,-291.08877069939626,-328.19814700382994,-256.83754774264526,-597.9367989756865
2025-12-12 17:19:53.735405,Right,-87.14760527340695,-53.147802924751886,-64.73235632610158,-57.16368925868301,-306.70935302448925,-337.79257461387897,-254.96558130264748,-609.6570838990156
2025-12-12 17:19:53.739437,Right,-75.73109195154393,-41.058917896945786,-54.68343389473739,-62.59332019089197,-316.4659783842508,-358.32062395161483,-288.63257656787755,-636.2913070152281
2025-12-12 17:19:53.743407,Right,-65.03451500883966,-35.974944556408445,-53.435635519301286,-61.44214059099613,-307.1274427001481,-357.00118841492804,-299.3117430951097,-638.4003948692698
2025-12-12 17:19:53.746425,Right,-75.51828882010886,-48.004531925267656,-63.87749990535667,-56.430483640448074,-295.5390698116971,-335.46396899118554,-266.51960329833673,-610.074623677996
2025-12-12 17:19:53.750431,Right,-87.94923803418351,-55.32172517346771,-67.03189160926559,-57.50504410213034,-301.32687747792806,-331.541265108448,-249.8616133191972,-599.0503305109451
2025-12-12 17:19:53.755467,Right,-80.10445122161764,-45.15804905900586,-57.99348587649001,-63.649362130934605,-315.07778411294566,-354.1070731128566,-281.88380534847965,-628.0687258292455
2025-12-12 17:19:53.759464,Right,-67.8112894743681,-37.17182051198324,-54.58073653516476,-64.2575127659511,-315.35261126596015,-365.8358417971176,-306.5781214177259,-651.6479155820562
2025-12-12 17:19:53.763475,Right,-74.0732291667955,-45.88176358336932,-62.97203126594832,-57.93585829164658,-303.9825850118068,-347.565704752109,-279.72548949340126,-631.4534185833763
2025-12-12 17:19:53.767440,Right,-85.6115700899245,-53.45009342340927,-65.91968444648955,-54.914820037869504,-299.7197525188676,-330.80868943803944,-249.06938832293963,-601.6538894333644
2025-12-12 17:19:53.770492,Right,-78.826046936083,-44.07495684497553,-56.103355672050384,-59.051247977185994,-305.40149371291045,-341.2873418898089,-267.23407104529906,-608.8055407172069
2025-12-12 17:19:53.774528,Right,-65.58215786486107,-34.77993561389303,-51.24134919793869,-62.00813633769576,-307.29328798514325,-355.96830015891464,-297.47068889741786,-633.5051782097435
2025-12-12 17:19:53.778507,Right,-71.56736557280237,-43.867366266975296,-61.34956098240218,-59.19203534825647,-302.86027407605434,-348.441574205237,-284.1316011599847,-630.7912625292083
2025-12-12 17:19:53.783527,Right,-87.18229295576748,-55.80317800100602,-69.06112602885696,-57.4026973778964,-303.07111820136197,-335.6560087824473,-254.5867991989944,-609.9076819132315
2025-12-12 17:19:53.787527,Right,-83.81908912758809,-48.97416484278074,-60.64571697897918,-60.66686830972321,-307.4706968963146,-341.35862553457264,-264.09689885220723,-608.9146085293032
2025-12-12 17:19:53.791499,Right,-66.60880344932957,-35.47283973261801,-50.95429952653649,-61.94857272072113,-303.11392357118893,-349.5396681187558,-290.60185353201814,-620.0709772281116
2025-12-12 17:19:53.795505,Right,-65.70730917010223,-39.103254465720966,-56.36362810402352,-57.05768964790332,-291.5233347261674,-337.4516799240955,-278.4695296579739,-609.6606086136308
2025-12-12 17:19:53.799556,Right,-81.63790927808441,-52.2683460800763,-65.74947961793805,-54.1598460162204,-290.51785208284855,-323.40314336068695,-247.00904474052368,-589.7783279840369
2025-12-12 17:19:53.802576,Right,-85.2434859629575,-51.0665205403493,-62.23063092662778,-59.40633534140943,-302.26118331437465,-333.97668831743067,-255.62585660023615,-597.6901320264442
2025-12-12 17:19:53.806602,Right,-71.39904667963856,-39.496057614160236,-54.0786436352646,-64.66365665316698,-305.5532238324522,-350.0846717727836,-289.14642724220175,-618.5013323890744
2025-12-12 17:19:53.811596,Right,-66.83748727473721,-40.55709413182922,-57.657441915842355,-61.15858106286032,-290.9873758655158,-337.6774072237313,-282.0482735383557,-604.671558837872
2025-12-12 17:19:53.815630,Right,-79.22627001609362,-52.21413549481076,-65.84792613140598,-55.016277573944535,-278.5503926248057,-311.63915523304604,-241.1339995827293,-566.199476490845
2025-12-12 17:19:53.819635,Right,-83.50120775865798,-51.3945545804454,-61.770768507762114,-56.19742695068999,-284.58826444810256,-312.9330287660123,-236.71249823272228,-561.3926915546181
2025-12-12 17:19:53.823626,Right,-69.92941131955013,-38.080566474221996,-51.39314257311344,-60.84035602415679,-294.2688012878061,-335.2996514055412,-273.7617695374065,-593.4440743017476
2025-12-12 17:19:53.826605,Right,-62.617932078719605,-36.029531338150264,-52.885737652512034,-59.03196541090438,-287.08939407451544,-334.29026860988233,-280.7352028852911,-598.6809605947929
2025-12-12 17:19:53.830652,Right,-74.05299551179633,-48.51586496987147,-62.5767549364391,-53.327237159290235,-270.9384771300829,-305.4552041061688,-239.64852211030666,-555.9000834112521
2025-12-12 17:19:53.834655,Right,-81.87284669821383,-52.30889639760426,-61.93146616031299,-54.04226631230267,-267.350713790569,-292.6582107566064,-219.65383206802653,-525.8695551038254
2025-12-12 17:19:53.838698,Right,-71.29231266608986,-41.12279664330708,-52.49446455956786,-60.21699361708306,-276.01613662892487,-311.5749526680447,-251.94141794915777,-548.2802130940836
2025-12-12 17:19:53.843682,Right,-62.52076590700017,-36.72434954435448,-52.55340257709031,-60.996298450641916,-278.21932788734557,-323.8024994900916,-273.98639293928863,-574.6674262131564
2025-12-12 17:19:53.847694,Right,-71.40621926046151,-46.979853128505056,-61.54877979870071,-54.521814430947416,-267.9531511150999,-304.3686147540575,-242.8953784389887,-551.9630052532302
2025-12-12 17:19:53.851722,Right,-78.31571776626515,-50.32475232568686,-59.99024909466971,-50.21760212929803,-256.81871079531265,-281.2192936767824,-209.8224290823564,-508.7507082383381
2025-12-12 17:19:53.854726,Right,-65.30695963303151,-36.69374372441962,-46.436195247311844,-51.72210742646712,-251.94554548687302,-282.43311293644365,-224.05120871408144,-500.2901408051839
2025-12-12 17:19:53.858834,Right,-51.99087788633187,-28.05203809044906,-42.15836997136648,-52.13532189480611,-249.4106923911604,-291.2612240019953,-247.0611000910285,-518.0155260151951
2025-12-12 17:19:53.862759,Right,-60.58905217213032,-38.486262047474156,-52.77345587646414,-48.34966975644056,-247.13180125236977,-283.66331549570896,-229.57736895774724,-516.3371342268074
2025-12-12 17:19:53.866770,Right,-73.60159664804814,-47.33791805157671,-57.11989204843121,-46.195882911080844,-246.02686400938546,-270.1631259552669,-201.20349734521005,-492.4669611584395
2025-12-12 17:19:53.871776,Right,-64.44175438462116,-36.46748297632439,-45.16312521279906,-47.82853661266563,-241.0347782347235,-267.9846440211404,-208.48217144299997,-477.2600690171821
2025-12-12 17:19:53.875754,Right,-46.53974906310032,-23.743490512220887,-36.239566565694986,-47.16220242479176,-228.53199896705337,-266.5426897655707,-225.96462006139336,-473.47015873051714
2025-12-12 17:19:53.879811,Right,-49.84801140463969,-30.649931051157182,-44.17525388850481,-42.57265972321329,-219.03832228161627,-253.98171729559544,-209.21667001309106,-462.47128292929847
2025-12-12 17:19:53.882811,Right,-66.49858261940244,-43.245300141585176,-52.81732533973991,-41.37340499855054,-223.48474499519216,-246.12768159387633,-183.45812050194945,-451.00327320210636
2025-12-12 17:19:53.886860,Right,-65.08204858777754,-38.0501461790991,-45.9315036417247,-45.78286904509878,-230.7437501878012,-254.57097692857496,-194.52706473256694,-454.4141212255927
2025-12-12 17:19:53.890814,Right,-47.462322260194924,-24.71322813552979,-35.964969502194435,-47.092838057360495,-221.20924336957978,-256.7119009574526,-216.35192771925358,-453.3563529002713
2025-12-12 17:19:53.894864,Right,-44.216257373511326,-27.10351291221741,-39.819243880250724,-41.05529694115103,-200.6339126364328,-234.85264988639392,-197.14460796641652,-424.6005596516188
2025-12-12 17:19:53.899045,Right,-58.340281984739704,-39.03583480344969,-47.925040733010974,-36.63595288373472,-194.42157533520367,-215.1561026017298,-161.10920514393365,-395.2174326215172
2025-12-12 17:19:53.903868,Right,-61.10305559360131,-36.713080381654436,-43.310093261054135,-40.3788760863099,-205.91042953822762,-225.2792192887864,-168.4095813111635,-403.7817900539376
2025-12-12 17:19:53.907857,Right,-45.77943230327219,-23.357968321128283,-33.347957690421026,-44.019237966582295,-208.8431650493294,-241.03601921134396,-201.14200748421717,-425.22434232989326
2025-12-12 17:19:53.910893,Right,-38.92678439608426,-22.566554026532685,-34.97990856254182,-38.956624978847685,-190.22669773799134,-224.48221711959923,-191.10718676412944,-404.6002273767954
2025-12-12 17:19:53.914898,Right,-50.12214760565257,-33.907910238660406,-42.62452553106414,-32.08282611271716,-172.13767322094645,-192.13011389347957,-145.4030996822985,-354.6463160701096
2025-12-12 17:19:53.918909,Right,-55.037482486324734,-34.2457014953543,-39.37878750360687,-33.70299492479535,-174.91750882269116,-189.21898765454534,-137.3394800965325,-341.27296675753314
2025-12-12 17:19:53.922958,Right,-42.06423657250707,-21.533285004406935,-29.4345066385431,-38.991153462353395,-184.33025886083487,-210.99820235563675,-173.8991541013238,-371.1938249573577
2025-12-12 17:19:53.926970,Right,-33.68178541082307,-18.384545441076625,-29.93482241840684,-36.65914880586206,-177.13101160689257,-210.39156011102023,-181.62600615853444,-377.3696125393035
2025-12-12 17:19:53.931970,Right,-43.06278664476122,-29.031563278964313,-37.88180188102706,-29.01887491819798,-158.79704427940305,-179.51822085143067,-138.80229803471593,-332.59477161359973
2025-12-12 17:19:53.934956,Right,-48.977325332904,-31.232896433190035,-35.438902504974976,-27.344819560763426,-150.70452560886042,-161.50558362988522,-113.7557756700553,-294.88552635349333
2025-12-12 17:19:53.938971,Right,-36.62401691824198,-18.612960344282328,-24.222895922735916,-31.776216287209536,-154.16210895089898,-174.416470695287,-140.82406994042685,-306.98759071785025
2025-12-12 17:19:53.943000,Right,-26.47468625046895,-13.22230473098898,-23.163285905116936,-32.00244554222445,-152.94613624474732,-183.167713780771,-160.70771047193557,-326.7081684996374
2025-12-12 17:19:53.946985,Right,-35.6684399927035,-23.974018970016914,-32.755705980132916,-26.146749698833446,-142.9350584417116,-164.32372084696544,-130.54165924381232,-304.61802318156697
2025-12-12 17:19:53.950997,Right,-44.70425912689825,-29.21160724202491,-33.1320176221634,-23.190316047039232,-134.74031682580244,-144.1054814091185,-99.30538048880408,-266.1532402068842
2025-12-12 17:19:53.955041,Right,-33.41810652179993,-17.041469040239463,-20.92047179499059,-25.93367067912186,-131.39490097528324,-146.53246769530233,-114.15807053871686,-258.7767354751704
2025-12-12 17:19:53.960015,Right,-19.667694646137534,-8.291162620960677,-16.41085133801971,-26.72779740023543,-125.99028169747908,-152.2404486297164,-135.47055116522824,-269.6017508817604
2025-12-12 17:19:53.963022,Right,-27.18016325274948,-18.351230237392883,-26.609137122912216,-22.770277575633372,-119.13500884646783,-139.7995580030256,-115.02292669226881,-258.5299027947476
2025-12-12 17:19:53.967039,Right,-41.094851793386624,-28.293631197513605,-32.02975167625118,-21.143110222241376,-117.68466974340845,-125.63104791106889,-85.90279066725634,-233.1633647986455
2025-12-12 17:19:53.971072,Right,-34.536814600462094,-19.4544892970589,-22.11473308489076,-24.484225159307243,-117.65696076030144,-128.48705593816703,-96.64683124888688,-226.24052920436952
2025-12-12 17:19:53.975053,Right,-18.086213951100945,-7.785640849797346,-14.286492908649961,-25.390201963411528,-109.00203996093478,-131.36454950505868,-118.00241968873888,-229.07969936565496
2025-12-12 17:19:53.979133,Right,-20.360740150834317,-14.182780254086538,-21.62199418625096,-20.62161019067571,-96.39103316218825,-115.61528558080317,-99.5616051547695,-211.90958121733274
2025-12-12 17:19:53.983158,Right,-35.28617953283538,-25.886593425704632,-29.068731501305592,-17.889945828006603,-94.04278301110025,-99.92374670336721,-67.44862168742111,-186.8904135155026
2025-12-12 17:19:53.987094,Right,-33.599594048268045,-20.473282668972388,-21.759692611420178,-21.486720148008317,-99.50641816278221,-105.7584527398576,-75.70400933397468,-186.16269853932317
2025-12-12 17:19:53.991089,Right,-16.83403402096883,-7.290523302122892,-12.177915153981303,-23.46706135207205,-95.12904351158068,-113.63008850981714,-102.09347754396731,-195.45525234821253
2025-12-12 17:19:53.994080,Right,-13.622867970800144,-9.322530839694082,-16.070321720908396,-17.82916708702396,-78.60052201186772,-96.82837542577181,-87.50098382885335,-176.04936505644582
2025-12-12 17:19:53.999081,Right,-26.165268584169098,-20.1176554229678,-22.992890511319274,-11.928249426171533,-68.35183619579766,-72.75670509878546,-47.831867724715266,-139.70733424904756
2025-12-12 17:19:54.003160,Right,-26.93025913303427,-16.41129531965271,-16.50782855824218,-13.400807917394559,-71.92121914040763,-73.56289180193562,-46.861607598897535,-132.31153464596719
2025-12-12 17:19:54.007199,Right,-10.856871360301739,-2.258468431631627,-5.527634089834464,-16.327370541970595,-72.9423905016738,-87.02115055761533,-77.59942509420216,-149.65522397356108
2025-12-12 17:19:54.011213,Right,-4.834624405484647,-1.6739191692395252,-7.765068542168592,-12.375434676279838,-60.385733620554674,-77.71864384395303,-74.05265161389252,-141.9620435233228
2025-12-12 17:19:54.016216,Right,-17.129610194897396,-13.680851252691355,-16.511218416497286,-6.3803178512025625,-47.69792572152801,-51.66156709979987,-33.58553879050305,-103.76342670770828
2025-12-12 17:19:54.019218,Right,-22.04128238573321,-14.24013574019773,-13.328331253353099,-7.47696619672206,-48.08307933289325,-45.60182681697188,-22.378403495822567,-85.01164942863397
2025-12-12 17:19:54.022222,Right,-8.488481444961508,-1.5123212190082995,-2.9163060183054768,-12.361049386890954,-51.5744887526962,-60.29689681122545,-53.16486517188605,-101.22317556466442
2025-12-12 17:19:54.026216,Right,-0.9741662027518032,0.6019626432171208,-4.448816718788294,-11.598630920772848,-44.55220252368599,-60.07756413402967,-62.14339191510226,-106.2676826211391
2025-12-12 17:19:54.031244,Right,-13.282152429586858,-12.406432694704563,-15.241211625398137,-6.798506795996218,-34.08768014359521,-38.30573216296034,-27.2177052226034,-76.62127447151579
2025-12-12 17:19:54.035251,Right,-21.86601940370747,-16.50865891973808,-15.01236354874709,-6.814413801723276,-32.839106113126036,-27.7045514662168,-7.53180667309789,-52.01936012704391
2025-12-12 17:19:54.039275,Right,-9.25997358285531,-3.513220383269072,-3.248219855107891,-10.646472826549143,-34.582415959448554,-38.32748903270112,-32.1708832483273,-60.074701798381284
2025-12-12 17:19:54.043295,Right,3.457880828224006,3.859365188560332,0.04944486595195485,-9.161414435766346,-26.453727521758992,-39.4927218464436,-46.39245439969818,-66.285854768008
2025-12-12 17:19:54.047294,Right,-4.133103355852654,-5.665006355106016,-8.389238141338865,-2.3149170224933187,-13.981788378179772,-18.236423563503195,-14.82764768548077,-40.555144015466794
2025-12-12 17:19:54.050299,Right,-14.02206876371929,-11.24779041371221,-9.398069155955454,0.43127376017946517,-11.083020853315247,-3.8596865407307632,12.144016139849555,-13.748623225372285
2025-12-12 17:19:54.054275,Right,-3.9028022912098095,0.5376846482104156,2.261087414692156,-2.693833940407785,-13.75767290298245,-12.756640206149314,-7.218205518584,-18.72783867060207
2025-12-12 17:19:54.059323,Right,10.488657993009838,9.91862194002897,7.453045573369309,-3.1380100024834974,-7.595295155158965,-17.709852194529958,-28.084329303150298,-28.064441910304595
2025-12-12 17:19:54.063325,Right,4.149938991969975,0.3133598312706454,-2.145162413493381,1.358564581554674,4.446383938979125,0.33372660615714267,-3.6807098809513263,-6.379277942411136
2025-12-12 17:19:54.067346,Right,-10.57503878956777,-10.704414098057896,-8.573925251504988,2.4249336481661885,6.61566152627347,15.507505610468797,26.310971221653745,21.355687254399527
2025-12-12 17:19:54.071359,Right,-6.439376955197076,-3.5870539401075803,-0.5171606410949607,-2.6264293154890765,-0.04488927323836833,5.449776122521143,10.117119270114927,15.865077017864678
2025-12-12 17:19:54.075379,Right,8.886368481929821,7.739440083536465,6.6838719384904834,-4.592807397479191,1.9710629150795285,-5.094912040774943,-17.586608313402394,-0.6724121001898311
2025-12-12 17:19:54.078385,Right,8.170183029957116,2.843600594671443,0.6940700520717655,1.3722889022465097,15.827701388625428,11.581578702462139,1.3697741687356029,17.196350798476487
2025-12-12 17:19:54.082337,Right,-4.1727811352175195,-6.79760274857108,-4.561540130081994,6.811355031532003,24.885990762879374,34.747319476504344,40.08069135528058,53.94366369966883
2025-12-12 17:19:54.087390,Right,-0.9873799146880629,0.13653601122132386,4.393487399385776,5.110039369443257,22.342309632513206,32.31174130048021,35.374911604390945,59.448762786516454
2025-12-12 17:19:54.091358,Right,15.812124592972395,14.035375084771658,14.454827163106529,3.0318268883493147,22.097977393481415,18.862151776556857,4.386954379879171,39.67650153365685
2025-12-12 17:19:54.095437,Right,18.2119656311188,11.714916593944508,9.86807503017917,7.540747560626187,32.3511277884827,28.036611761839595,12.208920978649985,45.357292644970585
2025-12-12 17:19:54.098446,Right,4.44249954206316,-0.4220152027628501,1.5581524724257179,12.60349164307263,41.28237227903446,50.815000759699615,50.964707827108214,79.60187265678542
2025-12-12 17:19:54.102439,Right,2.4042648758768337,1.693473801471555,6.778398289756296,10.522811367136455,39.93072122131707,53.293933863635175,55.22587679096614,93.78447641519597
2025-12-12 17:19:54.106462,Right,17.49205095069192,14.925677570943662,16.93658946994765,6.393083620710968,38.24480455450248,39.2847971667652,23.796366295660846,76.8508871338563
2025-12-12 17:19:54.110415,Right,22.603727520545362,15.045508243041695,13.838263748544705,8.666446494080446,45.268273787689395,41.71403757101507,20.75543708098121,73.02584598999238
2025-12-12 17:19:54.114516,Right,9.254068870155606,2.4275120284692093,4.109116671392258,13.75864811919746,52.53996645583538,61.31274086350459,55.86950273672119,99.20524380117422
2025-12-12 17:19:54.119480,Right,3.9005906111196964,1.6240828346999479,7.17255548162575,13.305981099510973,51.75454464823997,67.39376397253363,68.24117147330253,116.99192355963169
2025-12-12 17:19:54.123500,Right,18.529329703163967,15.400316126299003,18.92366955603211,9.888988552633236,51.35448358010035,56.52533765879343,41.26602235615428,106.9542979078833
2025-12-12 17:19:54.126520,Right,27.846548716253892,19.264421456500713,19.025595892708225,11.650432615992031,59.5122297344642,57.50141286835424,32.26412108122895,102.74252434037044
2025-12-12 17:19:54.130521,Right,15.995259003248066,6.903433920433599,8.456438865519885,16.437732414822676,66.72932758905517,75.03308394319902,63.15008639106236,124.02023393969284
2025-12-12 17:19:54.134526,Right,5.959854240038112,1.8215960171764891,7.515439484912349,15.780440041966358,63.24220386661182,80.60867069270171,79.38165630078583,139.06585006151
2025-12-12 17:19:54.138497,Right,16.948381458387303,13.584055823614108,18.19447362524079,11.212594585245824,59.10625221936789,67.97634580859449,53.91744439957256,127.75849874355481
2025-12-12 17:19:54.142556,Right,29.04943555754653,20.314739459536213,20.93911754176588,11.814923956320854,67.0190071761026,66.63720482442295,39.16297241310531,122.30013966042316
2025-12-12 17:19:54.147580,Right,20.707939414132852,9.874821570634595,11.4237635759564,17.256421106012567,78.04202030491433,85.91827245363675,68.13906346046133,145.5560858171375
2025-12-12 17:19:54.151605,Right,8.88852973603207,2.588410990585544,8.524805127854052,18.259156255262496,76.59153286817309,95.47115062896046,90.99687671843276,164.42908562652883
2025-12-12 17:19:54.154586,Right,17.14248357172255,13.095087202091236,18.848095061555796,13.951575067227168,69.11379281335394,81.57482375654217,68.06280180078465,150.78858871929697
2025-12-12 17:19:54.158613,Right,31.51502885550508,22.835449389538553,24.341929920532493,13.680316932905043,73.44601717963815,74.58270945161348,45.75997594270302,137.37850392484688
2025-12-12 17:19:54.162636,Right,26.660775817283138,14.688424907453737,16.052309452450572,19.511439110936408,86.70909284043591,93.6026547181682,70.94589869245101,159.53245181243983
2025-12-12 17:19:54.166649,Right,12.980217663962321,4.754757997454362,10.559845270536243,21.776535580138443,89.7324968768371,109.49855171841773,101.82794085554633,187.28609652990417
2025-12-12 17:19:54.170640,Right,16.530610209476436,11.719497300502553,18.356555922789994,16.34825693943094,80.62012035991211,96.71694342340925,83.65517975526745,176.95822015624435
2025-12-12 17:19:54.174680,Right,29.925132938220486,21.58722616775958,23.960065934463273,12.264159533597194,77.59898745676037,80.49206430195773,50.92109608733881,151.6994312875031
2025-12-12 17:19:54.179754,Right,26.71429362454728,14.287861564647756,15.450383073584817,15.671433906994935,86.84496449976723,91.99651790547068,65.20497598587099,161.9024277823628
2025-12-12 17:19:54.182671,Right,12.025643912920714,2.1867264378197433,7.784126330970139,19.329582644754737,93.21297831786069,112.45133992499177,101.94900023678929,194.720628658426
2025-12-12 17:19:54.186696,Right,13.687596942561868,7.68943553418012,15.423803272710757,16.5307809374317,88.70007061174692,108.08143194803415,95.94845280768277,197.47858479541173
2025-12-12 17:19:54.190732,Right,29.897750921639272,21.300194276828734,25.094423641606227,13.375014019556147,85.72333670027001,91.30800770096175,61.625919710000744,172.62194433627155
2025-12-12 17:19:54.194657,Right,31.874259970896674,18.818892512013008,20.034712805224444,16.944818155849134,92.80794113689626,96.52685058785573,65.46165144489169,171.52963549651759
2025-12-12 17:19:54.198690,Right,17.23971803575705,6.04330399639457,10.907475426550263,21.81990857339906,99.32780549440031,116.82918128640813,102.68839234778898,200.6013176685483
2025-12-12 17:19:54.202753,Right,14.321607696230785,7.593875290941924,15.626095819108741,19.996724671869742,96.36343983865027,118.09720289282177,107.08256105625333,211.8360048777904
2025-12-12 17:19:54.207796,Right,29.0897161801297,20.758922703936378,25.707956078144434,15.46741720776754,92.88320663506966,102.04382863509682,73.84468932646132,191.6489937271399
2025-12-12 17:19:54.210759,Right,33.99811356028175,20.689695253664013,22.1555715150854,16.505824884665344,97.55573430781442,101.16971882725011,66.7917005073823,182.99440731718641
2025-12-12 17:19:54.214783,Right,19.80731176564086,7.272009617135154,11.377455102286888,20.687377252751332,102.4241358905092,117.8802754406006,99.19041988487515,204.2299011095347
2025-12-12 17:19:54.218791,Right,13.53967834049763,5.980252260932275,13.962148296126315,20.569509863987264,99.64767834048325,122.31718839650057,111.50406365411072,218.06801320923478
2025-12-12 17:19:54.222805,Right,28.63280875634564,20.800249799501444,26.816960443964035,18.3467993696529,97.92067577488342,110.20684653794524,84.55513913647155,204.52526171547652
2025-12-12 17:19:54.226816,Right,39.728293405913064,26.632005666192754,28.732802663866096,21.1531535534059,105.58382948570215,109.88845638935163,74.00683312171168,197.14814489277342
2025-12-12 17:19:54.230832,Right,28.842594232553893,15.068540661884072,18.754765869802668,26.151324809106427,112.47497956101142,126.33009830295487,103.25051542548317,216.08484350766958
2025-12-12 17:19:54.235859,Right,17.46257689795584,8.701429885262769,16.534288531347556,24.6395142818983,107.16255927525344,130.13336806430016,118.38483189539693,228.13713548753003
2025-12-12 17:19:54.238796,Right,26.000806949957223,18.490379707746342,25.305165900169413,18.4358834567156,99.00596681841125,113.62487706585671,90.39605229200242,210.69633571429586
2025-12-12 17:19:54.241808,Right,36.742520591582434,24.283549737355315,26.926431428164506,17.583625634320924,102.64599459307647,107.39229339535814,71.36277484896709,197.19429214764386
2025-12-12 17:19:54.246872,Right,28.468940594315427,13.964608472112559,17.2113810997389,22.650391663149094,111.73651271914423,123.91591981951206,97.50896293464757,215.37162052994245
2025-12-12 17:19:54.250886,Right,16.721835293399636,6.741832247126695,14.290742714697444,23.98428693657206,110.34926313289179,133.40028563066153,120.57647686186101,233.62367937207455
2025-12-12 17:19:54.254905,Right,24.127979243443406,16.668711621050534,24.15441416223257,19.384282811439334,101.85883510877466,118.62236766189017,97.53387755584845,218.68353875898174
2025-12-12 17:19:54.258921,Right,37.18060961064839,25.480494107285267,28.66729149202729,17.778418301430065,102.53281245923426,107.42743181213882,71.67610224449163,198.6866439692385
2025-12-12 17:19:54.263918,Right,31.311284979723496,16.538190043722352,19.311993702891414,22.394280273765617,111.6480417632556,121.39095613705285,92.28529794346832,212.13458877296944
2025-12-12 17:19:54.266941,Right,17.41110789173763,6.466713338843874,13.555727026117893,24.803637576258552,113.07294004889263,135.43199779413408,121.94360954207514,235.83121541247237
2025-12-12 17:19:54.269944,Right,22.011406954528866,14.609783882571719,22.651385254766865,20.881601346665775,105.13687448695418,124.1228075108811,105.71133411213668,226.91970491068787
2025-12-12 17:19:54.274958,Right,37.511609383975156,26.761622724539848,30.544357100612615,18.661438913855818,103.42549958264863,109.06111188024806,74.08375285063084,202.4343929802708
2025-12-12 17:19:54.278981,Right,35.7379476768765,21.09174502560927,23.349994094827707,23.115187249335577,111.56827108217112,118.77601021945884,86.6532943505008,208.09137597552035
2025-12-12 17:19:54.282985,Right,20.210494067461696,8.466595809635692,14.824146646376903,26.393450463086992,114.48814418220718,135.4687402081181,120.58942145016044,233.4332274440094
2025-12-12 17:19:54.286990,Right,19.678023877670057,12.19393644750744,20.62337276353537,22.24559223786673,106.54034696050803,127.9686481601093,112.60506929788971,231.16409587979433
2025-12-12 17:19:54.290041,Right,34.72003233045689,24.865173238826173,29.394158586446792,17.920695324415647,101.98687377676833,109.71460864211258,76.94471044914098,204.9570677660522
2025-12-12 17:19:54.294030,Right,36.937132354647474,22.560343869625285,24.37895153770296,21.058432498350157,108.43420785437047,113.75518393861421,79.13158515866962,202.3828312343394
2025-12-12 17:19:54.298029,Right,22.097674023701984,9.599163795146524,14.849611602930963,25.67323818652767,112.92630121103139,131.45394803861564,114.1431471555261,226.47922998087597
2025-12-12 17:19:54.302061,Right,17.785815889466903,10.135919721546088,18.49109209139715,23.15224737297649,106.30321345120319,128.92377286951523,116.0679801798833,230.67213544991682
2025-12-12 17:19:54.307291,Right,31.43958401028067,22.583279903032235,27.902606529007244,17.7921231959117,99.96233833717997,109.97272229012742,80.71499547480198,205.63678894133773
2025-12-12 17:19:54.311081,Right,36.34552291325963,22.496028480043606,24.30035708738069,18.38517692759706,104.05246974005422,108.28782924801635,72.52586980623892,195.8556268857792
2025-12-12 17:19:54.315142,Right,21.832763703900127,8.573700757511688,12.915823180690495,22.044767240906367,108.48978795793664,124.37081172406033,104.09084159403574,216.08597423613537
2025-12-12 17:19:54.318143,Right,13.592181117870496,5.517137442331659,13.665045665173238,20.33711505058818,102.40052796923555,125.34934566963057,113.7214003286208,224.50721148052253
2025-12-12 17:19:54.322142,Right,26.037525944713707,18.237831834932877,24.3259258261387,15.652668905604514,95.1710167779529,107.29493176273536,81.78873640626261,202.0006703955296
2025-12-12 17:19:54.326091,Right,35.61089980430552,22.86928302544038,24.865250123290025,16.772423128564697,99.16531442607811,102.7680960886646,67.35109423781978,188.29618977746577
2025-12-12 17:19:54.330153,Right,24.685437574506068,11.21411044330489,14.673882054928981,22.04657612882511,106.27938391642238,119.48894436088449,97.01817713635683,207.24031248121173
2025-12-12 17:19:54.334155,Right,14.064259470644174,5.630535343163501,13.248520923720207,22.04047971633554,102.49807964374486,125.29489798164286,114.64174457763147,221.39077836443903
2025-12-12 17:19:54.339238,Right,23.621440137256286,16.78022246038381,23.326028151899663,16.846293082169723,93.580679992956,107.81388119477197,86.01575589022832,201.31148171474342
2025-12-12 17:19:54.343131,Right,34.905652031153295,23.45337534693317,25.587974275720626,15.735279046493815,94.12669725919841,97.48058753440273,62.80946513584058,180.51045620103832
2025-12-12 17:19:54.346191,Right,25.73747812948568,12.31158293711269,14.897085935979703,19.91470908541669,100.60164106223965,110.97914282226702,86.28107851662207,193.45408420765307
2025-12-12 17:19:54.350231,Right,11.958278226007678,3.074837421941993,10.119388369388616,20.469896881670138,98.35758867319964,120.43165825892356,110.39220827119425,211.74263370971312
2025-12-12 17:19:54.354242,Right,18.03227696349859,11.864760312028011,19.000972033743892,15.148221540159284,89.05394280662586,105.47884887403052,87.74043074686779,197.0213801403297
2025-12-12 17:19:54.358177,Right,31.466542023870716,21.292334984609624,23.87518108551376,12.751112168894906,87.40081872054725,91.151602299753,58.07372141481028,172.17631603588234
2025-12-12 17:19:54.362241,Right,26.2803775594366,13.145202556061122,14.881651037194388,16.925825924048695,93.7268522663071,101.18658841001161,74.25079174546408,178.56731136067538
2025-12-12 17:19:54.367196,Right,11.565253848428256,2.374833323765415,8.388909892353695,19.422687673650216,93.69667169776221,114.06184431101428,103.84967776028498,199.36864843053627
2025-12-12 17:19:54.371282,Right,14.415052606364043,8.97945700650962,16.272697192482156,15.436625769631064,85.41548603371484,103.57922263848013,90.03802441430162,191.69492095900932
2025-12-12 17:19:54.374231,Right,29.185014004768163,20.523764280642354,23.609789506903326,12.382815170782123,82.76808244298445,87.55001006519888,57.444425903770025,166.46019148713094
2025-12-12 17:19:54.378285,Right,27.932878555635398,15.326353122418368,16.45057657715006,15.699504028183583,88.76225969391817,93.58981172047788,65.1166966787132,166.6276344138605
2025-12-12 17:19:54.382300,Right,12.622416977486864,2.973529163415151,7.848933445096918,18.61050879369577,89.61272458375606,107.15138771699276,95.81678919272963,186.23695728063467
2025-12-12 17:19:54.386319,Right,11.440589840363828,6.384340653248728,13.520710167278594,15.179380755991588,81.10137036665401,99.63376512131072,89.44592386043223,182.78730687557254
2025-12-12 17:19:54.390291,Right,26.06370672598132,18.935993020841124,22.524746263952693,11.718106090436777,77.10982150946802,82.81567500944948,56.55307885140064,158.23240511488984
2025-12-12 17:19:54.395345,Right,28.62778609385714,16.924143760666993,17.754429092590726,14.73534295954596,83.42937001788232,86.37817247063504,57.795992307626875,154.8412662234041
2025-12-12 17:19:54.399364,Right,13.974287624558201,3.9873310307302745,7.898222020598041,18.279947658455058,86.08735072072886,101.0761366575316,88.6950064211851,174.20697893979377
2025-12-12 17:19:54.402353,Right,9.18321879445648,4.215155715575747,11.086767998407595,15.040826036925864,77.16138675442198,95.71686998027144,87.85914581864199,173.6526341039862
2025-12-12 17:19:54.406392,Right,22.74344371227562,16.966332066325776,20.98282580337036,10.556857439158193,70.31163766719692,76.75219355162699,53.69992895348696,147.76028646584018
2025-12-12 17:19:54.410333,Right,28.900106070293987,18.279137556681235,18.925831814922276,13.386693954860675,76.18551224008843,77.47613853836083,48.88050507297157,140.35345035154023
2025-12-12 17:19:54.414402,Right,16.318397834074858,6.138332285960132,9.182035725443711,19.057332525804668,82.5550572390639,95.4297378200863,82.2997355555708,162.1345166793035
2025-12-12 17:19:54.418427,Right,9.322901160441688,4.301142798060027,10.85443583414235,17.82878785740104,76.22127827382064,95.4473344120488,90.39047422954172,168.48499565329985
2025-12-12 17:19:54.422378,Right,21.68176661427424,17.202862171439847,21.479043705658114,12.294989362344495,66.77470078865008,74.46723688853672,55.1938627903146,141.60082156781573
2025-12-12 17:19:54.427428,Right,29.969945447690407,20.803900665001493,20.947693470650847,12.403888351593196,68.72584550094325,67.90557568924851,39.22946997502004,124.85731156516704
2025-12-12 17:19:54.430439,Right,17.25278963761957,7.38559147322303,9.097886177376495,17.166412581416807,75.13874257664429,84.63510386756388,70.09993084255257,143.56553472054657
2025-12-12 17:19:54.434465,Right,5.568677643648698,0.7060298069791315,6.67020004355436,16.74103276909591,70.96285271084344,90.42641272669425,88.37460766272852,157.6511829526862
2025-12-12 17:19:54.438462,Right,15.597264356885717,12.38316276895057,17.162155082631216,10.779600323952764,60.76196626550518,70.85128294563037,56.838401282555424,134.77844650452607
2025-12-12 17:19:54.442490,Right,28.012037982800393,20.2429698599135,20.349766608353093,9.15023183590165,59.86572190937295,57.89256335038226,29.792172783170827,110.0579183869122
2025-12-12 17:19:54.446539,Right,18.895850533343037,9.178806911284482,9.674674750818667,13.887040276204061,66.16869809541095,71.33490429108497,53.65490284834232,122.08652105630608
2025-12-12 17:19:54.451449,Right,4.052225639527023,-0.997081866438748,4.214572457134636,15.658344609433698,64.74659075327509,82.94857289301581,81.86097953337594,142.61967352728243
2025-12-12 17:19:54.454510,Right,9.969243547737278,7.811166867655629,13.283299283040833,10.968889246145409,55.70913113113784,68.74406570650171,60.74269928636204,128.7545372467721
2025-12-12 17:19:54.457523,Right,24.941747306856996,18.750862831298946,19.39948439489308,8.147497045913042,53.16661160417425,52.17398254030559,27.307914205550333,100.80051909713075
2025-12-12 17:19:54.461535,Right,20.665572830534074,11.312043556723438,10.740288425145991,11.452756743776263,58.19445543234178,59.58155863391585,39.42299752141116,103.26089976975345
2025-12-12 17:19:54.466529,Right,4.174061824454839,-1.2410976838073111,2.559148284330149,13.300533662921225,57.12346303995582,72.06641073369246,69.70612133020768,123.19497800216777
2025-12-12 17:19:54.470543,Right,4.2549267038702965,2.883141849280946,8.409841473352571,8.861687836422789,47.90455443553219,62.25357391973375,58.7443994772766,116.50642969584442
2025-12-12 17:19:54.474534,Right,18.383733396614844,13.95438330367324,15.4043279846519,5.22543789530755,44.19121489560348,45.293517229743884,25.381766944614355,90.2080877184635
2025-12-12 17:19:54.478509,Right,18.65828131833041,10.065945152457061,9.198141784210748,8.001611816456716,49.379565501440084,49.11150179505057,28.942849043596652,87.1931301994191
2025-12-12 17:19:54.482590,Right,4.217757805046858,-1.6449676318261481,0.9850268470945593,10.836898899626249,49.990645065088756,61.71775213365618,57.71861211734358,105.11614528749487
2025-12-12 17:19:54.485614,Right,1.7420765580282023,0.6582857264074846,5.775477100050921,7.5267488326644525,41.200325140714995,54.908464700798504,53.34177482132509,102.52401287751854
2025-12-12 17:19:54.489610,Right,14.546330583547388,11.742231746909965,13.600093787528749,3.7014595039654523,36.24985016282881,38.23306470665557,22.071313072374323,78.31709691500873
2025-12-12 17:19:54.494629,Right,16.833732544058876,9.451285536310024,8.422084513473237,5.958239764284372,41.46255868386652,40.419034327656846,21.629841959642363,73.00701109756483
2025-12-12 17:19:54.498652,Right,3.0755394782026997,-2.875543595133422,-1.1464086004634737,9.052765590033232,43.74218210995605,53.816707064252114,50.02670151452185,90.37147624403588
2025-12-12 17:19:54.502668,Right,-1.524656368419528,-2.5233984399637848,2.1418908095256484,5.72312146418335,34.83250790859165,48.28712767754041,48.80710830276075,89.65718507530983
2025-12-12 17:19:54.506710,Right,10.866649751769728,9.293281112832119,11.346894379279547,0.825462691624125,27.35671892168466,29.165685586078325,15.307826044139802,63.947846186580136
2025-12-12 17:19:54.510678,Right,15.507483074907213,9.227870888056714,8.02703395851131,2.687739055007114,31.91634525739937,28.73974545839883,9.919944530411158,55.17218657967169
2025-12-12 17:19:54.513672,Right,2.1108369461944676,-3.8377481104289473,-2.7351606373049435,7.463615106917132,37.306085451025865,45.41352280478168,41.938979244732764,75.10226572924876
2025-12-12 17:19:54.517680,Right,-4.820596373192529,-5.694263949035303,-1.1267633392744756,5.983485999320692,30.93622744170716,45.16505406341457,49.42058114748215,81.15501032443717
2025-12-12 17:19:54.522705,Right,8.101160937047098,7.836360474857429,10.213714726094622,0.6775784026722249,21.939642976605683,24.591839855493163,14.365556635646499,55.14319705555681
2025-12-12 17:19:54.526654,Right,16.97762988271279,12.023090287599189,10.320852821545486,1.1775941666128347,24.28208326533786,18.338163078922662,-1.4248791870486457,38.76409501270973
2025-12-12 17:19:54.530723,Right,4.659449924776709,-1.1419190882297698,-1.3006681867882435,6.634054034713699,31.186766320184688,35.55376539853751,30.148279723667656,57.40901224227855
2025-12-12 17:19:54.534680,Right,-6.51874851039247,-7.372356101906917,-3.261298585906843,7.336741463735962,27.944257739116438,42.50807744998019,50.05762536288239,72.32315754052252
2025-12-12 17:19:54.537761,Right,4.591999778451282,5.491908841650002,8.464141497941455,2.580935983300151,19.016179327780264,24.320586139670922,19.96347304478695,51.169181982113514
2025-12-12 17:19:54.541776,Right,18.39367619431505,14.765161783951044,12.995629317543717,1.7549319946010655,19.282403847391834,12.216436214846908,-6.807292955869343,27.720523627998773
2025-12-12 17:19:54.545777,Right,9.945359244295105,4.239817921863505,2.7152285054489766,6.769470057502986,26.16781609886675,25.898557296110084,16.90128613259003,39.91498214495368
2025-12-12 17:19:54.549773,Right,-5.278690473438473,-6.345541286234948,-3.151660379307941,8.521135505528946,24.644050846385653,37.507548639332526,45.500652664122754,60.17241977833328
2025-12-12 17:19:54.554786,Right,0.29526825828725123,2.2787779850787047,5.918121409815285,3.9309473808443727,15.487341402971651,23.477107032274944,25.119728171848692,46.60969847076922
2025-12-12 17:19:54.558813,Right,15.996135336306907,13.99386024084015,12.960331129013866,1.7313398251080798,13.814353981491877,7.786592785909306,-7.504507342877332,20.08781339781126
2025-12-12 17:19:54.562761,Right,12.98249564753496,7.588910483789732,5.324455190248045,6.033824956830358,20.584167462598998,16.730417019716697,5.706263893283904,24.590293818269856
2025-12-12 17:19:54.565812,Right,-3.018631325187016,-4.67189062370926,-2.6475440094272926,8.316877047962407,20.46287201240193,30.004292497804272,36.565352246398106,45.41450824314961
2025-12-12 17:19:54.569815,Right,-3.5922401056850504,-1.0845460230375465,2.5883419351594057,2.9942157070327085,10.215300713156466,18.957424275911762,24.275307309188065,37.25434667125228
2025-12-12 17:19:54.573875,Right,9.256285165938607,8.9358077905963,8.464750828730757,-2.2858769082449726,4.648240128401085,-0.05156731395982206,-11.277685458670021,8.7865314266528
2025-12-12 17:19:54.577860,Right,8.054424314561402,3.579748643338462,0.806973196886247,-0.5865821798652178,9.229706545549561,3.47837932339462,-7.725360159187403,5.9693237282917835
2025-12-12 17:19:54.582852,Right,-7.427320171364045,-9.331770701185633,-8.46917163672515,2.2495896081254614,10.701115628166008,17.687017157062655,23.32053441449534,26.42692819290096
2025-12-12 17:19:54.586865,Right,-9.274669387883478,-6.503238707066885,-3.0792556535216136,-0.5197993774727365,2.7889306935685454,11.763619985140394,19.659241213426867,25.183293717942433
2025-12-12 17:19:54.590848,Right,6.044997678816799,7.014820820786554,7.034004696262855,-3.5912123130929103,-1.71184424211242,-5.634419945257832,-13.771114714967553,-0.2255262604157906
2025-12-12 17:19:54.593897,Right,10.566884893138194,6.786916423756338,3.8122272266809887,-0.06462242031557253,4.68669619080174,-3.0137707613030216,-14.583694699751504,-5.536854947684333
2025-12-12 17:19:54.597900,Right,-3.4533261973301705,-5.909095233606422,-5.8328387878973444,4.58594839046782,9.190651429576974,13.76600036113814,18.647317438211758,16.064461486195796
2025-12-12 17:19:54.601913,Right,-9.679440481642814,-7.069250028844181,-3.618854999071118,1.8833428781399562,1.784592666415847,11.39638630601985,22.43603750051261,20.080427892215084
2025-12-12 17:19:54.605960,Right,2.8252665500149305,4.978474303446092,5.722807883357746,-3.9476704492662975,-6.282108280509419,-8.808616253882064,-13.042715701267298,-6.314906378160231
2025-12-12 17:19:54.609923,Right,9.474269051963347,6.792439697284863,3.6575686583437346,-3.407574696957454,-3.139397388600628,-12.876943346338521,-24.966131289707846,-19.800708050941466
2025-12-12 17:19:54.614946,Right,-3.3885247230264213,-5.895289421499001,-6.986594387675723,1.2574330495644972,2.2612586750037735,3.2513396058930084,5.8316135149943875,-0.8708664120640606
2025-12-12 17:19:54.618971,Right,-12.693305800914459,-9.980489502147975,-7.032039174386227,0.8107011548017908,-2.4871907147971797,6.970178301264241,20.097016229032306,10.678059438694618
2025-12-12 17:19:54.621981,Right,-1.6603769372486568,1.858787275836221,3.2244668354096575,-3.8025437429914746,-10.110732121727779,-10.216078310077137,-9.42999729161238,-10.086666830364265
2025-12-12 17:19:54.626016,Right,8.961345377661928,7.5433795405779165,4.544844507265225,-3.8336749863055957,-7.929856456910784,-17.955614699501893,-28.80673842131364,-28.057486304169288
2025-12-12 17:19:54.629994,Right,-0.49842962012007774,-3.2779802847571773,-5.484793037931013,0.42248064672185137,-2.143657808774151,-4.585728604986798,-4.753207965790352,-14.656073611229658
2025-12-12 17:19:54.634004,Right,-12.647138942680613,-10.55258231253083,-8.509550838416544,0.15696227187709155,-6.222951059440675,1.561144538456574,14.292738360134535,-0.4757915889349533
2025-12-12 17:19:54.638029,Right,-6.237046902431757,-1.9240151244475783,-0.16505590928863967,-5.184233322133878,-15.273680200705712,-13.773606983704667,-9.338513540453278,-16.56487963757536
2025-12-12 17:19:54.642981,Right,4.526581116046145,4.5608150313128135,2.133818750377941,-6.637196796598801,-14.895408203025,-23.96932691449183,-32.145109876473725,-36.23751990280289
2025-12-12 17:19:54.645986,Right,-2.140444487136847,-4.598941421754716,-7.289609424282389,-2.5456084336638014,-8.285644938863697,-12.437743442496867,-13.103820471122162,-26.638337210941245
2025-12-12 17:19:54.650135,Right,-14.070149558265257,-12.406068910082467,-11.213191676562928,-1.686233905638801,-10.42076234453998,-4.349913175385154,8.203466114893672,-11.314455023326445
2025-12-12 17:19:54.654124,Right,-8.548250718437885,-3.7455283581425647,-2.1230038830262856,-6.415381877834079,-19.585798782740312,-18.29500669630943,-12.190848510690557,-24.584838591254083
2025-12-12 17:19:54.658126,Right,3.9654489387021385,5.26462668365366,2.9827536589900774,-7.6862703924234665,-19.88416275605414,-29.52792056709586,-36.865743804737576,-44.614046510032495
2025-12-12 17:19:54.662122,Right,-0.6500936693682888,-2.614904981091968,-5.647672748094919,-2.0754018343741336,-11.029257378588227,-16.36273623703164,-17.170052157078317,-34.25009693112224
2025-12-12 17:19:54.666125,Right,-13.83521777877013,-12.471005393118048,-11.62972979274764,0.8252470904299116,-9.950569449978502,-3.3768043669260805,11.217015417456423,-13.966197274719889
2025-12-12 17:19:54.671131,Right,-10.035995861660922,-4.935765592925691,-3.137137917613927,-4.723011113067969,-20.29905071277244,-17.61774920949756,-8.341161933491094,-26.35851395161444
2025-12-12 17:19:54.674112,Right,3.7919003315455484,6.036597349352178,3.700718318784766,-9.959803019638002,-25.682795458254986,-36.973266683235124,-45.02681674239648,-54.89819905691547
2025-12-12 17:19:54.677153,Right,-0.4229212500886206,-2.127710968145948,-5.977355520381934,-7.042008844893644,-19.215596693873522,-28.59603061994494,-33.03871415256435,-50.93555293830286
2025-12-12 17:19:54.682164,Right,-18.203702945470468,-17.283724023138802,-16.858837607542682,-2.6526446280367963,-15.267790158293792,-9.217002889490686,6.325065993944008,-23.55985289702221
2025-12-12 17:19:54.686120,Right,-17.63084360679477,-12.259113189391883,-9.57742942979121,-5.071781449230912,-22.29867614711111,-15.507134056155337,0.35494682967691915,-25.287837166397367
2025-12-12 17:19:54.690205,Right,2.519928975550556,5.779287758299233,4.188685387834084,-8.904591460852316,-27.427560563432053,-37.15616695716744,-42.260568916386546,-56.181622456686455
2025-12-12 17:19:54.694197,Right,8.122339957603344,6.550209529941412,1.6985772281436766,-5.690075335031906,-20.99115399096263,-35.393056092558254,-45.27270599191252,-62.302409482203075
2025-12-12 17:19:54.698214,Right,-10.112498110107936,-10.080405642797814,-11.129145282762465,-0.17298304102973816,-14.82962127344581,-13.52034569627358,-2.7111885209924367,-33.40285999585467
2025-12-12 17:19:54.702238,Right,-19.807455546259916,-14.381906423360874,-11.295769402241604,-1.7884374792154176,-20.40242251426025,-10.861766062000243,9.964308878246811,-22.095521479579475
2025-12-12 17:19:54.705225,Right,-4.406374151506952,0.4219847147845712,0.457547707041158,-7.3141588686401064,-27.812716751015614,-31.977490317089178,-28.740160215344076,-49.46782388586507
2025-12-12 17:19:54.710304,Right,8.557172049016117,7.953899182259647,3.1037058634449295,-6.662641176181069,-24.27559434916111,-39.77427687016461,-49.95729570865842,-68.27991142919564
2025-12-12 17:19:54.714257,Right,-2.2052003475992024,-2.9926893519728424,-5.97450043233664,-0.865212606407681,-17.14766157185295,-22.589954253358883,-19.168569342456976,-48.34614227558632
2025-12-12 17:19:54.718259,Right,-15.318075631799957,-10.564052682756937,-8.480279234110412,0.4161794596909658,-19.46239341217006,-12.567318250848984,6.151453745626895,-28.071396292580175
2025-12-12 17:19:54.722280,Right,-7.726242662056279,-1.701289484097627,-0.37298544455569527,-3.7149309457458344,-26.162393585575956,-25.871528413356828,-16.00387805245282,-42.74295699526556
2025-12-12 17:19:54.726299,Right,4.748928033058519,5.672025619754322,2.113613213579441,-5.073228100865627,-25.035085203639028,-36.59296388539951,-41.163346250256836,-64.04832500203338
2025-12-12 17:19:54.729234,Right,-0.6234409386722746,-1.663446830678879,-5.496275917186324,-2.1272538317055307,-20.09386717341613,-27.723812846385954,-26.512650632932946,-56.596932345377354
2025-12-12 17:19:54.733295,Right,-12.04652008290526,-8.383233533193788,-8.03983842284714,-1.7290648833408682,-22.821603806581606,-20.30944497855353,-6.391790890399079,-40.716321969838646
2025-12-12 17:19:54.737335,Right,-8.114767052950413,-1.8109262230008198,-0.8250259929443473,-4.929271999875937,-29.082578572477132,-29.62270703092645,-19.938877221134817,-48.456754445542174
2025-12-12 17:19:54.742268,Right,1.7035792787365835,3.9633516044190173,1.3142595482480601,-4.952073508357444,-26.762141655279137,-36.10627552801485,-36.965169526781665,-62.91920225773697
2025-12-12 17:19:54.746331,Right,-2.4289788363926164,-3.0570720191699365,-6.425270060172124,-0.9562540171382352,-19.7575145702765,-25.869635359752237,-21.721381577368675,-55.14025075926793
2025-12-12 17:19:54.750329,Right,-11.315561955894054,-8.285965367034805,-8.35095021448592,-0.32305277855789427,-21.615646715022194,-19.609372435775185,-5.332078277632718,-42.329123038395664
2025-12-12 17:19:54.754383,Right,-5.254722329678771,0.9624544989032984,1.4960094479338295,-4.247646639928917,-29.525794923104513,-31.900503169533295,-23.900880143482937,-53.04546621925692
2025-12-12 17:19:54.758323,Right,5.9656258064039775,8.95462068320353,6.1458747439323815,-4.43558467716889,-28.297926551018463,-39.814150284296375,-43.176339905030545,-68.13049031053379
2025-12-12 17:19:54.761365,Right,0.525365586778662,0.20458057777204885,-3.1856644043486995,1.2782259954701658,-18.800210290486575,-25.371912415627776,-21.523392983359372,-55.78736277956705
2025-12-12 17:19:54.765394,Right,-12.474783502013906,-9.725014065823416,-9.461211769404144,3.4227420249035276,-17.899857198855898,-13.227205137503915,5.004686005596341,-36.39372516757794
2025-12-12 17:19:54.770399,Right,-8.290327253739633,-1.844714093646644,-0.7153991613672588,-2.539448332752727,-28.182679388221004,-27.794724740724632,-15.654368989894465,-48.68621742932737
2025-12-12 17:19:54.774377,Right,6.011467679015368,9.703978326253036,6.791029983578937,-7.331067246446764,-32.70975164295123,-46.075876188080656,-51.296351877395864,-75.22873428535604
2025-12-12 17:19:54.778423,Right,2.504309717572596,2.1252689110156098,-2.3689917913548015,-3.9523966556553205,-25.329111586013823,-36.84871207426295,-38.802139118628475,-69.93665603052796
2025-12-12 17:19:54.782435,Right,-15.343574718843684,-13.331575136530773,-13.727249259489327,0.007411057898480067,-21.360010395615973,-17.685021482373486,-0.20046754783470533,-42.66416656918227
2025-12-12 17:19:54.785386,Right,-16.758262093505436,-10.216163101857546,-8.221836063431965,-3.540178415947139,-29.14463766890003,-24.000425874352004,-5.578862064199711,-43.610481596570025
2025-12-12 17:19:54.789448,Right,0.6323965446281363,5.370165953069318,3.4757391912962703,-8.38891266202063,-34.8777464121049,-44.7742395513269,-45.8349114192024,-72.13047554691002
2025-12-12 17:19:54.793445,Right,5.907394654414929,5.803065484267336,0.6343025885526004,-5.543572882022545,-28.27317839718671,-42.64994829987336,-48.66528435386135,-77.16662061700481
2025-12-12 17:19:54.797448,Right,-9.06424743414209,-7.998673667525054,-9.994792558760764,0.2583420250880408,-21.375793075065303,-21.990424459138012,-10.159379696606265,-50.18290362911648
2025-12-12 17:19:54.802498,Right,-15.60777647967734,-9.424878920395258,-7.741820985468621,-0.7220077775045866,-26.136373189950973,-20.13267313506003,-0.592553006064918,-40.22639058097411
2025-12-12 17:19:54.806448,Right,-1.823703872833903,4.021777033239687,3.199214902391759,-5.608009208565818,-32.72712684974613,-38.69201402849285,-34.708371111486485,-63.638823082910676
2025-12-12 17:19:54.810519,Right,5.817851167199478,6.5820721447321375,1.9501095496898415,-4.914926200414811,-28.591689442233474,-42.05806180998479,-46.81508814774497,-75.4730911396764
2025-12-12 17:19:54.813470,Right,-7.439574565530165,-7.069609931184459,-9.642229218085049,-0.5882236393199491,-22.20713928938858,-24.818374709215277,-15.263767345306405,-54.60721368712984
2025-12-12 17:19:54.817520,Right,-16.76511576575831,-11.55210107751327,-10.203338095332583,-2.141372894074266,-26.978157597171958,-21.64486700182897,-2.7532166116143344,-42.960828790048254
2025-12-12 17:19:54.821587,Right,-4.5849735665497064,1.4796041722865994,1.0633798961598586,-8.131241780884011,-35.42968842681876,-40.94026868438959,-36.54582409624709,-65.23367309133755
2025-12-12 17:19:54.825587,Right,5.451984595504655,6.811612623338078,2.2921271519089714,-7.987445793422012,-32.3207305281685,-46.93145658769572,-53.54417382655811,-79.93326163917664
2025-12-12 17:19:54.829587,Right,-7.47936428715002,-7.314543026673164,-10.186067396676663,-1.4155020648613572,-22.787987932460965,-25.876982106616197,-17.118197426785628,-56.094646677796845
2025-12-12 17:19:54.834580,Right,-20.323088595702757,-15.385188773093432,-13.601239008686207,0.3879991363883164,-23.422167264849122,-14.358784001458844,9.339724778215896,-34.658141050400445
2025-12-12 17:19:54.837585,Right,-7.0569513120181,-0.48538458148777863,-0.043994143681629794,-5.639093556264015,-32.58741352924335,-34.58586953219492,-25.854076120536774,-56.78451057805796
2025-12-12 17:19:54.841614,Right,10.99001961198337,12.51336462614654,7.411573465617039,-9.246431947012752,-34.04068392874251,-52.64902042835092,-64.81609718178879,-86.31805495640583
2025-12-12 17:19:54.845611,Right,0.028598885830433574,-0.9679500562078829,-5.568745966691495,-5.149247885502518,-26.357355169580842,-36.98372175630357,-38.19934224043391,-70.49862670714356
2025-12-12 17:19:54.849636,Right,-25.035511121331183,-20.989943569095885,-19.023692669213233,-1.874417779158648,-24.4770709284021,-14.189750546152936,11.00772818805126,-34.40391819893557
2025-12-12 17:19:54.853649,Right,-23.161802626915232,-15.543871582697648,-12.174279054440376,-5.972907910776485,-31.97429116397325,-23.202743781956087,-0.8710634206181567,-39.788371982445824
2025-12-12 17:19:54.858640,Right,3.558667493007306,6.383109766871712,3.0955274115995053,-10.343723038079588,-35.12426292595046,-48.7117041161182,-54.99930747960025,-78.49399357247603
2025-12-12 17:19:54.862736,Right,13.438665005363873,11.321930476546186,4.354284173283304,-6.851268570217144,-27.941338832137262,-48.47996064432664,-62.985407153042615,-86.0518083029965
2025-12-12 17:19:54.865681,Right,-6.209186586551368,-4.556577702302093,-5.987405150329323,-0.003963058207773429,-21.610381538066576,-23.172501369350357,-13.44188561073679,-49.480540953918535
2025-12-12 17:19:54.869676,Right,-22.11018828656961,-14.498932889033313,-10.243615394523658,1.3069810213737583,-23.566096648770326,-10.623385342289112,16.975946358441433,-24.871248323521286
2025-12-12 17:19:54.873653,Right,-11.712176142755197,-6.3617052553290705,-5.202348707804049,-2.7602441390117747,-26.973834484375402,-24.403645913364016,-10.100084417092148,-44.693246993236244
2025-12-12 17:19:54.877727,Right,5.642299920453297,4.510153487644857,-0.7797004104022562,-6.558148741218247,-27.105700886033446,-41.72728853544686,-48.83503087271674,-75.12945121536177
2025-12-12 17:19:54.881672,Right,5.480561091671916,4.619610415757961,-0.719469051779015,-8.280221898085074,-28.929994199239445,-44.36706370630418,-52.65958319924175,-77.4492546537731
2025-12-12 17:19:54.885725,Right,-8.304970268962279,-3.2329004145676663,-3.3106282238686617,-7.962065497452386,-32.02905624286359,-34.95276293711504,-28.070238030475593,-56.73652140979539
2025-12-12 17:19:54.890756,Right,-18.796998641688333,-12.291111836541859,-9.720741185319639,-4.145352788710625,-27.845627910504845,-20.805730921601935,-1.2762918160115078,-37.293401564107626
2025-12-12 17:19:54.893699,Right,-17.719973198520165,-15.651729121192147,-15.281497797025622,0.14901570118126983,-19.23395213551703,-12.753524081119394,6.704850947800878,-34.13632462795067
2025-12-12 17:19:54.897809,Right,-4.449265925986765,-4.626890557477964,-7.543447199032926,-2.716452848298104,-21.44371194550331,-26.33488720827154,-21.642265972946916,-53.89287403106573
2025-12-12 17:20:03.655829,Left,421.31745568652036,271.30678688440014,343.00808695284957,348.6701243769517,1681.231589383262,1899.2016467790443,1518.8807008869328,3426.7347361980596
2025-12-12 17:20:03.672938,Left,2266.190491469182,1459.712536390911,1846.0703745701073,1876.5272437566164,9046.589316773045,10220.700158188089,8175.561663140921,18441.895949386682
2025-12-12 17:20:03.675927,Left,5183.553812606916,3340.9206505174016,4226.230707710616,4293.801367491483,20695.5834430573,23384.14836638126,18707.7598863789,42197.10317619988
2025-12-12 17:20:03.679903,Left,6465.318621261092,4172.664073419282,5277.531937949352,5352.912638985982,25793.3054940171,29144.56931623084,23314.260215057104,52601.186387022666
2025-12-12 17:20:03.682889,Left,4354.700201995909,2819.8488559837306,3560.0097251510124,3593.6532847447506,17303.66963031006,19544.357557724456,15620.309108508685,35287.98908201049
2025-12-12 17:20:03.686892,Left,453.04401406006946,305.62176742258634,372.2663733240297,355.5891518226199,1678.022981219794,1879.036648829453,1476.3656340448943,3405.5278842936095
2025-12-12 17:20:03.690972,Left,-2490.1660083686293,-1599.6271464214879,-2035.1177121212168,-2065.9479114709175,-10021.26871252351,-11333.872992250836,-9078.191732191975,-20457.602636387746
2025-12-12 17:20:03.694854,Left,-3240.986559792771,-2090.046550586376,-2644.268014215566,-2663.5252809649464,-12914.936977988516,-14584.456473983591,-11648.29751058307,-26334.10065784969
2025-12-12 17:20:03.699909,Left,-2332.918113130174,-1502.37348505899,-1896.343915815698,-1910.965897781789,-9268.408589921542,-10458.376050093793,-8343.074645831017,-18878.199623627355
2025-12-12 17:20:03.702913,Left,-1022.4210415596317,-653.371972225119,-829.0388750380371,-845.1991347082512,-4104.756463946484,-4637.270521534549,-3709.0192122441367,-8363.066668438143
2025-12-12 17:20:03.706904,Left,-311.0904809635831,-196.39090765552828,-255.59774632185872,-262.0923477572651,-1295.4561195075512,-1471.1537891893531,-1185.414733098878,-2655.733989623026
2025-12-12 17:20:03.710898,Left,-465.62965110460937,-298.8606912973337,-380.62242055790557,-376.9001025715843,-1867.743515484617,-2108.9444230592344,-1679.778447110264,-3815.505142748356
2025-12-12 17:20:03.714936,Left,-1050.6450796039426,-673.6046561238472,-851.1970086877263,-857.5026534601056,-4185.250558797328,-4721.377188744955,-3762.7297650316614,-8524.800960668246
2025-12-12 17:20:03.718932,Left,-1408.4098018822551,-901.3702096300549,-1143.8930168388179,-1166.7594837551733,-5658.626272740192,-6395.043363591656,-5117.133695146651,-11537.64144524699
2025-12-12 17:20:03.722945,Left,-1248.9356105086044,-802.1742363857047,-1021.186156140815,-1038.3220003352617,-5032.276217719074,-5693.200951429084,-4562.365872224793,-10276.963718373096
2025-12-12 17:20:03.726955,Left,-836.897482765431,-541.728594033164,-685.4534868725605,-683.1767582642351,-3324.697011626675,-3753.70824039157,-2994.108764861943,-6784.584057113621
2025-12-12 17:20:03.729968,Left,-620.9363497559389,-400.7847074645106,-502.0817402139364,-499.7277300729329,-2432.017545418348,-2737.1561067270814,-2172.393460121937,-4942.464716517599
2025-12-12 17:20:03.734907,Left,-736.3520590178668,-470.42416772263823,-595.3474902798334,-611.0391346450197,-2948.9118476301664,-3331.0425639718305,-2665.434357304359,-6002.7166425450705
2025-12-12 17:20:03.739013,Left,-921.396267483331,-591.4638191732083,-754.1953924137924,-772.8167114540993,-3725.7094656650443,-4218.942233506357,-3388.505854974035,-7610.130924410652
2025-12-12 17:20:03.742919,Left,-886.4045310631918,-574.8190965289978,-728.2929524710926,-729.4283598639886,-3531.0236157152103,-3990.424482014496,-3189.385062405374,-7210.479481298942
2025-12-12 17:20:03.747025,Left,-663.1437817383267,-430.80941577213525,-538.8773007080017,-533.601975639438,-2587.3427615292603,-2912.006689905189,-2310.7123769171303,-5261.446718952386
2025-12-12 17:20:03.751013,Left,-525.1877031133627,-336.4789817384444,-422.71278024688945,-432.7004244295822,-2079.8380599879893,-2345.055160547723,-1871.296637016465,-4224.5831508731935
2025-12-12 17:20:03.755025,Left,-610.904603000381,-391.3624599057657,-499.5599577271496,-517.7539461291453,-2479.490894899587,-2810.0421503807884,-2262.3596391387982,-5063.646528417943
2025-12-12 17:20:03.758044,Left,-744.676346472057,-483.24781486944994,-613.5699438588927,-618.1049185757583,-2977.996388195781,-3369.2049869647017,-2699.1698234702926,-6086.0276106840465
2025-12-12 17:20:03.763035,Left,-686.7094183950976,-447.4417301494541,-560.2897157399275,-554.5660669174977,-2681.982006999664,-3020.7899582032114,-2399.785444887122,-5459.699406522559
2025-12-12 17:20:03.767035,Left,-469.39158081865753,-302.2742199019558,-377.31576437383774,-382.4501862830366,-1837.4757479592226,-2068.3687322867336,-1644.8263103489298,-3728.616421354236
2025-12-12 17:20:03.771071,Left,-353.1656219379802,-225.27250065469707,-287.5827063176839,-303.02095174827264,-1438.8358384392923,-1631.9085568825249,-1317.2425259376178,-2936.627858902095
2025-12-12 17:20:03.775038,Left,-458.36511911210255,-298.0672265879839,-379.87628667251556,-385.7195465292898,-1843.9390291803284,-2090.041764959926,-1680.8227235594532,-3774.0131896708626
2025-12-12 17:20:03.779029,Left,-593.7512820974225,-388.6789557039592,-486.6540143615275,-481.65574960320373,-2314.9369357360993,-2608.711542161065,-2075.118766269181,-4714.630302257836
2025-12-12 17:20:03.782091,Left,-529.6571959072025,-343.82352252279816,-428.0720184521051,-431.2490717966284,-2058.5161221702583,-2316.565298436559,-1841.9426408550935,-4176.735602124827
2025-12-12 17:20:03.786142,Left,-322.8380454998987,-207.48933305533137,-262.44567942866706,-276.3247000986303,-1295.3972992402269,-1466.808638088056,-1182.3820077970158,-2636.9009322768543
2025-12-12 17:20:03.790153,Left,-226.57210350467358,-148.60192708855902,-190.40156888110505,-196.2825290042092,-918.7088188685011,-1044.9750263936585,-846.957529557636,-1885.4138459896203
2025-12-12 17:20:03.795134,Left,-327.0845589050732,-216.18885300654802,-269.86398509789433,-263.9354682808771,-1264.8123538634973,-1424.6818427830003,-1131.492772333324,-2578.867898901459
2025-12-12 17:20:03.799166,Left,-435.367962998047,-282.47925164931803,-351.26778957645,-352.41289386739663,-1690.860460177646,-1901.735751106171,-1509.1327806581976,-3432.714257761836
2025-12-12 17:20:03.803127,Left,-369.94704712883686,-236.71794786791725,-299.4761416153633,-313.29605159987113,-1488.3989653994795,-1684.124567796127,-1353.241181191639,-3032.8029766462278
2025-12-12 17:20:03.807158,Left,-203.18320554035017,-132.32591103739105,-170.45833550108364,-177.830021092057,-835.6677494584583,-952.1845598553773,-773.2257804441033,-1718.8814629355911
2025-12-12 17:20:03.810188,Left,-135.2931810990849,-92.88665385080094,-114.40813738887664,-107.31518850788416,-504.7496032504714,-567.7419544390868,-448.3918541429448,-1032.2645105369156
2025-12-12 17:20:03.814171,Left,-212.71611338687944,-140.82035402135807,-170.7888177508139,-168.2367204659531,-790.135592240491,-883.4997761972481,-694.5265857367776,-1594.1204821418505
2025-12-12 17:20:03.818196,Left,-289.202482162611,-186.31175379880005,-233.5388338915218,-246.53973329797736,-1148.9609132808982,-1298.808273021481,-1044.4039415643783,-2333.9459528982406
2025-12-12 17:20:03.822198,Left,-241.99009092395136,-158.01986572053283,-202.2437518788647,-212.75425357485074,-987.7693967367522,-1124.451200369862,-913.836538548232,-2025.8147846970242
2025-12-12 17:20:03.827167,Left,-121.21072386429296,-84.36005065290374,-104.20830427549663,-98.09734321880387,-455.11070904601365,-513.3773205861216,-407.98276609479217,-934.3466668038163
2025-12-12 17:20:03.831286,Left,-59.29010490454675,-42.216243858318194,-46.0720418329729,-39.44860559872177,-178.9150877384236,-192.3863958119764,-139.79568030277733,-351.29369487590156
2025-12-12 17:20:03.835235,Left,-98.82961667136988,-62.20643513153482,-76.38928959915938,-86.10462074719544,-392.30840747250477,-442.1526027023792,-355.43011603638297,-791.7618940599496
2025-12-12 17:20:03.838251,Left,-156.87597141037986,-100.35373599000013,-130.91722200428194,-143.53101343584422,-667.9303478400107,-764.2167904683738,-626.8693600691622,-1376.9842085129349
2025-12-12 17:20:03.842210,Left,-138.90779048627883,-94.13166717796412,-119.11675055990781,-115.7524060259093,-548.7918666551122,-622.3968980687787,-499.2311760718585,-1132.9346087356098
2025-12-12 17:20:03.846246,Left,-51.16029591181723,-37.77620517322066,-40.772756897247746,-31.830003967465018,-145.9784494273481,-155.3085325146676,-109.62502493395004,-287.524875753792
2025-12-12 17:20:03.850290,Left,13.152228549741267,8.53104222805996,15.284868948809162,9.654381086060312,74.25014032050967,88.15880299528362,72.75731107851607,165.2834126414382
2025-12-12 17:20:03.855377,Left,-8.192306018987438,-4.931643430267286,-8.737310169824923,-21.64151177410531,-64.98215428870753,-81.87340571105597,-81.70030260569183,-140.57500891340896
2025-12-12 17:20:03.859250,Left,-65.95906882103009,-47.475294878364366,-60.70733362019382,-60.13817676760664,-263.76107574481284,-302.93508791484055,-249.30000373380608,-551.5457831766107
2025-12-12 17:20:03.863307,Left,-62.844235943150125,-46.82898738632866,-52.477683398548834,-42.844879544158175,-191.1412303671823,-207.70742199238157,-153.60716641310137,-381.76071789098205
2025-12-12 17:20:03.866311,Left,14.231321621620737,7.771450123498653,15.88492585469794,13.67801782821698,94.06515112539637,112.87925144509063,96.34844253389747,208.6504127648077
2025-12-12 17:20:03.870328,Left,74.83529683408051,48.73012261066833,60.371099029165634,48.107053228588484,273.8232390718622,302.7203901171015,227.82957591257582,555.1859675526794
2025-12-12 17:20:03.874410,Left,53.63637778884731,30.231913125688152,36.92132964294251,35.39247992660421,204.65076003241848,224.51311976368743,168.67644162041688,403.4666611075372
2025-12-12 17:20:03.878300,Left,3.108482955400177,-5.1253535843070495,-0.27919094889603,9.489961315866822,68.59166620443284,83.99974326353913,76.54825326256105,145.3699206615347
2025-12-12 17:20:03.883358,Left,12.46596483309986,5.245012183873769,13.973153361741652,14.378544182063706,99.58609977307697,120.77167111131257,105.03729106754554,221.84262012844738
2025-12-12 17:20:03.887369,Left,77.18572030036466,50.645926683644575,63.851379272611666,52.01132843537653,288.93092897112365,321.66355466550885,245.7604680880322,589.2904594784632
2025-12-12 17:20:03.890405,Left,115.97037971657483,72.62458555259127,88.99862599116386,85.3690455178039,434.56322357715544,482.496463350908,373.3373359869438,868.3719826270244
2025-12-12 17:20:03.894425,Left,97.16947444071047,57.4154523274301,76.23493852240063,86.14484794048622,418.7704856387136,476.7269574316597,388.8643180204672,849.8308572423703
2025-12-12 17:20:03.898424,Left,73.84692972074845,45.67246137661641,64.32068970524415,67.77753413191385,336.2353197330667,388.3475267312024,321.91113999680965,699.256661968102
2025-12-12 17:20:03.902372,Left,89.715110584395,59.581658666375006,75.69873878983708,64.81171223364436,340.29515585594345,381.4599394951074,296.79425235278904,695.83023824665
2025-12-12 17:20:03.906453,Left,120.55081613427319,76.48089757117123,93.53355036681023,87.41939835372614,447.2951131898444,496.2410800406651,382.34373422071803,895.687866759079
2025-12-12 17:20:03.910413,Left,130.93113918172457,78.94781207068445,102.6117004382686,111.70817305265518,548.1307713546266,621.0614643103036,500.84263213255326,1111.6714372148854
2025-12-12 17:20:03.915497,Left,129.75492812909943,80.65749104679708,109.07359362360148,115.62396220328083,567.4706123983779,650.4516047166544,532.8503867830732,1171.14140152873
2025-12-12 17:20:03.918437,Left,137.10435900667653,90.12433045821672,115.45622166925023,106.70694854297471,539.2574350035284,608.5467462974484,481.742678619019,1105.5479068700224
2025-12-12 17:20:03.922502,Left,143.5210200184374,92.58872070248617,113.33742094252375,105.34448935472028,531.9651163365343,591.3248079202604,457.2892486990895,1069.1398115848424
2025-12-12 17:20:03.926518,Left,138.761921568017,84.67255663356627,108.1134281522609,115.6900866772994,565.5763217707863,638.0454723469447,510.9947753478191,1142.742323410348
2025-12-12 17:20:03.930495,Left,142.42495353505365,88.11857403851172,118.2830010724283,127.34007760872191,619.8276405750075,709.3843433568836,580.9666808090406,1275.6419294215739
2025-12-12 17:20:03.934509,Left,167.35818840749562,109.22360327593924,140.90769165958045,134.8128055897687,671.6652709617047,760.4703453448601,607.2165716863819,1379.3162292423658
2025-12-12 17:20:03.938544,Left,185.22402167369728,120.36205299248104,148.59956899526878,139.1671956727223,696.5914347943617,777.6003472378361,606.0489403165411,1407.7323671384947
2025-12-12 17:20:03.943572,Left,169.89176776284876,105.4136396507165,132.86932410064037,138.12693843677698,676.6546373709571,761.1339711074834,605.4201082731597,1366.4145048994105
2025-12-12 17:20:03.946555,Left,147.9263108184532,90.89618470441201,121.28681001266523,131.77135946194176,641.0663422950311,732.7792014851584,599.0897936099209,1316.538504027878
2025-12-12 17:20:03.950548,Left,160.67089843451686,103.98647914256435,135.55833245332178,132.2091979219258,658.3260060704197,747.8116680370294,600.6265869535273,1355.7357237959513
2025-12-12 17:20:03.954586,Left,196.02261801839632,127.7285674498562,158.49838813141105,148.53144006199727,743.3531459195074,831.5011184707982,649.9914220417268,1507.1329228368122
2025-12-12 17:20:03.958598,Left,206.16887571498228,129.7467102069786,162.27576826080622,165.72219813545235,808.9832003307529,908.5275733931921,720.142978728516,1633.9090198804624
2025-12-12 17:20:03.962636,Left,182.64915246405872,113.4671989808412,148.64515830720484,160.6855811318528,771.9029232396861,879.29434822849,715.7587278900319,1578.8336222253274
2025-12-12 17:20:03.966609,Left,165.61847125081113,107.19365051698696,140.0969007933163,139.9059627786337,684.3164286151296,778.9840612991247,629.5883330134675,1409.565615747124
2025-12-12 17:20:03.970657,Left,179.28398920124164,117.7436649557203,146.30446592974477,136.1244828093768,680.6116408758098,762.0014925587457,596.2965126463096,1383.09000664833
2025-12-12 17:20:03.974670,Left,201.9619334510935,127.63124766775582,158.62343111242808,159.82972469521337,787.0998087159824,882.2416055945214,695.8919621506357,1589.7039336606394
2025-12-12 17:20:03.977653,Left,206.66752876352984,128.02451785473386,166.39684116328135,179.5502282926318,870.3379807588644,989.2862801954616,801.5620583287673,1778.3840891111176
2025-12-12 17:20:03.982654,Left,195.1767757126945,124.90679942097631,163.5898418004217,167.16093442235433,818.6591724931495,932.6690511229681,755.2596761753084,1686.6523044495843
2025-12-12 17:20:03.986680,Left,183.3405516249768,120.66990915015049,150.895933157939,141.35348418583453,704.9691415654961,791.3145084005082,622.0674108482199,1437.2183858330827
2025-12-12 17:20:03.990682,Left,181.45057772661676,116.0803373439121,142.64327308880456,141.10511303030944,691.0342776962789,771.9662558474811,605.4841209048172,1391.5534965533298
2025-12-12 17:20:03.994633,Left,194.21861956777866,121.14190781219804,155.6250319305109,168.5020454598125,802.6647971896455,910.3580954056233,736.8628928603139,1632.8119875583798
2025-12-12 17:20:03.998700,Left,214.456003978441,137.87465502174746,179.61878000962315,186.65296732855495,892.3009051032132,1016.6200383238029,826.25118306675,1832.889568802435
2025-12-12 17:20:04.002722,Left,217.62764840613818,144.22808643983444,180.97307704994455,172.96321936542518,840.5292489239946,946.2679059403017,750.2263486904558,1714.5092273415066
2025-12-12 17:20:04.005741,Left,191.8398705307336,124.9138481253176,152.46518101845868,148.2571212896437,717.0738886826439,800.0584489289904,626.4332096247235,1442.9074658397585
2025-12-12 17:20:04.009738,Left,168.5224544587836,105.33115878647368,133.67228499636985,144.91143418720458,685.1782426548889,774.9723016382195,625.1965837010648,1388.0405466395896
2025-12-12 17:20:04.014738,Left,185.43065454004682,118.13473510320182,154.8005160675093,164.4117937317642,783.5436255643144,894.4540708143031,729.9866108536953,1610.7861912474036
2025-12-12 17:20:04.018691,Left,221.99319541887962,146.14836319431197,185.13518153707264,179.42005375976441,876.3932370062685,989.80389161536,788.4449008269003,1794.5710755905602
2025-12-12 17:20:04.022797,Left,219.94729477717192,143.16062818562204,175.9719082521333,170.0259663197503,833.9399348713923,932.465256417403,730.6473116453271,1686.8749279205222
2025-12-12 17:20:04.026775,Left,175.0008369005809,109.31214491360879,137.63378531116177,146.80563422571868,704.8301986365113,794.9829135097098,636.4939420545707,1427.546910066856
2025-12-12 17:20:04.029789,Left,151.90280173937208,95.4032705915306,125.97610364120919,137.13449986549676,653.6867064770777,747.6643120482331,612.4725752174854,1345.3239134617615
2025-12-12 17:20:04.033799,Left,185.43060940611758,122.08463555945491,155.96717695251573,152.25996254908387,742.2925445726141,840.7683381399838,673.0453082917957,1524.9547422132455
2025-12-12 17:20:04.037757,Left,222.46973005350446,145.7490286895627,179.44572115165647,171.90263598348247,843.1622221696889,943.3751541449456,739.5485804541968,1708.5127344299108
2025-12-12 17:20:04.042820,Left,203.79997037630528,128.68637559516355,160.763383071695,167.52817715515266,808.3197236806154,909.509271593648,724.1284381480655,1635.9830832188018
2025-12-12 17:20:04.046901,Left,156.45163088478148,97.6936576282751,128.36424651293783,140.63035499461694,672.561886867159,768.16111853451,627.8085113713751,1381.5852907761
2025-12-12 17:20:04.050906,Left,148.63124408805743,97.50911309332878,126.09315069695003,124.69564973469824,609.8137149985414,693.3769694204675,558.320647118031,1258.4709573031869
2025-12-12 17:20:04.054889,Left,183.77756648886134,121.18589906010311,148.9736630457628,140.53485622469452,693.5464026978007,775.603606127901,606.2570305779809,1407.751786669949
2025-12-12 17:20:04.057850,Left,202.70927024964476,128.7054047734855,159.58960941055557,164.2777228714258,793.1705355180893,890.5897073135711,705.9097781687742,1603.4955700919963
2025-12-12 17:20:04.061877,Left,178.73774977674475,111.69683336204616,145.2423343900009,158.8590745284746,756.598613811424,861.9379953818861,701.9376120072557,1549.5664088451304
2025-12-12 17:20:04.065916,Left,149.1689793888945,97.01538659859216,126.52501486902474,128.09123270367854,622.8861364140175,709.9721063799225,574.9936007553479,1287.3965144476388
2025-12-12 17:20:04.070888,Left,148.6857096812164,98.48075009256718,121.40506010781974,112.41560931206914,563.0657994151115,629.6557606578572,490.971949056373,1147.1909965320956
2025-12-12 17:20:04.074860,Left,164.24220615136437,103.96323771566676,127.89433549734531,129.76118714440963,637.86995293363,713.6806849394925,561.1066876051482,1288.3770127859898
2025-12-12 17:20:04.078860,Left,169.27464352501556,104.68934789500781,135.8755239371385,149.99256624281406,720.0931363112759,819.4688549758866,666.0569382434478,1473.8216600746382
2025-12-12 17:20:04.081921,Left,161.2258755862713,103.97340604147757,136.12425645976327,141.1488470005861,681.9532520106295,778.5141662245151,633.1699550629128,1409.4795074309222
2025-12-12 17:20:04.085929,Left,149.87429963273462,100.37880097828747,124.13453758414835,115.76869381358847,568.9186797166476,637.9793887495762,500.7431953168707,1161.428866355447
2025-12-12 17:20:04.090101,Left,140.3646490156243,91.10844576871023,109.59456443606177,108.58874529012246,521.6097219913499,580.4813385090092,452.86741669708863,1046.954520650208
2025-12-12 17:20:04.093976,Left,139.4051716333197,87.21625710120134,111.07451561509515,124.45229717445909,577.8274988159537,656.0870784098515,533.7058142283931,1174.5242142707575
2025-12-12 17:20:04.098008,Left,150.56633344915463,97.73249106040748,127.55118162569124,135.5191962037352,635.310749900178,726.5119453994557,594.8971957963658,1310.0032954947092
2025-12-12 17:20:04.102998,Left,157.10962236011983,105.80666468189156,131.64440821597236,124.60086510371184,602.8049759527203,678.3836147792172,536.6731643010862,1233.13812448713
2025-12-12 17:20:04.106953,Left,139.18094922185992,91.11139021914278,109.29887921869522,105.7063964594563,514.4088362546172,571.6432051772717,443.63903593318537,1034.510555675486
2025-12-12 17:20:04.110022,Left,112.02469695967739,68.82694308603823,87.10210112974164,98.93671077507315,467.96568717376795,529.8481914952863,428.72764644096605,949.7650055731647
2025-12-12 17:20:04.114039,Left,111.73664148771786,70.86849032645114,94.42696650492144,104.92058097521658,495.7316184001975,569.644017109531,470.72351731394883,1027.2862025892828
2025-12-12 17:20:04.118020,Left,136.3757643767749,91.99123944537132,115.63104786371696,110.76450013538124,536.2112084928667,605.8651202728506,482.9183395820437,1102.6527297927532
2025-12-12 17:20:04.122035,Left,142.42952120443806,94.84999384902767,113.35939001856605,108.02069831290282,520.9922787314281,578.9265848012874,449.4873937475495,1048.8699785256758
2025-12-12 17:20:04.126053,Left,113.81899986235658,71.51181626337348,88.13365465524839,98.13173220300814,456.08238801639527,513.6958590887953,412.8652179001365,919.6740278853104
2025-12-12 17:20:04.131075,Left,90.23648901394336,56.89783087099204,75.86700581002515,88.34414539206773,406.4043898844393,468.3062169490149,390.6629330435535,841.0739774911199
2025-12-12 17:20:04.135067,Left,102.5837254038779,69.74161793960957,88.63909299962688,86.1956127427402,412.9147955747321,468.98649982362986,377.5992300728103,854.238080246374
2025-12-12 17:20:04.138064,Left,122.76268468706985,82.72689275827724,98.43834439580678,91.70159690329456,443.9919711215189,492.5157535501057,380.600386765087,894.9418243875261
2025-12-12 17:20:04.142027,Left,112.64083499537082,71.48602481353737,86.71957329049474,94.3905645092309,438.5522715317784,491.4630632190965,391.35225438070484,880.5313656942453
2025-12-12 17:20:04.146033,Left,86.66449997018208,54.506435636183596,71.92667851697479,85.67276170535479,385.9247217096854,444.0782261437271,370.8083705237368,794.5024420300033
2025-12-12 17:20:04.150099,Left,82.37190019147238,56.72722440879443,72.86098528525326,72.79965654533589,337.7880966779776,386.0019850562094,314.9995679097483,701.5510309066158
2025-12-12 17:20:04.154124,Left,95.84721665273537,66.38192680780776,78.09567521497956,69.96640662023856,335.7129991207039,371.0492170914076,284.4133632784942,676.4865817469545
2025-12-12 17:20:04.159146,Left,94.66189013191615,60.65104546742805,71.95685849610891,76.40810666726611,355.7549485716736,395.7978872511303,311.0509539729683,709.9379282747395
2025-12-12 17:20:04.163149,Left,77.50128238284378,47.82620034617139,63.02423536818242,76.96261593830422,347.4947092239745,399.3757263950538,333.2287199792336,713.6029723519459
2025-12-12 17:20:04.166148,Left,71.4548828935367,48.63169427578396,63.911476621738984,66.24884868250228,306.10396382422186,352.1155946472427,290.8753811896313,639.4177810011897
2025-12-12 17:20:04.169171,Left,78.90062512803706,55.97210818399617,65.74542673726683,56.89694522669015,271.39457406662405,299.82904448371846,229.1364850588725,548.9616789889988
2025-12-12 17:20:04.174194,Left,75.8250205651857,49.97128105953743,57.029646110459,58.23131627915427,265.0106807128759,291.33486856881063,224.52674920868594,522.2707038882654
2025-12-12 17:20:04.178230,Left,60.83110205052071,37.71575842813763,48.422601318656234,62.041075964443735,266.5810720513109,305.8873874954879,256.59846594178816,542.2020292491652
2025-12-12 17:20:04.182202,Left,58.20715501887025,40.17679334299464,53.10724420165934,58.22906286509533,254.27069151110481,294.7526384679368,248.30675303708995,531.72394625179
2025-12-12 17:20:04.186216,Left,68.96720943972468,50.52479056692391,59.19689323300554,50.798870574872126,233.167773607478,258.41937188699376,198.99729432555614,473.18232171528507
2025-12-12 17:20:04.191167,Left,65.53579337408883,44.537076632957906,49.11704963548982,47.4568516267027,213.38473954395158,231.754093704978,174.3971427170327,416.5313694474753
2025-12-12 17:20:04.194230,Left,43.554666890297085,26.064558437094092,32.65917773434194,45.29940246359911,191.68930945638567,219.32666450645775,184.00460814725375,386.86344777524937
2025-12-12 17:20:04.198228,Left,33.44301936641568,22.250854826925206,31.559879137275857,39.204235873621656,169.57639548601583,200.38331433164421,174.30140386492712,361.3895476401085
2025-12-12 17:20:04.202260,Left,46.651320854594815,35.087019514423446,41.57153594290139,34.23754564259434,161.11966015445068,179.66216667287517,138.71413090632996,333.0850937125506
2025-12-12 17:20:04.206321,Left,54.02960188043653,37.693313580952235,40.299954247515416,36.02236799195816,164.58078920200933,176.13979705586098,128.02144457760733,319.23369952465873
2025-12-12 17:20:04.210217,Left,36.91713190046721,22.25955127707857,26.22419050919416,37.278358901749016,152.7218823946896,172.92035387066426,143.54195295565296,302.9864876602078
2025-12-12 17:20:04.214287,Left,19.029623296839418,12.400869331511785,18.938869880817947,28.8857029943174,114.22011410596315,138.18444196146447,126.05423876387067,246.23517287685536
2025-12-12 17:20:04.218285,Left,23.20417643910332,19.51664396346314,23.32579939076095,17.832159965561004,80.67763319681399,91.36662984697614,71.87725542258704,173.22892746864818
2025-12-12 17:20:04.222306,Left,33.16010759458004,24.584739573299885,24.18836539410404,17.88363226367801,83.3092619794188,84.54858738934854,54.03474211337743,156.79241796256974
2025-12-12 17:20:04.225324,Left,26.548169753921684,15.866726287298661,17.001902952979435,26.107263458005036,101.29600921995007,112.48779181559803,91.80332896887558,194.72740258532576
2025-12-12 17:20:04.230367,Left,14.0720672049938,9.316715861736157,14.24219155103492,26.18230086553376,88.69008421309991,108.76023502531461,103.76906602812232,188.95532616926357
2025-12-12 17:20:04.234367,Left,14.773978244600585,15.450978686647431,18.06882634788053,14.908676560487947,43.68244293238968,51.25044097477803,44.89285941334674,95.61145495937672
2025-12-12 17:20:04.238373,Left,19.548520043026656,18.642471492938057,15.385140434329514,7.298368956100603,12.333250635070726,4.107323303411249,-9.025618547428166,9.078650297247805
2025-12-12 17:20:04.242329,Left,11.910739435435971,8.411043862441147,5.277858859444677,11.489180148972082,20.217585687234532,18.032780064211693,12.984039761184249,22.782409889041446
2025-12-12 17:20:04.246359,Left,1.9080972415104043,1.007011706737103,3.2362395447999006,16.030089013031102,36.594605772261275,48.98738545976812,55.148585151764564,78.89607434876962
2025-12-12 17:20:04.250407,Left,5.273961892547959,7.958934280824906,10.585620071316953,9.643855407834053,21.113080408860696,28.223064088611864,29.508897575200535,53.63384079193929
2025-12-12 17:20:04.253395,Left,9.260890708239458,11.682127948755806,8.224177041294752,-1.4616004567651544,-21.137175982032204,-32.254576035484206,-37.857590536092175,-53.398031930439174
2025-12-12 17:20:04.258379,Left,-4.249255740825902,-2.0659959369368153,-8.23765333967458,-5.719789389557263,-51.55393442817149,-64.82653650231077,-57.66998028472881,-123.2731183777214
2025-12-12 17:20:04.262376,Left,-19.874822352139745,-14.36841000111599,-16.23369075906521,-3.762238734670973,-49.85871357115684,-49.75532976113027,-26.167322075751144,-98.59273630328244
2025-12-12 17:20:04.266452,Left,-13.253798490768531,-5.78551619972859,-4.967977878957754,-3.745178371114889,-35.40384997110232,-33.3797816845763,-17.251033369946526,-57.12794783478603
2025-12-12 17:20:04.270503,Left,1.1832065549097024,5.959878780889994,2.682989460474346,-7.7966209210135275,-40.747403132292675,-52.487088842637604,-52.957828380487626,-86.58676132600522
2025-12-12 17:20:04.273553,Left,-8.250386126877856,-4.221034449761646,-11.403233227138116,-12.434479145813384,-74.15152643364854,-91.96280092513189,-83.24156135135854,-168.7632843501051
2025-12-12 17:20:04.277503,Left,-32.36320514699037,-22.53770449477088,-27.634797237886232,-16.057621315794677,-109.47571266528394,-119.13818523063674,-84.45538135204697,-224.74874468854978
2025-12-12 17:20:04.281503,Left,-33.48132810462266,-19.16048464494088,-21.50830500265147,-18.055541705951327,-114.65849328447075,-121.76515702767938,-85.1488221167383,-220.4645656180801
2025-12-12 17:20:04.286502,Left,-11.76201948576636,-1.5302902457442542,-6.108449282397487,-16.593260905687202,-92.96931167604635,-109.669240742689,-95.74260580386908,-191.48442686765338
2025-12-12 17:20:04.290501,Left,-7.510352393073845,-2.2957021935799276,-9.841040679977596,-14.374007744558185,-85.83751681671129,-106.46298367444251,-97.32583285971486,-194.2076965397282
2025-12-12 17:20:04.294533,Left,-32.31379899478998,-22.575065291983265,-28.711636883959727,-19.087863729291712,-120.64222765037994,-133.960490986472,-100.04996767791454,-251.6914073513035
2025-12-12 17:20:04.298516,Left,-49.34661804170719,-31.129202091300613,-35.410108825066345,-30.504098902178157,-167.2221111111794,-180.03725994386332,-130.90244628782966,-326.26674415638263
2025-12-12 17:20:04.301609,Left,-36.90930741973352,-19.17674528099269,-25.94017655564312,-36.27003942752526,-173.98947706172112,-198.34176881023814,-164.60809553014042,-348.92198601899145
2025-12-12 17:20:04.305592,Left,-23.142434042722016,-12.788742691838706,-22.196994178904788,-30.155252982692218,-143.26539720818255,-171.22560863010403,-151.88906283891447,-305.91878772680866
2025-12-12 17:20:04.309535,Left,-34.36734441899807,-24.583134358996176,-31.744121023359185,-24.571413299532196,-132.83469572620106,-149.58775258276182,-117.17177754702425,-277.1717530345859
2025-12-12 17:20:04.313593,Left,-51.890761937679144,-34.03521969203052,-38.58730108556381,-32.2919070468745,-172.0490811679374,-185.0146732745743,-134.70278319542558,-336.2533067955228
2025-12-12 17:20:04.318537,Left,-49.82508381941716,-27.910551849922626,-35.492587942974296,-44.89811460815781,-216.58251564025704,-244.08874193792872,-198.27872391355777,-432.01502283880836
2025-12-12 17:20:04.322668,Left,-39.7460764789721,-22.811785855555172,-34.5400672922151,-45.52529329281242,-214.18412787033594,-251.390283587476,-217.36340381685295,-448.5238282296341
2025-12-12 17:20:04.326748,Left,-44.27450603271427,-31.10126025907175,-40.669966305555135,-36.551427273005174,-182.45983398441604,-207.9681257890188,-168.4469071662461,-380.78974079979525
2025-12-12 17:20:04.329641,Left,-55.55723124442193,-38.15081165593074,-43.05513962093937,-35.77422778313303,-180.07928926171735,-194.1001011223707,-142.7670815053134,-352.8377972165763
2025-12-12 17:20:04.333648,Left,-54.941616554362554,-32.73409743190132,-39.35949044729932,-47.15163838978333,-218.82604587198875,-243.85585519578308,-195.31973214978643,-430.8762518778676
2025-12-12 17:20:04.337668,Left,-50.05198388959616,-29.36294277323759,-41.8280686301332,-55.09891870375941,-251.1277375237405,-292.2070810188743,-250.52901036273397,-519.2924901310762
2025-12-12 17:20:04.341689,Left,-56.95479760180024,-38.91533933424762,-51.46261190249788,-50.666889793581504,-244.03754971371382,-279.66004649802926,-229.98960227395582,-508.56930891095544
2025-12-12 17:20:04.346676,Left,-65.72570816236475,-45.60443376287003,-52.66664662078256,-44.825478255879716,-222.3004347879032,-242.55896941936226,-182.53565014690685,-441.81702953460626
2025-12-12 17:20:04.350687,Left,-59.85313901970949,-37.14418382885924,-43.20575990861835,-48.81265067507411,-224.855277558323,-248.26107550706365,-195.61613050306914,-439.5952588279033
2025-12-12 17:20:04.354733,Left,-51.913279931592115,-30.75635520796277,-42.264891529790475,-56.998015722590935,-251.3801518144901,-290.99764910523663,-249.09769964107545,-514.0638098283089
