timestamp,label,FC3,C3,CP3,Cz,FCz,FC4,C4,CP4
2025-12-12 17:57:00.837766,Right,1223.327166303822,1572.4574910447798,1550.831988186821,1566.5379623479223,671.6487772265453,1389.2579794040248,1405.2891311380733,1626.1012202832026
2025-12-12 17:57:00.854813,Right,6589.318988746838,8467.614836309624,8350.976112820503,8436.49773243124,3625.241698946289,7481.435715518186,7567.633613270962,8757.129567758373
2025-12-12 17:57:00.857806,Right,15088.384320880297,19384.578792408294,19116.750452539003,19316.1417634203,8356.195547967107,17126.92084259544,17323.835114592177,20050.738370041992
2025-12-12 17:57:00.861816,Right,18820.153172332735,24176.96958857788,23840.780059230834,24097.657351041853,10593.091294220969,21358.82281274996,21603.095225285542,25016.821998521493
2025-12-12 17:57:00.865830,Right,12656.800312108542,16267.0897018447,16036.845448589454,16222.855057899847,7405.558703032759,14367.175665807816,14527.159250240591,16845.81678718311
2025-12-12 17:57:00.868858,Right,1358.457458198609,1757.51042192179,1725.63058117959,1766.4788559559966,1096.4395626040277,1554.8278354805952,1559.906073460923,1834.2820809561817
2025-12-12 17:57:00.872856,Right,-6997.8020778305945,-9000.939568367146,-8884.027639511245,-8955.943634135707,-3925.28448696158,-7929.378301972465,-8041.565243575547,-9311.632333813468
2025-12-12 17:57:00.876864,Right,-9006.29010793462,-11616.125658328878,-11462.438108312781,-11562.167695259297,-5314.879195574715,-10224.279474486131,-10365.204467254167,-12026.9597030078
2025-12-12 17:57:00.880884,Right,-6447.021068569302,-8327.797624962463,-8220.076347913826,-8284.381220175826,-3736.0206375485286,-7326.295221106382,-7428.994529788382,-8616.661116703239
2025-12-12 17:57:00.885885,Right,-2853.4937516079517,-3676.9643956884975,-3634.340285455459,-3651.7085736278677,-1482.2639006951067,-3233.8536435735296,-3283.942565303878,-3794.6581097838352
2025-12-12 17:57:00.889907,Right,-839.1994910179637,-1073.1079941705102,-1065.896169800486,-1060.093910831667,-414.78384250958334,-935.8835804568953,-958.1910687404452,-1103.5669452379807
2025-12-12 17:57:00.893915,Right,-1184.6070694661466,-1534.5405749654747,-1519.0475063550402,-1519.3681095750653,-778.7246808340133,-1336.5978338864516,-1362.8795894894283,-1586.4465349552338
2025-12-12 17:57:00.896905,Right,-2875.5362872408587,-3716.3936031893827,-3668.5511044682935,-3691.1566671340843,-1645.6102953066875,-3267.8846092314925,-3312.4850372871733,-3838.937173918006
2025-12-12 17:57:00.900876,Right,-4021.9460127590573,-5171.744026188506,-5101.236256073811,-5143.576349655807,-2122.0293208468065,-4565.340151242621,-4620.863826487504,-5339.923688402923
2025-12-12 17:57:00.904933,Right,-3558.9895683350624,-4569.364682294894,-4503.936189114582,-4549.601295961416,-1967.1741130156443,-4034.011772527185,-4083.310010425106,-4725.09535447543
2025-12-12 17:57:00.908952,Right,-2241.0815087799565,-2896.9814987800783,-2851.9398403184023,-2886.237098357873,-1439.112126802851,-2548.412240400794,-2581.411987989617,-3004.4385892085265
2025-12-12 17:57:00.913965,Right,-1611.0752140546683,-2098.6658971153665,-2063.814712221152,-2088.963415312697,-1001.899553315161,-1845.4248827034608,-1867.6655295471428,-2172.5344932925655
2025-12-12 17:57:00.917976,Right,-2100.2692414557096,-2705.0442911208374,-2661.9793368226383,-2692.6641372806625,-1026.938192599977,-2393.310845671338,-2418.3105710607488,-2788.450191607815
2025-12-12 17:57:00.921932,Right,-2693.579460226523,-3449.575304068625,-3395.581741935108,-3437.798105295864,-1396.00729302736,-3052.534263731097,-3085.5598463773495,-3562.046465685242
2025-12-12 17:57:00.924998,Right,-2468.1378566715866,-3176.717891545617,-3125.284972266527,-3167.7120078756707,-1531.1801885496825,-2800.361963122268,-2833.011226594099,-3292.0849775531096
2025-12-12 17:57:00.929082,Right,-1767.6499956368934,-2293.541717624059,-2254.1970765228616,-2285.434635121259,-1146.353184299951,-2018.3922691751504,-2041.5069407485425,-2378.7525062857894
2025-12-12 17:57:00.933014,Right,-1510.8401206724811,-1944.1388124676887,-1910.5058763666311,-1936.0156093710102,-734.7000942726736,-1723.0949775910703,-1740.4335526677314,-2007.5116682809312
2025-12-12 17:57:00.937062,Right,-1861.005434688297,-2368.6073059808696,-2329.152589832316,-2361.7306994976243,-870.5191036342294,-2104.5780436521163,-2127.2503199704224,-2446.97321076761
2025-12-12 17:57:00.942059,Right,-2140.002885501366,-2738.728877439862,-2693.0261169243604,-2732.6162854380673,-1281.159442573553,-2421.2129249202553,-2450.6578904398484,-2841.144027052098
2025-12-12 17:57:00.946056,Right,-1862.7586078883614,-2408.724618102424,-2367.0152432493633,-2401.930547691183,-1233.1172831372241,-2122.987656934187,-2148.1875924182823,-2502.313922150992
2025-12-12 17:57:00.950022,Right,-1328.06567562907,-1715.4664915733738,-1684.1517571836011,-1710.1874025685247,-708.9868816704256,-1521.0794519821648,-1534.6739131502109,-1775.694609235623
2025-12-12 17:57:00.953017,Right,-1119.4093480207957,-1422.0823443413246,-1395.8593463939615,-1421.9553669069428,-455.85316146927653,-1271.5072869427968,-1280.620711524156,-1469.8133500902914
2025-12-12 17:57:00.957081,Right,-1359.772371537285,-1733.7759842178784,-1703.8131831421051,-1736.9038826313335,-787.081718379748,-1538.798636483145,-1554.5055283211404,-1802.6866947712842
2025-12-12 17:57:00.961085,Right,-1628.9377499626135,-2104.41362714197,-2070.2161482379306,-2104.809482983197,-1096.7379771464039,-1855.2015173159307,-1876.9574490019586,-2190.667841418879
2025-12-12 17:57:00.965110,Right,-1500.4255907118204,-1939.584190156078,-1908.9705783163663,-1936.170032392256,-857.9838674649363,-1714.2322016500402,-1731.9828066639602,-2009.7392042131396
2025-12-12 17:57:00.969120,Right,-1042.5950036623399,-1326.8494516144274,-1304.9532174452906,-1324.3688403762644,-427.9368780943332,-1182.492429900216,-1191.3281695857877,-1367.3114257586421
2025-12-12 17:57:00.974072,Right,-746.9914377516252,-942.1748013626784,-924.1803107460728,-941.9999674147693,-398.6204865212203,-838.9332949605305,-844.0101343096467,-974.6385369691998
2025-12-12 17:57:00.978156,Right,-926.9240301262471,-1193.0729811869096,-1170.1142966476036,-1190.6318842606852,-674.2294152812683,-1052.4706467454089,-1059.5398339567473,-1239.9126521591097
2025-12-12 17:57:00.981171,Right,-1274.2038149683503,-1640.832084646565,-1611.3746910440968,-1634.8977323779836,-746.5782510811696,-1454.0232338745845,-1461.7675628334982,-1697.2538058757782
2025-12-12 17:57:00.985176,Right,-1221.1914039912517,-1547.6019499038812,-1519.3796025551856,-1544.551870123949,-530.7164459069318,-1383.912203525717,-1387.7847325884504,-1595.3082195991883
2025-12-12 17:57:00.990185,Right,-731.3777256155736,-909.7577883785125,-889.6456155892229,-913.959699358209,-362.1100754722429,-818.1950119758258,-817.4356516491971,-942.6656837869668
2025-12-12 17:57:00.993190,Right,-398.37927289528307,-504.93454320635647,-490.2014377369778,-511.4561182775069,-376.4294986963796,-448.31896533136023,-446.3354411983746,-532.036397089134
2025-12-12 17:57:00.997193,Right,-608.4341617244063,-787.6602259016363,-770.3413070866372,-790.3408308611251,-410.7778656386363,-697.4401749830577,-697.4197560275206,-819.2750574913807
2025-12-12 17:57:01.001211,Right,-960.5431206302601,-1220.8096041208482,-1199.0391530035995,-1222.0595965323155,-397.35196260691737,-1090.6334920630325,-1092.729985155398,-1259.1869405794423
2025-12-12 17:57:01.005238,Right,-856.1384007506422,-1071.9507319329423,-1052.2680190492538,-1077.8606067550718,-402.1978119024425,-960.9886054256931,-962.542817096517,-1110.589509467478
2025-12-12 17:57:01.009240,Right,-391.87726405792637,-490.30222405382665,-477.81524376990274,-500.3356928350404,-366.06885008633253,-439.2792537464993,-437.14283588074613,-519.6626670223777
2025-12-12 17:57:01.013250,Right,-186.40146393957548,-237.9000188006321,-228.7934353305027,-246.72910462209256,-212.92811129096663,-217.60253808484413,-211.70486601785524,-256.531884450058
2025-12-12 17:57:01.018257,Right,-430.9888879082864,-534.0927551307832,-521.2587839202606,-540.7903500556713,-114.36840512504568,-490.9084912618855,-485.1494319111225,-553.1507224320085
2025-12-12 17:57:01.021260,Right,-646.5645716235158,-795.8635769870016,-778.9920092216926,-803.7456720196642,-244.40907721655094,-723.1794612241792,-720.6464944113395,-824.5569154897821
2025-12-12 17:57:01.025293,Right,-459.0898101873463,-573.7615860500955,-559.3039898919524,-582.6792502438184,-387.7356299517851,-512.8214489163947,-511.1406993198907,-602.5710501734284
2025-12-12 17:57:01.029279,Right,-124.06643930170685,-164.86434505600482,-156.87883941608015,-171.25690434599528,-232.5885235715541,-143.96052264235914,-138.75305424968246,-176.1069321896066
2025-12-12 17:57:01.033234,Right,-55.743502913217526,-63.01999819802586,-58.46226433676202,-67.22251397761283,52.62323369574733,-62.397653219115455,-54.59391213831259,-58.13805684563704
2025-12-12 17:57:01.037297,Right,-218.79021855740575,-248.37855412712088,-242.34684748284053,-254.60642080783146,37.65081677987473,-231.70454678748501,-226.767879123101,-248.56242992170155
2025-12-12 17:57:01.041323,Right,-291.5488517002668,-351.4175319308415,-343.5898600995424,-360.2183510737377,-231.36717257121927,-313.9308348185441,-313.1782763368974,-366.8953513416345
2025-12-12 17:57:01.046282,Right,-177.54065961478045,-230.50431090037455,-224.25845549377846,-238.1683934003231,-273.00196391563804,-201.17280696428497,-199.03210382748512,-246.30531909212004
2025-12-12 17:57:01.049336,Right,-40.84060503114597,-50.615308034670306,-47.85983398981625,-56.72830165902269,16.352896665906883,-52.20346591633279,-44.51382134461892,-51.75794583489187
2025-12-12 17:57:01.053333,Right,15.024512902629795,44.75800328011974,45.38864438681048,36.124437579797814,183.32102719716204,22.884403857722646,32.65117190769524,50.0151808023511
2025-12-12 17:57:01.057308,Right,24.617440891146543,53.808028958010254,54.38462758154492,41.73822877462953,-1.1317529789084801,38.55993093809229,45.11697508627549,49.545596405281685
2025-12-12 17:57:01.061357,Right,11.177473898686003,10.90165125951171,11.755836125841597,-0.3460066041443497,-166.54372795834206,10.609053651845898,14.777355736892787,-0.41854813406825997
2025-12-12 17:57:01.065315,Right,-11.226676638791105,-19.190330522760632,-19.40596758191532,-27.883429518158664,-11.439510788914049,-22.57756758472533,-16.407298238496878,-23.29399881164136
2025-12-12 17:57:01.069405,Right,35.1734770815965,65.3552602212585,62.57292981111095,55.356412507389905,192.48351158767764,40.12564550229581,48.821363568960805,70.08838999617728
2025-12-12 17:57:01.073406,Right,169.25086512292182,242.44877758248185,237.04465891394648,229.34139628559933,124.01255714155559,199.63059594686638,207.62386349929147,245.13299437145906
2025-12-12 17:57:01.076415,Right,247.42906007105557,318.95471144236217,312.7211079589506,307.27473936830575,-27.28705484855891,278.09855796672855,284.3275989201866,316.8708174816711
2025-12-12 17:57:01.080441,Right,171.66690941781872,212.92345713387886,207.7999838289361,206.04923534350382,46.824086072033424,182.96302988680054,189.58037167702196,214.60425212632208
2025-12-12 17:57:01.085424,Right,91.95193715274036,130.8105763392814,126.64457631780897,125.06364990937436,207.18074668674308,101.10183193525882,109.13810342625948,139.24118883089977
2025-12-12 17:57:01.089465,Right,187.66513618060708,261.4870217402422,256.4060383204778,252.71350696638547,165.5038835098585,218.76907613469666,227.0334705169953,270.34407579847175
2025-12-12 17:57:01.093539,Right,355.6589145991529,454.67715209693415,447.8630058254639,445.4310176236904,40.27124283923331,400.004606431241,408.19118652062025,462.37830794634647
2025-12-12 17:57:01.097538,Right,366.5542125096108,456.0233209420112,448.8190494554001,450.4314616597112,115.5011514877624,400.43413415329996,409.1335547400522,468.2888869112794
2025-12-12 17:57:01.100542,Right,247.99768881812633,324.055861026427,317.74422167682496,320.1095001454378,281.93357160197047,273.5802289995627,281.2874842291494,340.16709699781495
2025-12-12 17:57:01.104524,Right,230.2209794786031,316.38445816907915,310.22115497966297,309.769965343934,236.70090796780278,267.7571703848371,272.1728362259455,327.6837013203767
2025-12-12 17:57:01.108491,Right,352.3342993679398,454.464744609897,447.01152164902305,446.36567724932684,68.74291862268001,402.47977341208025,404.99883939381107,460.2705770752218
2025-12-12 17:57:01.112528,Right,422.26306855719304,525.9241301996808,517.2485705517174,520.1262545398204,111.95090543481638,468.04712141578784,473.0078857401968,536.7922520792927
2025-12-12 17:57:01.117541,Right,372.2373493971536,477.6739470366447,468.8682209178223,472.8130829234433,320.88480633498693,412.74756229505874,421.63336652706494,497.727694200963
2025-12-12 17:57:01.121564,Right,351.80163763690507,472.6287431046949,464.0343333668716,464.6254547883,337.9736676556349,402.0989345089183,411.9383748153923,492.11199481759104
2025-12-12 17:57:01.125555,Right,420.36245872755535,549.415612316574,540.8287800815306,539.6234412102494,145.61623222699563,479.45521952729905,487.7768013389723,561.3679210612318
2025-12-12 17:57:01.128674,Right,443.8116536819143,559.2104079769924,551.0523456877563,552.7040908054332,101.71904763544444,494.79955725505715,502.6207081459288,570.9328353214078
2025-12-12 17:57:01.132611,Right,381.98899018770317,489.93733819463523,482.463170687668,486.75608432886656,290.5131100237777,426.79353147163056,435.26630933827255,509.62830596318236
2025-12-12 17:57:01.136601,Right,390.52583585170214,522.3724727959489,514.2226820702781,517.8388592257979,380.73684340473847,451.85082836437505,459.52652940154076,545.5475658901269
2025-12-12 17:57:01.140619,Right,514.1938733881689,671.8970914201345,661.3249861645163,665.4915925479145,237.09613693639403,594.9847077269224,600.6161255556508,690.787211893301
2025-12-12 17:57:01.145616,Right,558.9184151347145,703.6065127482289,690.9066638276563,699.9610517075635,148.9728072224243,631.8956012407434,636.983404745697,720.4252850532648
2025-12-12 17:57:01.149641,Right,433.55341997538926,545.8854983460624,532.6610988519969,545.7494326240267,277.4673425590445,484.426121672499,490.70089962222846,566.0257373058703
2025-12-12 17:57:01.154666,Right,350.48559764097445,464.5060598056298,450.7981663104147,462.2963170442381,370.6709331792663,401.5339321537758,408.42786493879976,484.94901967723854
2025-12-12 17:57:01.158618,Right,473.2874816641561,623.7554175403784,608.3119445437915,616.7570262442459,260.0035059544316,545.5046155752498,552.2207784242346,639.7564982649637
2025-12-12 17:57:01.161619,Right,611.9914325140999,779.9776575362775,763.5506584001705,772.8783941761358,176.66527318404405,690.5831546445261,698.1567698409781,796.0218780313735
2025-12-12 17:57:01.164694,Right,534.3250463964068,678.7594205171918,664.4233665658976,675.4712822699221,293.5824204806704,595.2236831347109,604.2432431947091,700.9394020133186
2025-12-12 17:57:01.168647,Right,372.2287900830852,492.6457427908317,481.70001449942356,490.30945655412506,383.3825157363899,421.28184693766525,430.0678614450153,516.513186818338
2025-12-12 17:57:01.172711,Right,404.97247084166156,535.9791046927567,525.7773397589917,531.368800703669,259.3431422400172,464.1325609171181,471.83016655861866,554.496839214291
2025-12-12 17:57:01.177713,Right,586.5844928117585,742.481103371887,729.974245869962,738.0890548472526,156.69483764149481,656.5330909383483,665.6307401623344,760.3143915502587
2025-12-12 17:57:01.181733,Right,631.4849518690608,791.5343376504024,777.2711652840953,790.258920917171,298.3373580100306,695.2803866726463,707.8410106252413,817.552655215608
2025-12-12 17:57:01.184748,Right,491.6387270599371,636.4406927551609,623.1833245505113,635.7232538275421,446.4846353317844,545.7530140286544,559.1279242847813,666.6186775158858
2025-12-12 17:57:01.188759,Right,406.47174744220683,539.8598696084227,528.4721490914235,536.61946695589,318.03789335879264,462.53386072523426,472.7761848527589,563.2711358568631
2025-12-12 17:57:01.192708,Right,489.62835867726244,624.4655869795242,613.3263210449368,621.2142942984356,125.85427866777172,551.5159453263041,559.7361851159367,643.8248733679065
2025-12-12 17:57:01.196774,Right,583.5924334091833,727.9600461694645,715.9437760062283,728.1311397267273,218.7669594126346,645.9531924406183,656.6409057687852,757.1084260123316
2025-12-12 17:57:01.200803,Right,564.9935968799982,720.9563053039601,708.9031961974688,722.0434198465664,442.94740622109384,629.1368002875242,642.6629516778048,761.1393390091835
2025-12-12 17:57:01.205789,Right,512.8259943484445,670.764141530497,659.7560750216944,668.4157622643979,400.70247589432984,581.9345184632111,593.7960431718966,706.7990912433015
2025-12-12 17:57:01.209818,Right,504.66147069382714,645.0697058601072,634.813296576147,640.9338706631679,162.23164985666517,569.1060362946009,577.0499391787453,669.2910364896525
2025-12-12 17:57:01.212822,Right,493.9866347676725,614.2000898169354,603.5927788340487,613.0432468119543,143.02258385060122,544.9098232997349,551.6803804866504,637.5775930380914
2025-12-12 17:57:01.216837,Right,468.49074950645445,597.0614743452752,585.357933518244,598.3817150248215,364.3155434152577,520.1004907696042,527.9070593460929,629.2788664064137
2025-12-12 17:57:01.220781,Right,501.540998445882,660.8886014727177,648.1030991651351,660.4576967798639,428.45972182624973,573.5475383611629,580.6947468250291,694.6265310383169
2025-12-12 17:57:01.224842,Right,567.9644558815053,734.2525521445787,721.1654827168677,732.5256631959928,235.0728620760492,650.3404962265631,655.3629510405008,759.2895291354507
2025-12-12 17:57:01.228879,Right,536.1402179430588,669.9353338559158,657.6045560035855,671.4237946885405,136.9170893810806,601.0946412982885,606.1644345619716,690.1899845612934
2025-12-12 17:57:01.233902,Right,423.36679439182626,532.9355216852855,521.5024288891582,537.5964569542557,287.13336461316794,471.4513865080662,478.90540283650625,557.875808248762
2025-12-12 17:57:01.237884,Right,417.98631778295385,550.4284155736677,538.739077094011,553.1408430015435,387.90422246197704,479.1938226070488,487.65574907010887,579.2085636683041
2025-12-12 17:57:01.240882,Right,548.580165108433,715.4173379687127,702.6864933699835,714.6664246391738,262.67537661112146,631.9831291184528,639.0929221612168,741.5509790016804
2025-12-12 17:57:01.244843,Right,588.6536986822612,745.7301719281822,733.075104871532,745.5980818372918,162.3086609247257,665.4554691743106,671.929238313809,770.0067470280919
2025-12-12 17:57:01.248897,Right,433.07860185741447,550.0962884451728,538.9795104060322,551.9768365132622,266.1103742897394,483.53936496784445,491.15814251091797,576.6786320473766
2025-12-12 17:57:01.252934,Right,309.3579580815276,416.3229544989299,405.7187256428879,415.7562015282456,350.5679222382023,354.18018303171266,362.14416884083766,441.9943623627769
2025-12-12 17:57:01.256930,Right,411.7928744049277,548.3274545235327,535.480184381362,543.0318344610278,238.2227675690665,475.7008211251814,482.31501922907773,567.7574398996076
2025-12-12 17:57:01.260947,Right,564.5797155700857,718.2916264273226,702.7367500945693,712.7596769316588,144.9325222549378,636.2840605333913,642.2177055736538,735.2646305522649
2025-12-12 17:57:01.264967,Right,512.0998167332727,643.9771952555748,628.6445870754542,642.1159412288107,256.539319316973,567.1234325011028,573.8402806604281,665.4688804555917
2025-12-12 17:57:01.267984,Right,347.6819495941745,454.4248084940482,441.7381278028479,453.6431568526896,354.72481489006896,389.85322924435604,396.5487532011466,477.7775619424647
2025-12-12 17:57:01.272919,Right,341.30833063297905,452.6260539263021,441.50042861758266,449.85314929822925,227.9501929921098,392.18941866979003,397.4950828120345,471.1880383234238
2025-12-12 17:57:01.277002,Right,478.5835432249587,606.0368512409041,594.1321923175128,603.9380298752803,94.8774559131125,540.2138772798935,545.2509211056167,623.4407960133394
2025-12-12 17:57:01.281006,Right,510.38532674871385,636.7228634856874,623.9480799228186,638.5206128132995,211.03900876035914,567.6939210615819,573.9008128350833,661.2549538752064
2025-12-12 17:57:01.285036,Right,391.0436987471767,504.914193184115,492.84862320206594,507.9391547021223,374.2789618818206,441.80208124034107,447.2548910882324,532.5876683613751
2025-12-12 17:57:01.289030,Right,326.494072370464,434.61671990854666,423.5952128971694,435.01181258121505,276.7258862752933,381.0136382052442,382.9073024975369,453.6096182556357
2025-12-12 17:57:01.293039,Right,393.07965278218035,499.2317566538695,488.0698346805293,499.1157846732531,78.6482663040515,449.89436255034525,449.8414300525328,510.4698356632143
2025-12-12 17:57:01.296045,Right,432.419626777526,533.0048146282788,521.1403925649356,536.5786680226447,130.92164822347695,480.92261692672037,483.44908684853,550.0964343033265
2025-12-12 17:57:01.301048,Right,368.34100775874685,468.35834183741827,456.42287658608984,474.1149386152392,334.3243243419565,412.3079262971878,418.00622481899336,495.3210979492869
2025-12-12 17:57:01.305077,Right,328.3008432443021,435.34894928964786,423.7514526869636,438.9318383880891,314.9533991625649,380.7021428964799,385.2553316846024,460.37554316746537
2025-12-12 17:57:01.309091,Right,373.4481184473261,477.1448463484412,465.61338838760275,479.39444772480056,103.86724108859198,429.8678764698561,430.6540641065221,492.6811030296376
2025-12-12 17:57:01.313104,Right,384.9881899267202,469.169187822612,457.6655167553108,474.2022273525363,76.70483596588019,428.8906456924742,428.26636824116576,482.9269818777684
2025-12-12 17:57:01.317121,Right,315.7458626822918,389.5343307739822,378.294767402811,396.5317875110777,267.3867466665106,349.63878187921364,350.19286859803833,408.8773927441798
2025-12-12 17:57:01.320109,Right,294.41506452986505,381.97121535544284,370.67041698563844,386.22529661189765,315.79209966165945,337.8564420826733,338.5387604772113,401.5046234149486
2025-12-12 17:57:01.324075,Right,366.2207669626223,465.52791616355535,453.7300526566105,467.0186461984413,132.6260349326185,420.81409538839944,420.1822117661359,479.42403987713624
2025-12-12 17:57:01.328130,Right,378.7998757357709,462.729638553923,451.13828041916713,466.31918380910065,50.51702670118539,424.28132763842586,423.89828849118203,477.05000949825626
2025-12-12 17:57:01.333147,Right,261.8196465211222,324.477839578758,314.3455489120679,331.18459085118957,199.03874208772322,292.7914889337262,294.3284575192956,346.0757541699568
2025-12-12 17:57:01.337206,Right,183.0341575004859,251.01806575234514,242.30827542487532,256.3429760664003,274.5690238419338,219.9291008345317,221.92733970319387,274.2868374736281
2025-12-12 17:57:01.341204,Right,260.78606392868096,347.6497407271527,339.2237083533546,349.9957669302821,119.9591886625276,313.6759564136155,314.2749768937938,364.42019198823255
2025-12-12 17:57:01.345241,Right,343.78224871557904,426.9572235880187,418.63977314159274,430.57875203574076,18.05654622547445,393.9471188891912,394.2537516159937,441.2410532347858
2025-12-12 17:57:01.348200,Right,275.5463164547109,335.90617834054865,328.7312523650471,342.94514976628125,154.09543603958446,308.1939139040769,309.8916493806755,355.9214388069231
2025-12-12 17:57:01.352188,Right,173.03785757283913,226.2748433513334,220.400047056959,232.7715783014428,263.6993849290011,201.89343182835728,203.77345389558468,248.81086731236428
2025-12-12 17:57:01.359251,Right,208.9884930627304,274.8435108558042,268.9991519744508,278.17643998307176,129.36557900428306,249.40881891653407,249.53303804353345,291.33993533812463
2025-12-12 17:57:01.362243,Right,297.18210542714223,364.9387459276477,358.5225707903737,368.6026852771174,-7.931860085111111,338.5702160972869,337.9300146459718,377.48861219896935
2025-12-12 17:57:01.365253,Right,257.760239780182,309.26914836559445,303.32426558074076,315.9420485062292,101.72481274843449,285.0718569077435,285.65325455891434,326.14441176177934
2025-12-12 17:57:01.369258,Right,150.49935159739107,194.52087079617195,189.90895719395485,200.55476952018216,246.10184650565498,172.84140630363254,173.76296248059953,213.78096756944433
2025-12-12 17:57:01.373225,Right,160.1241980008199,214.0105383041664,210.11390343296807,215.8992946903454,143.8921171904658,192.87133839639137,192.13789493666263,226.36848231672775
2025-12-12 17:57:01.376274,Right,253.97742506628856,309.64199552399805,305.79087985272054,310.5640886112815,-28.010365633526817,288.93143994366983,287.8003487557289,315.77938946848735
2025-12-12 17:57:01.380293,Right,247.8430378944613,287.7574360201834,284.573648339021,292.00284723436926,40.26894668562454,268.3121082066791,269.9605856749695,297.93974698579405
2025-12-12 17:57:01.384300,Right,149.41402919677785,182.22945416811854,180.283191677765,187.73264928220306,215.99631706785294,162.49186096159974,166.67246679327218,198.33008693548618
2025-12-12 17:57:01.388310,Right,135.6038835219224,182.1060969864484,180.32504586898722,184.69734788773349,169.53295711585088,160.77344981697388,163.62189006857807,194.71658608230064
2025-12-12 17:57:01.393313,Right,211.49794538528658,264.87833475880325,261.7829349220847,266.01394680020167,-16.119596996664768,245.62335670460016,245.05380726221483,270.48325804568594
2025-12-12 17:57:01.397334,Right,198.52735012944322,233.940220031247,229.66138119605603,237.5070178648457,-4.729466692660935,222.00708577153273,219.80745604005642,240.37470297596883
2025-12-12 17:57:01.401337,Right,79.69073237141129,98.42989422328537,93.97341588122072,102.99374263599748,167.48303062396008,92.70771412551403,90.90232877235394,109.3382072870154
2025-12-12 17:57:01.404376,Right,47.16080153378425,75.00289251719369,70.27414051344385,76.34299761522561,166.3793509127281,68.82661086274311,67.41703377373051,83.02297361643286
2025-12-12 17:57:01.408367,Right,146.8048935320694,188.10294380714186,182.4529453648138,187.40729876374826,-12.8400338361389,178.5991442106897,177.7876027544262,189.19790003012167
2025-12-12 17:57:01.412309,Right,180.58248279459076,210.66447169811,204.8633871654165,212.92371212336002,-41.722974276170135,202.01551973371534,203.25604952324647,211.9457294412423
2025-12-12 17:57:01.416380,Right,63.164911838422995,72.54274588194676,68.21046220860444,77.7112032607547,120.62951812162646,68.34006717603188,71.46995292371139,78.63566385873128
2025-12-12 17:57:01.421384,Right,-17.703101575025357,-6.877060974773485,-9.749718916369602,-3.780285208078567,151.18751441608765,-9.373189885460306,-6.966469781182241,-2.7146092992043123
2025-12-12 17:57:01.425370,Right,62.81852790917037,89.64953160344157,86.5667158178403,89.71581083728233,-25.50404972373508,84.70566169376252,85.40534415730508,87.19782158290036
2025-12-12 17:57:01.428407,Right,143.76554200268583,170.10766180267092,166.19384211068973,171.64396720431978,-89.89501528520486,163.68810255656717,165.30789973580977,168.93490749160992
2025-12-12 17:57:01.432439,Right,70.31524339382304,79.93903137778398,76.55317812040448,84.404852308915,72.42487589549273,75.88575251522707,80.30155496351654,87.08550199790625
2025-12-12 17:57:01.436387,Right,-34.55968419907731,-31.40535097103566,-33.24061215581605,-28.17113457887899,148.52257488641771,-32.550110225507524,-27.721913979097735,-23.366975896875374
2025-12-12 17:57:01.440447,Right,-2.264022273448063,7.873549272713717,6.819237793970387,7.952367996622343,-19.271275908948155,6.595921423053369,8.784595010627527,6.7334138852893375
2025-12-12 17:57:01.444515,Right,83.16956087568542,92.59834197250893,91.46390238153981,93.18817691184813,-131.32113424970885,89.00617927243002,89.26588586013531,86.26425247552106
2025-12-12 17:57:01.448518,Right,55.503749013412744,54.32323606888531,53.72245865460718,57.45953859796282,15.79372190203867,49.493617649859516,49.74597564351279,52.68129279650748
2025-12-12 17:57:01.452522,Right,-31.66276478036889,-34.61149811215,-33.76104226929601,-32.29427663097158,144.45929873803107,-37.17933081096271,-38.1897525061795,-33.131748883461114
2025-12-12 17:57:01.456531,Right,-25.5291033613903,-21.99670028264518,-19.974389310227707,-22.3290572615806,4.2315605722833425,-18.478198709257413,-22.808242736267857,-25.343447271734476
2025-12-12 17:57:01.460516,Right,34.59558092307998,32.53675174439559,35.01201699208468,33.60352772139595,-162.4180854332226,43.31489072612021,37.44259134778986,26.934403665421996
2025-12-12 17:57:01.464459,Right,7.418682366318535,-10.142650031892117,-7.028754531027516,-4.58705991046736,-63.37703988832072,4.402086561953183,0.4083546505717095,-8.319029857579153
2025-12-12 17:57:01.468526,Right,-68.96192060332396,-87.03842881222954,-82.7089737864444,-80.38307303274632,106.96328542167612,-73.92116332624573,-76.36729362001643,-78.63460808407399
2025-12-12 17:57:01.472552,Right,-51.982143686997006,-55.83670870671631,-50.49770149154938,-51.897526998771355,28.58864180953242,-44.62337095232215,-48.71491320693167,-51.49643788149115
2025-12-12 17:57:01.476564,Right,19.878982026304584,14.99064938252559,20.750307668873575,18.367335075949086,-156.6998695381044,29.310482806205982,22.856665179890115,12.812624632701045
2025-12-12 17:57:01.481563,Right,-11.195551563665504,-37.890097874827916,-31.722631341486704,-32.000197467714315,-114.86101352798869,-17.897414278966608,-24.43181829425157,-38.13057078732527
2025-12-12 17:57:01.484592,Right,-117.02329117125191,-153.22621463041287,-146.57292860755115,-147.61841893964447,62.9815258392191,-132.5757081573829,-138.39468225542805,-148.89323766087182
2025-12-12 17:57:01.488528,Right,-119.91481365761138,-139.38090425904375,-132.82897655389388,-138.10839882606524,38.847307773234206,-123.58198796660872,-130.495642656766,-138.6209755896416
2025-12-12 17:57:01.492614,Right,-22.639973237310187,-31.485413520102156,-25.280092828033958,-31.994924928381806,-142.61635434145865,-17.36352979580988,-25.94425703161687,-37.62788509982056
2025-12-12 17:57:01.496609,Right,-13.246490930396249,-40.220914870194974,-33.093781238014344,-36.95375037920894,-146.7530183580384,-19.776545566157438,-28.169589380457182,-45.00995894310472
2025-12-12 17:57:01.501640,Right,-117.60664713509323,-163.37529988173628,-153.94571954787534,-156.85091817835928,22.138139898044756,-135.3848973076383,-143.18844714653096,-161.61643666905002
2025-12-12 17:57:01.506584,Right,-142.732005536629,-177.83962708168838,-166.88365984486882,-173.23742362884514,35.90014713506389,-149.14764638450288,-158.92434439231874,-176.21546939389373
2025-12-12 17:57:01.509596,Right,-32.35158468663576,-47.9438706231449,-37.636402122167055,-46.131730185152264,-135.8548168007328,-22.826237266272074,-36.09873473602056,-52.35985144889855
2025-12-12 17:57:01.512659,Right,15.175761468381097,-7.0055576779996045,1.9491468421110767,-4.070190849786741,-170.69975492340018,18.369741191287176,3.334931462617533,-12.91148856862128
2025-12-12 17:57:01.516671,Right,-101.36535261772224,-145.8070067293229,-137.0765722162687,-140.92204579848476,-5.703187311977672,-115.51121169148246,-130.90592268112232,-149.08984952511673
2025-12-12 17:57:01.521689,Right,-196.72162479210238,-244.83823725719412,-235.85432395044336,-241.19135380910302,40.3465057563335,-211.22432557016873,-228.5000415542163,-251.2394303688634
2025-12-12 17:57:01.524686,Right,-122.9532609239468,-158.18765475521286,-149.91111638157963,-155.5034899111197,-130.61136647774038,-125.2045608829867,-145.6169806640355,-172.14049661039098
2025-12-12 17:57:01.528757,Right,-25.192984569283,-60.59322736040667,-53.38695517558517,-54.19962824158574,-203.56645395322448,-27.615927822807862,-49.62836986532784,-74.73831499750122
2025-12-12 17:57:01.532739,Right,-73.64163505374017,-124.03048829414954,-116.98646549279817,-113.10767442629913,-39.18291632650653,-87.08451242409865,-109.7583103596503,-131.168377721453
2025-12-12 17:57:01.536735,Right,-168.4271585571098,-223.29530209006953,-216.2995663871934,-212.9198394078103,57.28934110967293,-180.88957808595387,-206.44590305728525,-229.78690785592153
2025-12-12 17:57:01.540715,Right,-143.4135456120839,-189.40288857681298,-183.91930815892556,-181.90220861819944,-99.41483035706628,-143.409601778043,-173.32533400720058,-204.27872277439747
2025-12-12 17:57:01.543739,Right,-71.69092795895267,-117.9412887994913,-114.76811932795681,-109.10144879834115,-224.8278908469083,-70.21875110670226,-101.84447101706246,-136.78275403836597
2025-12-12 17:57:01.548697,Right,-111.39393195772573,-169.36363877140684,-167.22204446785327,-156.39932846686133,-89.19662283092293,-120.91365302463964,-150.97160145307862,-182.49368813425826
2025-12-12 17:57:01.552767,Right,-200.1152462744867,-259.46313191083755,-256.9559179877979,-246.08906194321753,54.29514659129745,-211.61225967862265,-240.59389294387802,-269.42805083105486
2025-12-12 17:57:01.556781,Right,-175.96667827378405,-224.94585132267093,-222.57059695830685,-214.38438710077753,-62.75054263192942,-178.11747671844205,-208.25540994957555,-241.1692378543521
2025-12-12 17:57:01.560805,Right,-88.02393526948435,-138.74229606200242,-137.71247081871843,-127.77487441635458,-225.8725704908793,-91.25509855704149,-121.95972373598488,-159.33632505498827
2025-12-12 17:57:01.564819,Right,-105.20263518820866,-172.34257256654382,-172.60033431295597,-157.3430978568358,-134.87287485847628,-123.2700374359847,-152.01840940472903,-186.66548067932308
2025-12-12 17:57:01.568847,Right,-197.388985839003,-268.54949497150665,-269.248161867843,-252.07784887304297,41.008269871705124,-220.08967465251044,-246.83602535541286,-275.77462989826745
2025-12-12 17:57:01.571856,Right,-193.0780585333996,-248.61309393116971,-249.5507842152292,-234.35022679282702,-20.44853282096301,-202.5940644156799,-229.47397146371077,-258.3370226715051
2025-12-12 17:57:01.575852,Right,-105.40095691602619,-153.69709715264617,-154.94788615375,-139.542336750892,-197.93138929212,-107.88236428210803,-134.81427825029823,-168.0466261036927
2025-12-12 17:57:01.580875,Right,-109.28241189809341,-171.58142206430784,-172.50868179180543,-154.02631525426114,-157.68108526040305,-123.18258322644397,-147.69248193720705,-181.93636233563302
2025-12-12 17:57:01.584868,Right,-209.252007119052,-280.1760368895193,-280.22631093580276,-261.6699937542726,24.414606151804037,-231.1874845565908,-252.81141917403147,-283.9281394824502
2025-12-12 17:57:01.588892,Right,-226.40748589065333,-282.9160285235848,-282.8873235612118,-268.298273005581,8.697666483734793,-237.80285119071777,-258.6930190650746,-288.77631105473847
2025-12-12 17:57:01.591897,Right,-134.9165682654566,-178.31375641803606,-179.4165658711281,-166.80345881026005,-173.1610757338858,-137.53289403225062,-158.05085750034777,-190.54524644682533
2025-12-12 17:57:01.595915,Right,-115.00389138191531,-169.13140636638855,-171.14066430472303,-156.5718002349313,-180.8166359434981,-129.33470006173593,-147.0066718509188,-180.3194426348491
2025-12-12 17:57:01.599917,Right,-216.3217210044968,-284.91678820573725,-286.7316849484632,-271.93646490981337,-3.515598789010255,-245.2576653957949,-259.3045836839883,-290.60911008229596
2025-12-12 17:57:01.603865,Right,-257.41719847294735,-318.3617075938964,-320.1657345863059,-309.2191698712995,21.96894572954625,-281.90608270149096,-295.0396247599274,-326.00965922369505
2025-12-12 17:57:01.609940,Right,-155.7646603526955,-201.94453187379986,-205.13143308722647,-196.20345211119275,-154.900816108071,-169.9337577119586,-183.96784395779832,-217.2036503959971
2025-12-12 17:57:01.612950,Right,-83.60405020043254,-134.92606113661896,-139.74867796697072,-127.53414140219684,-201.8197253988037,-104.0520975853724,-117.22755761392182,-150.64045561981038
2025-12-12 17:57:01.616956,Right,-157.90717463576584,-223.3853755260934,-228.35793226453825,-213.1297455736203,-26.29787380193011,-190.70506725402083,-201.31287974785664,-231.9043315058807
2025-12-12 17:57:01.619961,Right,-232.65951166665764,-293.7868653884798,-297.7971318649943,-284.48755282725324,48.525160514516756,-260.5699618482613,-269.7963205316337,-299.9380380338989
2025-12-12 17:57:01.624932,Right,-174.68474858650006,-220.45724291427177,-223.89107115764637,-212.923844459292,-113.7310991849954,-188.78040397216682,-197.56627681228565,-231.40504938547383
2025-12-12 17:57:01.627940,Right,-107.48973608104279,-154.84048505628016,-158.2490758820204,-144.94161080251797,-207.59199464670382,-123.84089260612382,-130.24728120595682,-166.53369782408117
2025-12-12 17:57:01.631958,Right,-171.8193199991656,-233.38344879393117,-236.62527561347815,-219.9860762389726,-56.04255954438122,-201.6467960771406,-204.44972310881712,-239.32100339091267
2025-12-12 17:57:01.636031,Right,-256.418275520904,-316.64684096036945,-319.88558504456887,-304.46779690904077,58.55326347492519,-285.18489501962904,-287.3489172392583,-321.95896716049174
2025-12-12 17:57:01.641026,Right,-204.76813643536298,-249.4217343912751,-253.56174685561564,-241.15106306475354,-78.33503210227354,-219.1962584851135,-224.2765595523524,-262.7787968988414
2025-12-12 17:57:01.644998,Right,-109.9158428752271,-153.47137504786951,-158.73385454714298,-145.5196687655407,-212.2351459809579,-122.75529269254184,-129.76853663142538,-171.0791929209372
2025-12-12 17:57:01.648063,Right,-144.7544082495151,-203.92616229568375,-209.02929711755132,-193.54716473113513,-94.0787855554081,-171.59170344937593,-176.85267367959023,-215.49087836785475
2025-12-12 17:57:01.653014,Right,-243.47082648595097,-305.93926350731635,-309.70991950132884,-296.5154729717178,55.03467250999529,-274.8838065029995,-277.3546617960383,-312.287607855862
2025-12-12 17:57:01.656023,Right,-226.46732554389746,-273.4192957216874,-276.31435353535926,-268.17284915962955,-43.642874219527585,-246.80975682058488,-248.00759728331468,-283.8592675309628
2025-12-12 17:57:01.660077,Right,-134.20170570831397,-175.3063510132488,-178.2308657655958,-171.13563932816032,-206.8204403417185,-151.22729526949115,-151.19973762219888,-189.99983697239077
2025-12-12 17:57:01.664116,Right,-148.21841938898433,-204.06965332647087,-206.73244553920813,-196.9572389096138,-132.1691353909555,-177.84638912801165,-175.49731612222968,-213.96824987168657
2025-12-12 17:57:01.669106,Right,-248.4258216873859,-312.67983265582006,-314.5196043732576,-304.63767649786314,37.76980495094904,-283.3237667422509,-280.1073617009679,-316.6298321534414
2025-12-12 17:57:01.674122,Right,-248.31690936215455,-299.4198786994675,-301.20561326801544,-294.1966380084632,-15.828785416350001,-269.9026598560158,-268.7786126639694,-306.26061144506093
2025-12-12 17:57:01.677150,Right,-144.7212287108996,-185.2161351799732,-188.1586547617335,-181.1583461560076,-190.93409088281624,-157.23346767178737,-157.7875859264168,-197.25584111514036
2025-12-12 17:57:01.681151,Right,-128.37004594010068,-179.2563880495727,-183.23265888594324,-172.95445326442132,-156.6340485780529,-151.945256040839,-150.62624447984854,-188.58094422210706
2025-12-12 17:57:01.684096,Right,-231.35613598127384,-292.9575494902674,-297.0847334158025,-286.6304967678734,25.494078446019557,-266.66666983795585,-262.2605596857611,-297.38019815756707
2025-12-12 17:57:01.688162,Right,-266.3815966346883,-318.5092515324359,-322.85320559341926,-316.72235417505726,14.671777217299677,-295.6333364059101,-290.428202794923,-326.4278804396745
2025-12-12 17:57:01.692182,Right,-172.08741860164446,-212.04568916471908,-217.20126476453152,-213.47432076535188,-171.42977761442307,-193.35557079396676,-188.26872900337912,-226.48169023828814
2025-12-12 17:57:01.696196,Right,-123.8645398428198,-170.86083835421596,-176.1613486238639,-170.4975975395064,-187.85636090989283,-154.42738306813408,-147.35062285797903,-182.79247244511498
2025-12-12 17:57:01.701204,Right,-206.8376196154568,-265.3432589274016,-269.0775393367512,-263.35672249266645,-6.678115663162316,-249.94458680594107,-240.2504660410341,-269.5623634115327
2025-12-12 17:57:01.704210,Right,-261.42485034582205,-312.9016788044246,-314.39010170300025,-313.98233684903244,29.29180791672843,-299.36922981846146,-289.8666811136063,-317.39617755432846
2025-12-12 17:57:01.708165,Right,-184.52975533367135,-222.77836282731732,-222.90079632337438,-227.39620574266883,-153.57442034712585,-211.16526737366803,-203.55018259683857,-234.25717099936446
2025-12-12 17:57:01.712230,Right,-118.43090001726523,-161.30292667041067,-160.95338571135653,-165.15080157574266,-219.6592783343658,-150.1308510780218,-142.10387203563005,-173.59629213501466
2025-12-12 17:57:01.716246,Right,-178.46216222312069,-233.68137685087277,-233.21364758553682,-236.07104247552343,-47.26561647572089,-223.23970744450344,-212.5505561027676,-240.43540725129424
2025-12-12 17:57:01.720269,Right,-236.5962993487483,-286.7373181641451,-287.1993874083273,-291.98167419678066,45.33517383565777,-279.55599484505365,-267.8170708017424,-294.855359998357
2025-12-12 17:57:01.724277,Right,-165.67762071918696,-201.4753546974971,-204.69549984525656,-210.55443071888294,-107.90246347273933,-197.6943756393739,-187.4879347954993,-220.09096497989958
2025-12-12 17:57:01.727328,Right,-82.89091221150011,-122.21932556043612,-128.8020654139109,-130.30338084179675,-213.63382418872789,-117.89089218771551,-108.89042065152898,-146.72354084457038
2025-12-12 17:57:01.731302,Right,-134.18212579534156,-189.61643130134325,-198.1019794420572,-194.20201500045368,-67.92772966559278,-181.5769570185803,-172.79499765433138,-209.38274211157113
2025-12-12 17:57:01.736360,Right,-222.08544459036784,-276.6399031354231,-285.3932719277218,-281.3841830792953,63.24412380703143,-265.8319589998573,-259.1965595287038,-292.0326658987906
2025-12-12 17:57:01.740343,Right,-187.94577399577247,-225.28311494359514,-233.95839801547118,-232.62671010236954,-60.0266213179857,-213.2575694489642,-210.90438949113013,-243.5531510093133
2025-12-12 17:57:01.744330,Right,-108.87709929986158,-143.24330314830877,-151.71035283681704,-149.63913995784242,-205.97607131721452,-128.64755469508236,-128.50647252524504,-162.72102954844013
2025-12-12 17:57:01.748337,Right,-150.12853703164728,-200.2988762462628,-207.71829135267762,-202.8849128043512,-105.37990016076947,-181.8062279591104,-180.1022637745482,-213.30143228004454
2025-12-12 17:57:01.752368,Right,-246.26853836345254,-300.9219436457497,-307.0928085297346,-303.1099193049595,48.27072309071082,-281.05814967822516,-277.9267551062512,-309.50117843353655
2025-12-12 17:57:01.755374,Right,-214.41429716034327,-252.87583119171904,-259.17701992887305,-258.2926182427909,-34.94464393577073,-234.9381772899651,-233.56088655156782,-266.708138592483
2025-12-12 17:57:01.759377,Right,-97.94705370714655,-128.34324884304078,-135.93449736991897,-134.30273164168466,-198.0796701623476,-111.08359157294035,-112.2616404874716,-147.61909030319657
2025-12-12 17:57:01.763384,Right,-97.27169000625145,-141.85258029482793,-149.92747157474514,-144.52033874182962,-133.78817029041238,-121.66457818984054,-123.29981530900113,-156.94849563052412
2025-12-12 17:57:01.768379,Right,-204.46943952114088,-259.06324048055103,-266.17323100485373,-260.63918070151703,37.54395665903576,-236.58483644435182,-237.95949935453245,-267.9567010398605
2025-12-12 17:57:01.772345,Right,-215.5093573872,-257.2926763573778,-263.4525026164483,-261.8187019464094,-7.0269691463036,-237.21206621057354,-239.60206958232448,-268.56969712418504
2025-12-12 17:57:01.776423,Right,-102.12015744444216,-130.60672062274534,-136.6442034895299,-136.48364388395566,-185.8672700553434,-115.16570046648849,-118.11078702425584,-146.94318849773845
2025-12-12 17:57:01.780432,Right,-60.297714234737214,-96.35627889737953,-101.96442203625338,-99.80823076009983,-162.79869916895404,-83.40826423239196,-84.5298792134272,-109.72220091277268
2025-12-12 17:57:01.784456,Right,-150.50022603175603,-197.08676871168427,-201.20387858658796,-200.07182684412692,23.242362666351255,-184.7542433181079,-184.04708114557434,-204.54424551397096
2025-12-12 17:57:01.787512,Right,-195.28793586423853,-233.3192249747808,-236.0069490445312,-240.78521146968706,27.534155345289037,-222.41353281773627,-222.80261940567289,-243.38683009409579
2025-12-12 17:57:01.791505,Right,-113.97951954143355,-139.2241206104518,-141.4683841021615,-150.3613340073498,-157.7075116939377,-130.1402447146247,-132.6741724325111,-156.25301970471628
2025-12-12 17:57:01.797515,Right,-66.48617891513277,-97.10293953109067,-98.9413971605245,-106.60537803900661,-187.29380478640087,-88.12577395874541,-90.29110395186581,-112.55800507118693
2025-12-12 17:57:01.800500,Right,-145.6848693548236,-186.92511267960072,-187.45610706857406,-194.08323553652735,-6.180919318197994,-177.32705571339466,-177.42992824915564,-194.29337348788977
2025-12-12 17:57:01.804450,Right,-200.4566345596104,-234.24308681261027,-233.49969000933925,-243.46856697421754,48.0738274679461,-225.85885132232215,-225.44538477092283,-240.4511056401534
2025-12-12 17:57:01.808520,Right,-119.33652094792342,-138.96829425287433,-138.11292790522566,-151.18382681213552,-124.15284053157666,-132.84451185609214,-132.9547531727003,-151.32649383775424
2025-12-12 17:57:01.811526,Right,-40.05409771716222,-64.18994320335332,-63.602039792283904,-75.13577139709378,-197.43941455340246,-58.67630294285482,-57.26583437283989,-77.05515160073992
2025-12-12 17:57:01.815553,Right,-92.66945288865827,-131.1681691382546,-129.92231943760999,-139.48336937406566,-27.707235682668397,-125.17778558639111,-120.82666447164956,-136.78170835814672
2025-12-12 17:57:01.819548,Right,-159.62702178250765,-194.99697877763538,-192.72917283454444,-204.65959007421043,78.31698199859238,-190.04391587694408,-185.09648392675444,-197.97556822159095
2025-12-12 17:57:01.823550,Right,-101.63057259022025,-121.4755933371489,-119.27324718126329,-134.0071795899421,-66.94526439945912,-118.1829624157399,-115.30173527583247,-130.02002491103485
2025-12-12 17:57:01.828579,Right,-22.533565003570402,-42.7343631364638,-41.42608375533018,-54.04712914902484,-184.92656033084495,-38.3289916565991,-36.58074610395124,-53.31856318906648
2025-12-12 17:57:01.832573,Right,-74.20232196309371,-109.20611687994096,-108.13774753001053,-117.32532770634862,-52.18185018605436,-101.60618900100235,-98.78061324072769,-113.57260160410078
2025-12-12 17:57:01.836588,Right,-167.22107021111879,-202.5349126906949,-200.90076326479902,-211.79528430232313,83.95929433632409,-194.37324029172305,-190.7066147365258,-203.802442570508
2025-12-12 17:57:01.839597,Right,-132.8363243434287,-151.33654622355243,-149.3443178817397,-164.91614188393578,-30.67216418136377,-146.2922706725658,-142.7698319805204,-158.68135658890242
2025-12-12 17:57:01.843616,Right,-36.85375885362737,-50.37196873157518,-48.04411925043678,-64.8226074257982,-182.18581236505997,-47.960583882348146,-42.85634045867482,-61.83178534556646
2025-12-12 17:57:01.847627,Right,-56.823564148682635,-83.97961145505542,-80.14847119612386,-95.89498828025535,-88.88461027444282,-82.02175437356345,-72.79480594984489,-89.49699102481827
2025-12-12 17:57:01.851645,Right,-149.14108644481166,-180.2229032308096,-174.0771030425094,-192.5506657748483,73.28188557304384,-180.03202991822036,-167.7064355298644,-179.58095885952935
2025-12-12 17:57:01.857678,Right,-129.9960725349374,-144.32764128502458,-136.91509335348383,-160.41870790714165,1.520392448437633,-148.70455939613748,-136.6587151599815,-146.91331879259087
2025-12-12 17:57:01.860665,Right,-21.430547745054355,-25.276746344694402,-18.04769084538566,-41.74342252465431,-167.10739467057283,-32.99158873909619,-21.918387456564233,-32.4109376364504
2025-12-12 17:57:01.864672,Right,-14.893468466907507,-29.578624121611938,-22.30485438805772,-41.527838636771776,-113.14125337070436,-36.784336335316766,-24.55454703743453,-32.40208031912334
2025-12-12 17:57:01.867721,Right,-116.9310304321989,-139.38178119133227,-130.9143708581978,-148.73605858552037,66.00577848331886,-145.70291261893,-131.82038250850746,-135.91106805962045
2025-12-12 17:57:01.871694,Right,-136.06628618831746,-145.05255545367254,-135.20387170254253,-156.7988687537727,36.9852548152121,-153.44105925166514,-139.56537291262066,-144.11134270601906
2025-12-12 17:57:01.875730,Right,-35.853304182266584,-31.83907146542333,-20.958407436904963,-45.167861983238254,-145.69772510147595,-42.63251173531171,-28.501742883148836,-36.312622513622046
2025-12-12 17:57:01.879663,Right,1.1344098929839674,-3.2079817483900115,9.256615390360821,-13.649688995210454,-139.90943730747676,-13.05741279819631,3.7926295008219313,-4.006835764390416
2025-12-12 17:57:01.884728,Right,-86.42077518929727,-101.90187134122243,-87.1408739722392,-109.9112080472405,45.55004245979944,-109.06347077462124,-89.64202904747799,-94.17349491774803
2025-12-12 17:57:01.888754,Right,-128.1092060006922,-134.4189090495056,-118.25052089101519,-144.24652672710363,66.93214606217225,-140.8314921723504,-122.61851639364613,-126.16135453106835
2025-12-12 17:57:01.892769,Right,-42.509572391951224,-34.556966778909555,-18.851388601819053,-45.979729141516145,-112.79877659102203,-41.69939964092919,-26.807863029040163,-31.960724120028317
2025-12-12 17:57:01.895751,Right,11.60214348550653,14.35365544987144,28.999212790629826,5.485842809372116,-154.75442403204215,7.602797491505044,21.251397772313794,17.371256518759765
2025-12-12 17:57:01.899765,Right,-65.2796641367895,-75.03788249546778,-60.65997763781343,-81.75953651696909,23.08510347023548,-81.19726135814562,-67.13106544254697,-66.31021000022884
2025-12-12 17:57:01.903773,Right,-124.8422730306047,-128.74016625675722,-114.42971345866681,-138.55734884986305,92.72990702706738,-136.7279165989894,-124.30710841508699,-121.49286331850453
2025-12-12 17:57:01.907794,Right,-47.395166262140265,-36.44608383474406,-22.903638977877563,-50.4243786156876,-71.3915392170311,-47.43005513006938,-38.402080530591775,-38.248909058078425
2025-12-12 17:57:01.911819,Right,33.15479608124588,41.00150116259465,54.01782352436567,27.859338485694025,-158.19581036701857,29.140412965323776,37.28371362425969,35.91162247338798
2025-12-12 17:57:01.916832,Right,-23.05641473500873,-29.792373614705866,-15.762164939020295,-39.74144570651697,-1.136564932006877,-40.948392604710534,-30.43880136081134,-29.025980697304476
2025-12-12 17:57:01.919844,Right,-103.45334927315707,-107.68279655379592,-91.85614812368294,-118.12749382303446,110.72053995379247,-119.61214834114071,-107.37921555782668,-103.75857480266131
2025-12-12 17:57:01.923839,Right,-55.07796066690935,-42.10897607705556,-25.374035354790976,-55.066474004415795,-27.57060333849222,-55.820912172523094,-43.96831466580625,-42.403323558333796
2025-12-12 17:57:01.927839,Right,30.75705522033968,46.36076031276025,63.200740263273474,34.667689475783845,-154.63909820978006,33.401342104625655,45.71070510111167,45.21000338005251
2025-12-12 17:57:01.931871,Right,-6.982658195775002,-5.4259556340111885,11.984145633585285,-13.503183609282132,-31.499711335156462,-15.021886816888582,-0.3750022667227313,0.994276373705361
2025-12-12 17:57:01.935887,Right,-93.58649530477123,-94.27729638278834,-75.84595506219193,-102.72604772180784,112.64835557977494,-102.20477604644839,-86.39235269717756,-83.05721754572005
2025-12-12 17:57:01.939895,Right,-56.51912840773002,-41.93679096081178,-23.030782959860517,-54.19968940113904,10.26452736853389,-51.68333451417857,-37.2432228550897,-35.87444452816271
2025-12-12 17:57:01.943920,Right,49.04956139996648,68.86520569221466,87.90295724087628,56.00128092369414,-143.4394221563125,57.12145407689968,70.51084974731202,69.93102737507434
2025-12-12 17:57:01.947914,Right,37.00977928098291,42.93831178348046,62.82538090588059,33.4656904306612,-55.63472282123985,31.250763928488595,45.59155299002305,47.88769058434991
2025-12-12 17:57:01.950931,Right,-67.4734527504479,-67.91558227292262,-46.92340257338947,-76.18795416346984,115.09089528986078,-79.80976141433348,-65.07050255840295,-58.74201801427989
2025-12-12 17:57:01.955925,Right,-74.436561182898,-60.744138352776645,-40.165358043217566,-71.66415222434443,53.235837674335926,-74.9427832281508,-62.00250398245407,-56.49845288207871
2025-12-12 17:57:01.959940,Right,23.968859213142423,47.743048584321514,66.25537648971658,35.77171112538781,-124.1360910232761,31.279128157737432,43.1546214146656,45.353243029268924
2025-12-12 17:57:01.963951,Right,47.96348557181773,61.41601792295114,78.23465447349008,51.755710863508284,-84.298069706143,44.45324313559104,58.474734899180476,61.354028502013534
2025-12-12 17:57:01.967949,Right,-31.171728494169656,-26.749627370358212,-10.155429617647314,-36.117069033149164,101.56060038822761,-44.43827763860463,-27.828460175805958,-21.265821893903194
2025-12-12 17:57:01.971965,Right,-43.70837490493432,-28.654382744512986,-11.986597598268418,-41.71931183463312,92.07225496148749,-48.622604643314844,-32.66321566863917,-25.566354635288008
2025-12-12 17:57:01.975995,Right,50.1149443819595,75.96210483828327,92.14293582708342,61.191826468129875,-87.57655164788594,54.91747375350678,68.48407008376671,73.24541327581392
2025-12-12 17:57:01.979006,Right,79.29813953516714,95.98443941274309,112.16655456657463,84.92905871930998,-94.51055174951034,77.03351542519522,90.48436336644227,96.04243309178855
2025-12-12 17:57:01.985015,Right,-15.333190005432698,-9.774619948642794,7.695367319625802,-17.160212688642787,90.00772100880567,-26.725926404149504,-11.053178102520178,-1.376273451722227
2025-12-12 17:57:01.988010,Right,-63.78171718008525,-48.66644372275914,-29.80242489920056,-57.18914082145784,125.05817462837149,-67.18803646031301,-50.07421935196908,-39.331151500489796
2025-12-12 17:57:01.992027,Right,19.13687986563309,48.52575417567277,67.5949710758141,37.92709093375015,-53.40801418363117,27.25050464918604,44.38362133267219,51.68402312287071
2025-12-12 17:57:01.996033,Right,74.93320706141822,97.55144977784948,116.19528123809141,88.37916715999017,-112.90270829520887,76.45782349143701,94.03832848639286,99.37827186752111
2025-12-12 17:57:01.999991,Right,-1.984575902519282,5.3834063926915405,23.966797186105396,-2.4364449565764517,55.92286241234251,-13.766748501628172,4.181978368360433,11.67075645654404
2025-12-12 17:57:02.004047,Right,-64.72979531834426,-52.76118583398056,-34.355124591864296,-63.806188841859694,137.74656142327876,-72.03337407863,-56.22796841296076,-47.30790619197069
2025-12-12 17:57:02.007046,Right,13.732465505963773,42.08927786280401,59.475014242649195,27.166979958608863,-16.304649154728395,21.10516696200648,33.36422399310686,40.329726387702976
2025-12-12 17:57:02.012078,Right,101.36220189426967,128.18142794597952,144.59470717165095,114.80883353270474,-111.05161210810184,107.39449419101584,118.88716181179916,124.96872825441824
2025-12-12 17:57:02.016087,Right,47.55302607257909,58.0220811831241,74.66194584294863,49.136769382239436,38.46943927360553,39.20545762294205,53.16853866074234,62.231560980551876
2025-12-12 17:57:02.020089,Right,-40.21434897190193,-31.218882767207106,-13.94487425913394,-39.20747366674186,158.71482548893255,-49.85350104392273,-34.350218226216384,-23.01202965954144
2025-12-12 17:57:02.024059,Right,4.1116573542385595,27.989063744200394,44.859857885792735,18.28231295934529,28.053537440137006,7.45254135709547,21.791046794925933,31.15017382039514
2025-12-12 17:57:02.028120,Right,99.20570738262904,125.89016960958543,141.87682823655632,117.75006598289474,-108.08659181473195,105.18163484882098,118.6499428346724,126.0433974134794
2025-12-12 17:57:02.031075,Right,71.16009998093068,83.8618534092966,100.10314916945208,79.78206567953748,5.311159541684901,65.80618855332432,80.28204990067752,89.98639001170523
2025-12-12 17:57:02.035140,Right,-20.226728139823535,-10.805275234612054,6.543974469554087,-14.605761194456136,156.89066291800555,-27.045565013439045,-12.522271529320278,0.03591604653047398
2025-12-12 17:57:02.039151,Right,6.846497722348431,31.392422950433684,48.8955364469366,24.0670245236106,64.38235096952121,14.139613914026995,26.104842979439127,37.28000678459648
2025-12-12 17:57:02.044156,Right,114.11051115087321,145.31737369126495,161.6978370748402,137.07775391267205,-97.37661012415629,126.96352941468649,136.7707403241293,145.4338722631801
2025-12-12 17:57:02.048180,Right,110.83396703527251,128.84111197265156,144.19598119186412,123.37715362847666,-23.209237309143646,111.38262427542941,121.70827130303951,131.72696505220665
2025-12-12 17:57:02.052181,Right,5.950991167468601,16.112638591112045,30.93069225916406,11.115425536903786,151.06337261725275,-0.4493782774588908,10.423027570737759,22.97621514857019
2025-12-12 17:57:02.056202,Right,-11.307718638912775,11.092715357292036,24.820279013922118,2.7660111059594783,100.89102262304368,-6.260756476163806,2.7373834715181147,13.742848060603137
2025-12-12 17:57:02.059222,Right,77.61677100215456,109.54882833252486,121.5436235546913,100.34838111964928,-81.16156988514922,91.7287238760182,99.11940779947327,106.95304535092873
2025-12-12 17:57:02.063214,Right,92.85513099728269,114.55176530674362,125.50527981438427,109.50469587880798,-57.35832504008795,98.46296008989157,107.3612091413379,116.446845008948
2025-12-12 17:57:02.067227,Right,-1.3710310139867943,11.024481607157213,21.975203794896515,9.087195969266759,125.71606896862431,-3.090313261403935,7.726458205605013,20.787683900452976
2025-12-12 17:57:02.071251,Right,-26.55142671784415,-3.4663135527807754,7.148243376632308,-7.26860270115867,124.8501774907927,-17.58881269066478,-8.164880044176243,4.699933832500392
2025-12-12 17:57:02.076272,Right,75.89774303343438,110.2741734439478,119.53344358670074,104.48192648955592,-58.98067234001428,96.0488396005021,102.47461393145204,111.03435076877213
2025-12-12 17:57:02.080269,Right,131.5563547545862,155.59567475036238,163.64912809222278,151.8636659636104,-83.02066021515566,143.77150666821035,149.42030951686684,156.27096200036613
2025-12-12 17:57:02.083268,Right,54.14059096823621,63.323273392736155,71.1414833265826,61.621995783865714,96.88697758470516,54.617881345744536,60.944079786131624,70.0978793871218
2025-12-12 17:57:02.087279,Right,1.3147290936358331,17.022000468477927,24.571660386639564,13.242137080163957,144.1053238227687,9.093895679769048,14.090947587017581,24.035135194386385
2025-12-12 17:57:02.091288,Right,75.71072393061695,106.59898252027779,113.00598902542333,100.68399420836795,-29.916043193446967,98.36378697833425,100.43259575729826,108.22581896111478
2025-12-12 17:57:02.095311,Right,132.43499056798828,159.4810721998765,164.87206363193764,155.96760014050415,-100.6430641423467,152.85669029886049,153.7474740266307,161.91607041283896
2025-12-12 17:57:02.099321,Right,53.724508230076026,66.22526154958723,71.73291450696343,65.72773943496577,63.21691354663926,61.940073688685516,63.343927045402324,76.15867060762548
2025-12-12 17:57:02.104323,Right,-24.971102325678658,-9.631486121783837,-3.8125753465083108,-12.03774491303011,155.25988369178594,-14.321710308233378,-13.847473771572368,1.8232013565016132
2025-12-12 17:57:02.108348,Right,35.78156943473368,66.48562252779527,71.51537694740182,60.43940741302595,4.57906617296976,59.41033834700556,57.574421874194286,70.81814170509188
2025-12-12 17:57:02.111341,Right,119.02556876756807,149.029054218503,152.7563667326358,143.98819200056369,-105.24000812940358,141.72797491943174,139.61746259095162,150.06206760120585
2025-12-12 17:57:02.115374,Right,67.67041481113984,82.08242730559414,85.26568961856537,80.89620615951253,32.91896807809826,77.11217134669141,77.18581111167623,88.39393859336815
2025-12-12 17:57:02.119378,Right,-24.26223623106455,-11.786321095514722,-8.799394589452277,-12.579984199433056,161.59588922582589,-15.895293888302149,-14.66863764849586,-3.075150811300773
2025-12-12 17:57:02.123340,Right,12.87151558820051,39.576414817754994,41.50137115931648,36.44268940357506,39.426769205332675,33.38192195971351,33.663431877444964,41.784084813971276
2025-12-12 17:57:02.127458,Right,109.91784738124443,139.19570813642713,139.6815735122691,136.77506825959608,-107.11791419996462,131.05752921376552,131.62184675042226,136.7215854327842
2025-12-12 17:57:02.131341,Right,90.15881947713115,104.79053191665662,105.07920457118962,105.6440166458051,-5.6017826882689405,96.37313010264552,100.10096416893794,106.89814824002679
2025-12-12 17:57:02.136436,Right,-1.9413764809232816,8.381038119830919,9.648288027245144,9.113751898570627,154.09118067064173,-1.1160733227625315,5.462353967795934,14.686588442276843
2025-12-12 17:57:02.139447,Right,11.946742406860722,37.58948445111673,39.173376803788415,34.718449413259805,74.42535246339912,25.473643821431324,31.79161021152322,38.9693595027602
2025-12-12 17:57:02.143433,Right,108.01533067337732,141.77747830902445,142.27137186752952,138.05871137512804,-94.54464063888145,128.92298022594696,133.66495688351642,137.41336881957977
2025-12-12 17:57:02.147486,Right,105.6097032262478,126.48309216218695,125.65155920865072,125.97396621929875,-36.429360773777034,116.35486064291399,120.69008967035188,125.56874016678921
2025-12-12 17:57:02.151511,Right,7.369059653578006,18.495533478693687,16.756906444832566,19.68343380009901,139.64273904253378,11.279383803008386,15.043243293039268,23.885567347155302
2025-12-12 17:57:02.155505,Right,-3.4296866559961927,17.810548300723894,14.730699029692914,17.562006786676648,102.73102938349257,11.363890130895015,12.38052646171127,21.96185006968153
2025-12-12 17:57:02.159513,Right,95.54047577197707,125.16308166045928,120.10233318356768,125.73410045560013,-81.24014325921917,119.67970511416934,117.73853819554643,125.18608237568696
2025-12-12 17:57:02.164441,Right,123.17558110442405,140.6995492915812,134.3445064921907,146.1148250009719,-71.92290064244435,138.1994106858474,135.97021723782382,143.7031762184488
2025-12-12 17:57:02.167451,Right,32.540405802115856,37.530963489058195,31.197531129444542,45.69486236211378,110.42035698190239,37.32686463632854,36.000409800697525,46.315422182538896
2025-12-12 17:57:02.171514,Right,-1.4099146874614235,12.533286431527813,6.403228040340764,18.04202046465798,123.25049816676892,11.629758879804285,9.210749988349562,19.35979922489787
2025-12-12 17:57:02.175467,Right,89.2830030328987,116.369651168985,109.91798045710311,119.57857624415192,-58.83185007895827,114.62708136867877,110.12351043731178,117.65588400490378
2025-12-12 17:57:02.179538,Right,133.33735894744314,152.9600625223975,146.6398608007148,159.02081423941127,-98.20438830560943,153.62150634508725,149.30695527605712,157.46180128400738
2025-12-12 17:57:02.183541,Right,36.353504462247656,41.306104720824806,36.09648276394,50.81182137397991,73.54188502674424,45.45378953355248,42.77805435261689,55.05317354017461
2025-12-12 17:57:02.187571,Right,-40.576192046297365,-31.259638215298764,-35.726132575640804,-23.194028837111546,127.91650987522644,-26.82832157134544,-30.08157524935814,-16.582487790481537
2025-12-12 17:57:02.192592,Right,26.873405785954674,49.83813710611139,44.74685848943773,54.93063983477623,-44.46860462186851,51.797394557346706,46.090569796724594,56.11073743640736
2025-12-12 17:57:02.195523,Right,104.85492290064576,123.823092594037,118.02154531022097,130.01230323838536,-126.02457023349234,124.17061706152163,118.08810524771252,125.94200851456117
2025-12-12 17:57:02.199584,Right,57.298738191020675,61.3805779728209,56.32966143143858,70.34186296327971,37.20245330638136,61.320605331638944,57.38440890974016,67.60816017957404
2025-12-12 17:57:02.203606,Right,-3.2398215894863824,3.047428068239242,-0.6014839353811112,11.070007785223424,148.18800575377645,1.3539227555884281,-1.7398823672047001,10.705256608649506
2025-12-12 17:57:02.207611,Right,62.993388294416945,85.16932468902087,81.78297759882116,90.54731874806748,11.315234683943345,81.32218438012205,76.50897520814033,87.68675605693716
2025-12-12 17:57:02.211624,Right,149.69391808199725,172.44174941047095,168.35169968559057,178.95236827497138,-106.39946714832877,169.25353035480657,163.36981589094648,173.82194924114447
2025-12-12 17:57:02.215629,Right,97.7013630100846,104.86847355648933,100.60520023119898,114.55669474355818,22.036799017883823,104.84037388289289,100.02090919506009,113.32340116896376
2025-12-12 17:57:02.219593,Right,-4.3635615009843605,-0.2474360955384327,-4.021785098404507,8.744660371783539,158.06801611006813,1.590614453467424,-2.8811182077843114,12.259088659237023
2025-12-12 17:57:02.223649,Right,22.515695368638262,40.76953578782559,37.22770774457604,46.372930550787714,44.75995829270687,42.378607256003306,36.14887718905811,48.103713967779186
2025-12-12 17:57:02.227668,Right,120.50970029253949,142.2845373771852,138.99378494998382,148.1865031154448,-109.87236008793116,144.45714074811258,137.41202030485147,145.72383021563292
2025-12-12 17:57:02.231684,Right,104.15666510294977,110.82559736492112,108.77203190783621,120.34723063034471,-18.62258973969074,114.83613278162375,109.59326509678795,119.35390569776064
2025-12-12 17:57:02.235692,Right,2.1672674412839115,2.165012314726482,1.689663601515349,11.822049354988849,148.96599734335177,6.059680499995011,2.0858259072119836,15.222069989802549
2025-12-12 17:57:02.239699,Right,-1.1113160623426666,12.452383669748087,12.191525578251458,17.93148318261956,81.85364709265923,13.547751042351592,8.068608993125963,20.557251894511865
2025-12-12 17:57:02.243733,Right,89.88579199860396,111.70908646970929,110.32007737459207,115.59633926743118,-93.5338832367488,111.4474313431856,104.50811302902002,114.11431541615457
2025-12-12 17:57:02.246740,Right,95.25213189735223,104.59649246216577,102.48709550178319,111.799436723275,-50.69209317540299,106.89149867040396,101.15585975846625,111.0318159168819
2025-12-12 17:57:02.250684,Right,1.7399901259050239,1.1132069696759572,-0.7307244776457082,10.368212953733746,127.61619643401718,6.483193417894654,2.1214931452996098,13.904799139156239
2025-12-12 17:57:02.254742,Right,-10.271865485061426,-0.05281988115166314,-1.8985151797824074,6.746162303112214,105.87980875655921,5.437221305750427,-0.567910859856056,9.433855331590166
2025-12-12 17:57:02.259764,Right,92.3529650543569,113.21802763416781,110.64911908796057,118.3607114571787,-76.0582584825097,118.04140510577417,109.15571223363804,115.20810973092739
2025-12-12 17:57:02.264775,Right,125.87198205984896,136.01909322466236,133.35119346772262,144.02521598078602,-77.94635151526018,142.82438510294014,133.38459092720586,139.33217363867152
2025-12-12 17:57:02.267830,Right,28.01446843778831,24.4631156707037,22.86765096599993,35.23688493524969,103.67227757368528,34.366028725984506,25.894079366291407,34.6493717154226
2025-12-12 17:57:02.271793,Right,-23.68336317813373,-20.147378833207767,-21.2101146838977,-10.694479605284869,128.01692707420443,-9.223624619960901,-18.638483464877936,-10.994352432855521
2025-12-12 17:57:02.274808,Right,61.76591768694925,77.8635146284796,75.50813022779766,86.04251438145002,-53.12436033303675,89.03938098315848,76.86136822895787,79.0180732775334
2025-12-12 17:57:02.278771,Right,122.53569513533148,130.7572577072715,126.63770670734812,141.88751389131357,-104.51782468185411,144.4044907700445,130.6416884991777,129.93319923689705
2025-12-12 17:57:02.282814,Right,47.30508820046089,39.15737971641647,34.53131483121251,53.46277435812226,67.23066042346909,56.20641769099166,42.01216035708785,43.22001653860207
2025-12-12 17:57:02.286821,Right,-18.54744654899696,-23.899826071821735,-28.27673212326772,-10.911481832503341,140.1962597722486,-5.550313024228672,-21.870640351771726,-19.83288859661843
2025-12-12 17:57:02.291857,Right,51.6045840075094,60.20198000530945,55.67011882313818,71.19271136548195,-20.838084662413166,78.93364662173553,59.235453535744455,58.54328055094811
2025-12-12 17:57:02.295851,Right,126.62315353864687,132.04827162438596,127.45912177565333,146.01898036536295,-111.90896737316507,153.6110277565749,132.9681741636159,131.24011603815597
2025-12-12 17:57:02.299824,Right,62.79891224631865,52.45290708668472,48.7220313482685,71.37099652332836,41.33378720926339,78.50790080087609,59.527881710775546,60.87106736644637
2025-12-12 17:57:02.302817,Right,-27.615741872694343,-37.61358509903948,-40.50878567698237,-18.23915552654944,156.31228979070875,-9.512725444379612,-28.2106288564828,-25.14468548441073
2025-12-12 17:57:02.306892,Right,14.929882681797608,20.509374940258567,17.07734716392588,37.255769313822384,19.926972695076984,47.17153243646317,26.38257320073899,26.480462100575096
2025-12-12 17:57:02.310916,Right,103.70165388302121,111.22870353376493,106.36698647844605,128.16347069189942,-113.53722235221721,135.77989560483547,114.30386933987029,111.73434866826574
2025-12-12 17:57:02.314912,Right,71.92587613518117,64.6086466810084,58.72483827525866,83.6713046458899,3.7564848525325942,87.6769169158215,68.42439252226905,67.81618747045286
2025-12-12 17:57:02.319865,Right,-15.71557037391176,-26.672227907954948,-33.4177314445551,-9.155267666501459,151.6554534470015,-6.0340877127309795,-23.69315475760959,-21.68489417155797
2025-12-12 17:57:02.323935,Right,12.479520107619464,15.675204531624331,7.096646127392887,28.960458069486776,54.036208438203175,33.13642929823254,14.393226533487905,15.04163186714868
2025-12-12 17:57:02.328018,Right,109.53070181272051,117.57468384649837,106.70796918918495,130.6388629675639,-105.56275884497154,134.18520044533943,114.69805801895563,113.48805764102144
2025-12-12 17:57:02.330961,Right,93.65221386491612,87.3056112560007,75.4832637970976,104.64736153518606,-27.765625963591447,105.90400370256975,88.36894987596315,89.91291812396958
2025-12-12 17:57:02.334975,Right,-12.475338920616196,-26.356908812522306,-37.63930850116594,-7.019679349279613,142.45027335588748,-6.851074931633775,-22.307931404662668,-16.47237794713874
2025-12-12 17:57:02.338976,Right,-20.714920621248893,-21.721873445276287,-32.6900274605141,-4.860046730551403,86.56183362925367,-4.615677795125521,-20.60101837577531,-14.91750487034733
2025-12-12 17:57:02.342993,Right,75.47674748594,83.35039975104155,71.73933168459916,98.83570446012891,-91.9253906332633,97.85151853482239,80.66769082058454,83.63017590681557
2025-12-12 17:57:02.348000,Right,91.77887038166227,87.6381546347402,75.56341989373323,105.27831994282315,-60.694563976383506,102.35253526175802,86.00529776938492,89.75388965690217
2025-12-12 17:57:02.352022,Right,-1.6375407604500651,-16.41287167421251,-28.167135408781178,1.7618889066943666,120.4813054787046,-0.6278881786711281,-15.733253014012007,-8.544483503283118
2025-12-12 17:57:02.356033,Right,-24.814920498931315,-28.76492204342503,-40.388688719780475,-14.356779635883868,111.79940538795927,-14.061648228103877,-29.946986177295912,-22.520032646949403
2025-12-12 17:57:02.359036,Right,73.86681372058229,82.73880364224897,70.5256419484358,94.20757947141828,-71.1273848328965,95.12582765209663,78.65433213085635,83.24787223989551
2025-12-12 17:57:02.363039,Right,118.22168168341159,119.15903789820732,106.54361297244031,131.8926023519307,-86.18268407184223,129.92241533845663,116.36462975716859,120.70847163186409
2025-12-12 17:57:02.367064,Right,31.055518245033454,19.38050517765805,6.968734680136549,32.854733116866555,95.99241649906617,27.91537935406086,18.71967116043379,25.84299302425643
2025-12-12 17:57:02.371014,Right,-22.14585944020655,-26.635925846581813,-39.29334877683141,-16.730473538656952,136.81062341529105,-22.328971406750497,-30.21164468456118,-22.81756047270028
2025-12-12 17:57:02.375073,Right,58.43265617605357,67.87161891793949,54.030739495115995,74.56281020933238,-38.393427650975354,68.62891677347943,59.53452411777107,63.70121790423582
2025-12-12 17:57:02.381037,Right,121.59131549824087,125.47238762548659,110.8822784212316,134.09157557475555,-101.72191986341568,126.46590856619878,117.81427463698492,120.79037405051349
2025-12-12 17:57:02.384046,Right,47.16143891263346,35.600714589323616,21.82070359098725,47.40390196128283,64.04912647196034,38.81434821219591,32.605282142714714,38.11078685047687
2025-12-12 17:57:02.388110,Right,-31.700892308246694,-41.02123039201251,-53.527870571524545,-30.230977225670358,146.16777555607405,-37.447562027096865,-42.72947232340812,-36.46060816432873
2025-12-12 17:57:02.391064,Right,22.462916959746508,27.457950703872484,15.081190942553803,35.851833168024314,-13.345082561532763,29.86519520301954,23.503437659164774,26.31096277172037
2025-12-12 17:57:02.395134,Right,98.11662287908257,101.8782070009911,88.82686834970082,111.90217204259534,-121.19574509486847,104.77321441864478,98.60066935444775,99.10135716435616
2025-12-12 17:57:02.399138,Right,47.559131752175745,37.033675543469144,23.77224463714083,50.17870765987027,20.78076294699349,41.899389910147875,37.7518605598525,40.570907845321926
2025-12-12 17:57:02.403158,Right,-35.36117398648639,-45.34960198419867,-58.470481386219035,-33.63920434845204,146.3693614912154,-40.25726557773305,-43.93660743961664,-38.82027836602356
2025-12-12 17:57:02.408168,Right,6.019795822488959,11.949525388728944,-1.498501402878901,19.502441635049763,22.221978299836337,15.492165526695317,9.780528739844158,13.197733208682621
2025-12-12 17:57:02.411174,Right,92.21533007697144,100.92225186391443,87.1598283704443,108.34830187181069,-117.60248047904679,104.76858859955973,98.06749560878234,99.61609142636007
2025-12-12 17:57:02.415200,Right,53.17911790699145,46.8749451142794,33.76865174818522,57.76313483425474,-10.870973168293858,53.555541370849824,48.62164703997405,52.05918259212922
2025-12-12 17:57:02.419200,Right,-51.26097095518344,-62.2700484124216,-74.54871203796938,-51.05875008851581,141.98407491096077,-54.298545999481576,-57.807123820755805,-52.55405081801291
2025-12-12 17:57:02.423155,Right,-37.16370340644062,-33.71901795796293,-46.77778065740131,-26.3843303235044,53.28494510368546,-28.530598012148403,-32.85019095739699,-30.60400369996205
2025-12-12 17:57:02.427220,Right,65.44018586207676,76.04473724644049,60.77211293994333,80.93864216511429,-112.49130211997908,76.77746257466788,72.46070157521899,70.27156900087721
2025-12-12 17:57:02.431238,Right,69.90149716567248,68.04337892492185,51.32032871320553,73.2741510772612,-44.71447103393075,65.37146419523924,64.14289359498798,61.991453019189066
2025-12-12 17:57:02.435251,Right,-22.429849722342624,-32.095811431972834,-48.368091001066205,-28.67871242533147,132.76346094666224,-37.57378489767143,-35.705741411344206,-35.15310869632958
2025-12-12 17:57:02.439257,Right,-31.848535523589817,-29.758531111088814,-44.64482137859886,-31.043097697402118,91.20207110022966,-37.70266886863101,-35.95171604435018,-35.466267505515134
2025-12-12 17:57:02.442263,Right,57.05919670849835,68.04553860893793,54.73821638930531,65.13448293715192,-91.31150442052603,60.30402981291263,60.86869619119534,60.1153933539681
2025-12-12 17:57:02.447276,Right,63.87690929737437,63.621281607942365,52.52591941326682,63.860686207859544,-77.56800088853925,59.27324175949616,60.90739210956235,63.433949388774636
2025-12-12 17:57:02.451291,Right,-46.38890021597763,-56.96722079417668,-65.54802420590568,-55.360037451479,98.95902313604529,-58.965110493067186,-55.568099908399745,-46.73114005376556
2025-12-12 17:57:02.455299,Right,-88.58080217155657,-88.03135328203643,-95.37440299720038,-90.34031005341967,99.31714064609696,-92.15707081873552,-89.58042415149248,-78.43031960334338
2025-12-12 17:57:02.459314,Right,6.39279888440069,20.733459999733896,12.948131961427862,15.087530403929122,-83.92196553121903,12.664807021465094,13.17397552676266,22.062302461738
2025-12-12 17:57:02.463326,Right,67.35115338020842,74.0122034179949,65.81292112352821,70.3365369335952,-110.25230315697263,64.51780694694753,65.28039379313122,73.61735080445942
2025-12-12 17:57:02.467271,Right,-0.866483259400411,-8.825492113654036,-16.10521862542373,-9.888270093419123,72.57165937652826,-17.861796910518024,-15.258188855550543,-4.291099558817223
2025-12-12 17:57:02.472356,Right,-50.16361959143978,-53.925306722208916,-59.907197584965616,-56.967154619516805,128.5001198292921,-63.86000471594161,-61.30659001474851,-49.96044381686079
2025-12-12 17:57:02.475365,Right,23.405250717536546,32.1842221314364,26.441108269587858,26.10672576869547,-42.36386874222808,20.548043477567262,21.414690458914265,29.363937059650198
2025-12-12 17:57:02.479382,Right,82.11027790413209,85.77703374760313,79.47467987962591,80.76830900321511,-119.36414207796406,74.79881704063882,75.4471955324043,81.71738434121653
2025-12-12 17:57:02.483376,Right,8.964909915266617,-2.21560001513717,-8.948677606949786,-5.095919940016756,39.97054608052349,-10.474320979286858,-8.95822563659749,-0.5141144523877301
2025-12-12 17:57:02.487393,Right,-66.05566109024221,-74.67608797238063,-82.02445097374584,-79.61676735153742,136.0918908789754,-81.22940634808765,-81.15917056341277,-72.2498684411621
2025-12-12 17:57:02.491405,Right,-5.0615124612813815,1.3933792484604055,-7.393464878674422,-6.916736375977052,-10.73421838318609,-4.475532930075133,-7.92104158042639,-3.3484992631929344
2025-12-12 17:57:02.495360,Right,77.26030757222179,82.92881713281531,72.7095696843171,75.82862913845747,-124.58679627886522,79.2135932227975,74.34783115261962,75.13855833092384
2025-12-12 17:57:02.498425,Right,22.541451645280176,12.644868739116646,2.1455014087878226,9.08377836622094,8.474363154182356,11.76116755502153,8.535546909391996,10.35899435547617
2025-12-12 17:57:02.502491,Right,-75.53991925626178,-86.98704114372958,-97.38684449875291,-91.18179959302506,138.61024210556207,-87.87403123802505,-90.22148535800079,-86.91143963420473
2025-12-12 17:57:02.506487,Right,-40.216386027328554,-36.491673370786884,-48.024210780531575,-44.19531103776535,19.09471503077657,-39.91842290891509,-43.94776661181095,-43.271589908297756
2025-12-12 17:57:02.511480,Right,64.00224741289276,70.76731110017863,57.20965650686048,63.625286697861156,-130.58584445927409,66.78541922264412,61.43082914227125,59.071294283763564
2025-12-12 17:57:02.515493,Right,51.53245774432435,42.29683005916013,27.611050359784713,39.78551141273783,-32.628092964590905,41.184781274081615,36.62289852624235,35.635027490745415
2025-12-12 17:57:02.521484,Right,-43.80165564190247,-60.00571455137106,-74.5636142934236,-60.67472832344356,130.6094730773948,-58.73318426273909,-63.00115777011888,-61.447381480516924
2025-12-12 17:57:02.524486,Right,-38.229486295480456,-41.03399371836713,-55.45181621059601,-43.99503451929195,56.21881142498023,-40.33159968124528,-46.66944211086229,-46.54874090151861
2025-12-12 17:57:02.527641,Right,56.93316461170616,62.06405871636525,47.43335806117102,58.58016564061836,-114.92620930739577,61.74113600292185,53.599546391840704,51.01120908377925
2025-12-12 17:57:02.530538,Right,59.14469221705076,52.08575622671924,37.80264442239422,51.31743187904067,-62.414467090984544,52.15530742536794,44.89733688340493,43.79615873191506
2025-12-12 17:57:02.534548,Right,-40.678268816758646,-56.82723585185158,-70.19011622169637,-57.541250186295656,115.07381424533742,-57.324685001971375,-63.306152220480726,-60.883831788429234
2025-12-12 17:57:02.539548,Right,-59.955543274198135,-65.16329235570447,-78.24238286404943,-70.39241431236587,84.9265404818907,-68.72122897806548,-75.77448522666236,-73.75577984074334
2025-12-12 17:57:02.543573,Right,33.16149753139325,37.66373146867409,24.088634827912756,29.640513839563937,-97.32700135334744,31.64227133749955,23.162484174990823,22.12867661580458
2025-12-12 17:57:02.547576,Right,58.9544238170929,52.56232367554185,39.13669591849248,46.91631112583855,-91.79434695762757,47.394095707990346,40.13407846463815,39.61022047789447
2025-12-12 17:57:02.550611,Right,-37.019830592133076,-55.52281023521937,-67.66303829681783,-58.901151668167586,90.54160254566887,-58.99279259026662,-63.9991585841708,-60.81897925389785
2025-12-12 17:57:02.554585,Right,-79.61365280446262,-89.0815054209379,-100.31898361110325,-94.31701382354731,108.40605431741642,-93.41970591871359,-98.34011686312806,-94.67479776531036
2025-12-12 17:57:02.558539,Right,10.092211781313381,14.31342032109751,2.530498814967359,7.563714996282215,-72.08387658615538,8.132205271191197,2.220979291239928,2.2194136473335675
2025-12-12 17:57:02.562620,Right,67.58767887324211,65.39622540754499,52.69372970706354,61.61354473840038,-114.25716808204015,59.97764117613406,55.08273016079329,53.04161770805149
2025-12-12 17:57:02.566622,Right,-7.9389923598319,-23.58372661716203,-36.425107574297726,-24.31482788582798,60.004562118243484,-26.583372995366517,-29.463319397807936,-30.318979001709522
2025-12-12 17:57:02.571576,Right,-66.82950965921918,-76.63224813267516,-89.50300570952095,-79.28241312362661,124.58445950950772,-79.27787046617959,-82.43257145662574,-83.80908643672228
2025-12-12 17:57:02.575652,Right,9.337329629368469,14.9437439724461,1.376004286306852,9.0015590133371,-41.096506798185146,10.634084183056984,5.832712962550431,1.0762434577372915
2025-12-12 17:57:02.578645,Right,85.68025838266476,88.36324231311664,74.49027118679442,83.26969851777903,-126.45734051828549,83.47219639618561,79.48109156046849,74.10723789888289
2025-12-12 17:57:02.582666,Right,25.19947282506837,12.251164917186543,-0.3232697181692856,9.384014517112519,29.882185521315478,8.00288096705117,6.914759436092936,5.670439498579071
2025-12-12 17:57:02.586679,Right,-57.3966967514134,-70.22017432325083,-80.862894859687,-75.0598439989044,137.7244244681806,-75.13767111388734,-75.55831872522867,-74.01417331565244
2025-12-12 17:57:02.590686,Right,-11.600169735625968,-10.030990539165941,-19.886216753866393,-18.664618287119083,-3.8658033131450793,-16.62074764726276,-19.388589481775853,-20.23696866926184
2025-12-12 17:57:02.595694,Right,68.11116623208727,70.46781385793292,60.42573929844366,62.39534832204663,-132.0219065142337,64.23657722940334,60.1806409927558,56.77869277870741
2025-12-12 17:57:02.599664,Right,20.978859776558238,9.005853025639226,-0.7521470792207765,4.593132445868832,-11.040857313391825,5.225771273419014,2.7920498806633987,1.330616484501661
2025-12-12 17:57:02.602671,Right,-76.68945451255786,-90.28508830581632,-99.24403332982911,-94.05396603532063,128.35212068108922,-93.16138181882161,-93.85859926717967,-92.81273831703402
2025-12-12 17:57:02.606730,Right,-52.07757990343089,-49.77043782858891,-58.53643370597774,-55.527537749308976,21.6091403923474,-54.52438739409445,-54.91754811444662,-55.55821324676617
2025-12-12 17:57:02.610749,Right,42.08362680387654,50.03727279412851,41.03847237071477,45.48826004766488,-134.23250338177786,44.07849477244599,44.74178648084853,41.60422689043662
2025-12-12 17:57:02.614778,Right,27.045272293949893,21.455198692287013,13.106684033675265,21.20195551208235,-48.3423119350864,17.154555850618635,20.32574334373021,18.83494554450408
2025-12-12 17:57:02.618772,Right,-67.6392207990375,-79.4355498770201,-86.3253960644463,-78.64011525158094,120.28365697339905,-81.86850902248625,-77.86779195367671,-76.66965136816088
2025-12-12 17:57:02.622725,Right,-60.98149375789944,-59.01097765811937,-64.97677085925557,-61.37704300117912,59.31418079296418,-61.656535362073555,-59.962166318240634,-60.66081424377262
2025-12-12 17:57:02.627785,Right,38.2525385306908,49.378941319359,43.94861394373754,45.921034737115406,-114.37321112963036,46.538961833586654,46.2618539463183,41.46204281201062
2025-12-12 17:57:02.630743,Right,44.88234798949088,44.89592503003769,41.31566375309956,44.351929088388715,-74.54055986336789,43.72200175440594,44.7589866180615,39.95378128782522
2025-12-12 17:57:02.634817,Right,-56.735235532678416,-65.67867042078433,-66.03223276293119,-65.30104966127874,103.92054718683175,-65.9186868669567,-62.541319614125314,-64.2757535167384
2025-12-12 17:57:02.638815,Right,-79.25567536721428,-76.97599140076545,-74.95274283486663,-80.34482107250278,85.65846765505921,-79.46446955442934,-75.8538200745561,-77.41568429921244
2025-12-12 17:57:02.642837,Right,21.839821239464072,34.800069762282874,37.23945730002538,28.947628222653293,-96.6100314859068,29.39548333021503,32.49636660958731,28.628913352900327
2025-12-12 17:57:02.646849,Right,65.64246758624722,67.8382002895496,70.25121183443866,64.52628758959418,-101.54523680736747,62.06005095824821,66.57939281051404,63.66662197759729
2025-12-12 17:57:02.650889,Right,-18.41824031278702,-29.934123522706614,-26.748011364885542,-31.157531731936615,83.57731762026015,-35.24990602560365,-28.97380402314093,-27.999901636486697
2025-12-12 17:57:02.654871,Right,-62.66020288805157,-66.61839781908384,-62.819353525683255,-71.01831791637323,118.30908022494077,-73.82857170091052,-68.7248658634403,-67.20506845943606
2025-12-12 17:57:02.658879,Right,21.326481244166644,31.583274888878805,34.92767228591765,23.227156248902475,-56.70120061816306,21.408912588302314,23.631570935748982,21.739011637450403
2025-12-12 17:57:02.662886,Right,76.2284007009639,81.32123152181839,84.22702634187726,73.50289731190065,-110.78722092519092,70.36493247345709,71.99840183475273,68.95499064934484
2025-12-12 17:57:02.666899,Right,-4.961120175566975,-13.819521033321962,-10.125372326871002,-19.99568900928034,57.95845150549576,-24.012329011063912,-20.58286310297933,-20.946948639518723
2025-12-12 17:57:02.670919,Right,-76.44709737659286,-81.50463969674809,-76.48551923364175,-89.8383533129786,132.6426955572133,-91.900359120948,-87.72076723197551,-87.43247160663668
2025-12-12 17:57:02.674867,Right,-10.363154794209095,-1.483489343026065,4.3016376904379285,-12.399344298433334,-29.257511011200222,-11.703082109369007,-8.388941727531346,-11.777071686262389
2025-12-12 17:57:02.678958,Right,65.22653474626304,70.80177203640142,77.31790909720439,62.32926849849355,-128.47469736898438,64.22885690869543,67.91449291559047,62.15600331153382
2025-12-12 17:57:02.683986,Right,5.193529905615151,-5.074785790375699,2.9094395105048534,-9.051475355601724,17.526140043442865,-6.237043562222425,-0.49561846602273363,-3.9948358463980185
2025-12-12 17:57:02.686960,Right,-82.61645686987424,-92.4327140480973,-83.34041334989433,-96.22090214890432,133.489876307769,-91.41424728323909,-84.9156263853015,-86.47818882959564
2025-12-12 17:57:02.689985,Right,-38.675233293554356,-32.164470314542996,-23.780063687267102,-38.46360649064809,0.48459396160160395,-32.903908154188684,-27.64586569067069,-31.642460569119976
2025-12-12 17:57:02.693981,Right,51.297671723306394,60.93364046199804,67.72881947797941,55.67403129833929,-135.11582867216657,58.663863456331455,63.760156453714444,57.0783819340395
2025-12-12 17:57:02.699012,Right,16.82648742192714,12.304967075408058,18.76992532861459,10.762922037747558,-22.046017142373785,10.75251518400637,17.71372487869212,12.453474500865923
2025-12-12 17:57:02.703005,Right,-79.37874420238904,-87.53060199366155,-80.15830752026159,-89.11280293331765,126.26583659644211,-88.64438671810603,-81.06523398370973,-84.3055290199718
2025-12-12 17:57:02.707014,Right,-59.25483754981451,-53.18092365303346,-45.50707926959694,-58.66087429766958,30.44659973190528,-55.63110017807048,-50.076471006264,-55.183376775203214
2025-12-12 17:57:02.711043,Right,38.088130550029746,49.47872833317342,56.565545609735636,42.71754170157328,-132.60401385706427,46.329104723110504,50.709449610702904,43.22284845451031
2025-12-12 17:57:02.715047,Right,30.229687294304313,27.54176531595658,34.77855585212819,23.48963127600473,-59.87630268573321,25.85065808583022,32.34225751691429,27.10572107286862
2025-12-12 17:57:02.718055,Right,-66.55662426606978,-76.94083959558884,-68.40123969672459,-79.98546587661622,111.85303745086776,-77.41430287102048,-68.37927971862518,-69.71340751870412
2025-12-12 17:57:02.722090,Right,-66.80833314967185,-64.42511557776379,-54.99042876498606,-69.95695264754431,61.669697191096475,-65.71347231461004,-56.73131489238585,-58.60320181435236
2025-12-12 17:57:02.727132,Right,36.01849029740515,47.462077333906564,56.55150730956666,41.166775560988754,-116.22700014456382,45.430225499349035,53.68745564666642,48.58910319604365
2025-12-12 17:57:02.731091,Right,53.121685272662944,52.13032535233651,60.554191866818655,48.6763517300551,-89.4142594516178,51.06745597852387,60.865541067001686,56.0538818700752
2025-12-12 17:57:02.735120,Right,-51.43628140182773,-64.8015387983396,-56.736779130687864,-67.15589518057823,90.781544122875,-65.51589039045939,-53.42511420590745,-55.23750584804293
2025-12-12 17:57:02.739142,Right,-95.02602884472981,-99.7439996360954,-92.36623433704517,-105.19669916987914,85.07207762302266,-102.68023927535069,-90.57848962435128,-92.85694007917846
2025-12-12 17:57:02.743135,Right,-12.896112734735652,-5.845722292910068,0.28298770972651255,-13.203133950293704,-98.89445053978079,-11.162137718258236,-0.23620496911098599,-6.58064938645839
2025-12-12 17:57:02.746132,Right,29.897472532880784,29.442468052227923,34.83477860682615,24.74615451882346,-119.25355587578088,24.05976920503599,35.71393020235337,27.733467210349772
2025-12-12 17:57:02.750167,Right,-46.04370948511496,-58.14942068268465,-52.34494458787776,-60.70619370418717,62.59654147560855,-63.52129162864367,-50.041337508804645,-56.00977516295461
2025-12-12 17:57:02.755155,Right,-87.2778796863713,-91.61791043898484,-85.25036919382,-96.93510499219337,109.94174655399297,-99.9323572628964,-86.70972399342645,-92.17200982147915
2025-12-12 17:57:02.760166,Right,-4.145608291715689,5.541368826117832,11.875821603272925,-3.1404134347321815,-61.73579493098896,-6.828957059751701,4.821197808078068,-2.787055418251839
2025-12-12 17:57:02.763180,Right,50.882740983395706,55.055306611047854,61.87534402012716,47.46886906245345,-129.3372012029381,41.47384995533139,53.886835772058475,46.68656986594215
2025-12-12 17:57:02.767127,Right,-35.15518939811045,-45.93923866966361,-37.109708288398906,-51.228929816828895,32.521485009001935,-57.82363506636102,-42.86849861617884,-46.005018724736146
2025-12-12 17:57:02.770204,Right,-117.83257647669598,-125.07638253628102,-114.0182992666887,-131.99198964014067,117.57214752506934,-135.25702962624564,-120.33879597879604,-122.0928253116399
2025-12-12 17:57:02.774158,Right,-52.81981015752717,-43.86241911205434,-32.23935448198063,-53.444919229357765,-37.70825592249912,-52.97940800739525,-40.975448529656205,-46.890250443328114
2025-12-12 17:57:02.778225,Right,43.030334479261,51.9343953279822,62.783278582301136,44.328642935608514,-145.86004679348753,44.859028310806025,55.58928427433966,45.989694162202795
2025-12-12 17:57:02.782231,Right,8.158955300274101,2.012042998630932,12.304313663136782,-1.215901631869201,-4.020352179223664,-2.6973250749288127,9.778944861162017,1.714053048108326
2025-12-12 17:57:02.787211,Right,-72.50282310270268,-80.17181362780684,-70.11389164934917,-82.90275855553045,126.42821427499939,-84.89093700002923,-71.466046915677,-76.73071783454361
2025-12-12 17:57:02.791260,Right,-37.64646364573491,-30.653694934586383,-21.38645119276407,-35.63487677781086,6.163490976079629,-37.33373137235321,-25.497286790141516,-31.21396016959261
2025-12-12 17:57:02.794280,Right,44.607381863472256,55.04004832544524,63.35652284543721,51.13878972155362,-136.95846030531902,48.01526209224539,58.94909786050994,52.415286794523126
2025-12-12 17:57:02.798232,Right,7.7472730353765655,4.83584663853253,13.248277275823057,4.5362102565704845,-34.67883000292477,-0.26975321296049515,12.164710020919301,8.124292857770342
2025-12-12 17:57:02.802308,Right,-94.32570811464393,-100.76838758120721,-91.44625889039708,-101.5090120930654,120.64351410018753,-105.04806737698891,-91.83315361099812,-93.47248050103008
2025-12-12 17:57:02.806309,Right,-80.34783697373496,-72.26207980804975,-62.55101009510872,-77.57699727865838,36.56583558137845,-77.83186131259572,-66.67730646700511,-70.3750224169562
2025-12-12 17:57:02.810330,Right,24.135178550503042,38.36467953165629,47.94024862690094,31.36971051344881,-131.8845344373185,32.94495276446469,41.93183996976222,34.94784775435255
2025-12-12 17:57:02.815278,Right,33.49664714438768,33.42283201793907,43.57313268479811,29.501339322596323,-71.44388083802096,31.429124973758007,40.5670891996233,34.50596092304477
2025-12-12 17:57:02.820367,Right,-56.01273512883563,-65.40528719277063,-54.13573784147593,-67.49985416805066,103.8881201627537,-63.923171728914895,-54.56165091405637,-57.65808849120367
2025-12-12 17:57:02.824359,Right,-64.41618357989137,-61.80285043513504,-50.56535452339267,-65.50352120421667,65.68339207879126,-59.009337970641354,-51.81638558916893,-55.80229972425877
2025-12-12 17:57:02.827393,Right,31.287688912074373,44.384963811618945,54.195722322461734,41.41683584900238,-115.14338765792854,49.36788313005309,54.099893146143586,46.43628859177261
2025-12-12 17:57:02.830385,Right,51.109384666462574,53.6159188549791,62.491888275886595,56.21814060147881,-100.72313392304204,64.08630302898746,68.81154282284479,60.611751762557105
2025-12-12 17:57:02.834396,Right,-51.21176894256496,-60.51290613281526,-51.06496957334457,-53.87041338685958,82.45496719238236,-44.77227733136897,-39.612140791545244,-45.35801167138925
2025-12-12 17:57:02.838406,Right,-98.14499837732728,-98.59036987394575,-88.31675811124842,-94.01375469995764,92.99805129257311,-82.21307806132609,-79.54469409246303,-85.37672348914202
2025-12-12 17:57:02.843405,Right,-15.78779752000628,-3.7109387198797776,6.553986280692698,-2.732331110186351,-87.81282997931339,9.607558980642352,8.462776558564656,0.024939330582128605
2025-12-12 17:57:02.847485,Right,32.592317703412846,36.987609667568904,47.15992226390699,37.5169889660865,-121.61300981856039,46.87767979033015,44.67709690961783,36.907809164426
2025-12-12 17:57:02.850489,Right,-43.57467692935461,-52.89079325723287,-42.16524955067325,-53.019666679574584,54.68465406052019,-46.76024308651904,-47.63406197522272,-50.95530624558887
2025-12-12 17:57:02.854464,Right,-91.79520611876433,-95.00991138683094,-83.8857844647664,-99.69935866041851,111.54650041997411,-94.33386912143033,-95.03334143552638,-96.19098371256769
2025-12-12 17:57:02.858480,Right,-6.131126598240371,5.645503459429165,16.444475005600907,-2.994086268827232,-56.773737770421576,1.3916514992051816,-0.16464514622202842,-3.0516332406914444
2025-12-12 17:57:02.862478,Right,68.08513391234374,76.18926200282294,86.9899939252191,69.69220995389696,-134.1378419671355,71.00296740730482,70.95511252137294,67.95159897784106
2025-12-12 17:57:02.866436,Right,0.24165227187040728,-7.023463903740776,4.7580841609360505,-8.83244944609396,26.994432219371447,-10.397932246934943,-6.662127094958123,-6.127727881073952
2025-12-12 17:57:02.870511,Right,-83.81567504408304,-89.84857573197587,-77.5594929815561,-91.03516915569708,129.6344341885051,-92.91636508578449,-87.14956083949437,-84.98135204930804
2025-12-12 17:57:02.875528,Right,-33.672236475096724,-24.828723215527134,-13.897464591269454,-27.811593853108207,-13.456425002399556,-29.486658213492774,-24.5143542691294,-25.695816793479025
2025-12-12 17:57:02.878548,Right,51.420423390900396,60.73469697004839,69.61703735030096,59.52831407377016,-130.66051980980683,56.187664724729984,60.78199580002183,56.507270702306414
2025-12-12 17:57:02.882536,Right,13.153916953022417,8.277439614830655,16.520908905396936,11.193426049343543,0.4452601128077731,6.663657947014144,12.232519305074675,9.406352636266092
2025-12-12 17:57:02.886549,Right,-69.5580373106859,-75.39127308113166,-66.44855235689101,-72.15292149746892,137.3144021031485,-74.34753254372481,-69.57111337958486,-70.35873310393072
2025-12-12 17:57:02.890554,Right,-32.1231366730608,-22.515168545476627,-13.171878454042599,-22.212227667710977,25.61230848613195,-20.74009550025221,-19.23637781718935,-21.48518566344137
2025-12-12 17:57:02.894583,Right,62.34143002987548,75.3086784889565,84.37739753234746,75.6660348460573,-125.67275948154384,78.12817846095277,77.75789668066864,74.25329771887846
2025-12-12 17:57:02.898586,Right,37.09023732066271,33.785223479128035,42.72546756067641,37.440903174290725,-34.95809245325472,38.940477017669764,40.03441744603697,39.636452517694124
2025-12-12 17:57:02.903608,Right,-68.01694625202435,-79.51878626536927,-70.835661557403,-75.39190561153737,125.71067470269827,-73.45935852759794,-70.90634070752276,-67.9013662731777
2025-12-12 17:57:02.906608,Right,-67.23299588602458,-66.5185689006139,-59.318306966060845,-65.53477694221874,52.56820532913389,-62.16155040450394,-60.71950332781489,-59.608900335544604
2025-12-12 17:57:02.909624,Right,29.798330841906136,38.39767781105911,43.42701155849136,38.69875915471857,-121.271358192751,41.60643796549266,42.00700370645427,38.79162227769484
2025-12-12 17:57:02.914625,Right,40.067275437886565,37.21127031909418,41.22637168930487,40.71423788916945,-73.48036760507239,41.83448136712832,43.87833828929797,40.10636006974528
2025-12-12 17:57:02.918593,Right,-51.51198164591551,-62.79989270258011,-58.42773886278519,-58.347745571809355,105.59867803695852,-57.153136355500465,-53.24303213227904,-55.011987228299404
2025-12-12 17:57:02.922676,Right,-68.44041278002987,-68.12019411181245,-63.58186051298253,-67.19794270123748,81.26834987336952,-64.47540243865296,-61.608148451869056,-64.20703145681546
2025-12-12 17:57:02.926675,Right,21.97735584107795,33.11621993220979,37.30869967684339,32.24486873469141,-101.1503364845139,34.22784538957421,35.00667872924532,29.89014184633197
2025-12-12 17:57:02.931694,Right,44.54231373910079,46.02889863762903,50.882581821015265,48.53569944304763,-101.99564575918703,47.08072675753283,48.20274849026464,44.5151997851317
2025-12-12 17:57:02.934727,Right,-53.58307918373612,-63.405598231231124,-56.53028343747246,-58.13851084076305,77.7141938856912,-61.643639746802364,-58.88090066531004,-58.20589294635283
2025-12-12 17:57:02.937741,Right,-96.91593630110219,-97.24258414106953,-88.86358376274256,-94.58200557402233,98.78102906383538,-96.67802409558135,-94.35750621989064,-93.12738646734579
2025-12-12 17:57:02.942724,Right,-3.9835936476774805,9.79903020618076,18.01183416126878,8.897829117147921,-81.38340665245596,8.673286975796145,9.384810465937335,6.836692755659897
2025-12-12 17:57:02.946726,Right,60.213255325998034,67.37062249770679,75.0325789203871,66.992852583473,-128.67348361989207,66.64146836176769,68.0603110858101,64.02499155900296
2025-12-12 17:57:02.950747,Right,-12.925066900834281,-20.879415753192006,-12.85746980517979,-19.795586275748065,43.20882149570207,-20.3315940036573,-16.60493842942742,-17.883863434741215
2025-12-12 17:57:02.954751,Right,-79.09308596486153,-83.61089359722246,-75.04420109716557,-84.48910431953118,110.9101842119453,-83.68363253227835,-79.75447506372075,-79.457160930182
2025-12-12 17:57:02.957753,Right,-13.073625723651276,-3.5349636791070225,4.78339482017509,-6.443137450125505,-54.75861273526425,-5.331045625174738,-3.0538818186068966,-4.276354815243394
2025-12-12 17:57:02.962728,Right,59.932328697892444,66.92758585917181,75.002759214849,66.7362905216396,-147.01342387610748,65.11351238587122,67.61709632653219,67.06561222949676
2025-12-12 17:57:02.966787,Right,2.2307546193769667,-5.238405774518469,3.7583145649950893,-1.3467542035941733,4.877167972721509,-6.0220501873463945,-1.2507009322325757,3.1900596379455237
2025-12-12 17:57:02.969786,Right,-77.46891168662478,-83.82791543957501,-73.36680252166298,-80.5752184670855,117.83931354023298,-85.6242927651474,-80.39276266954766,-72.38107588427738
2025-12-12 17:57:02.974798,Right,-28.30833297098252,-19.758556868255255,-8.605281968120835,-19.830517854043137,-15.586250849210046,-24.107002069285954,-21.040295600543686,-14.464199449172156
2025-12-12 17:57:02.978824,Right,59.885304868039384,68.86798066388292,80.1720411600636,68.99070152715831,-140.19617110386935,64.31171545134748,66.15530169768135,70.98065218756528
2025-12-12 17:57:02.982838,Right,25.367512435814206,18.405520169544616,30.33911460176205,21.14206285351247,-16.368196953735605,16.76258464784769,19.37223442895629,26.04143881494747
2025-12-12 17:57:02.986833,Right,-62.35273726716696,-73.10348316701129,-60.46088506630804,-71.4624924873915,130.64035402115587,-72.11340071396626,-70.39972906922048,-62.34514295471672
2025-12-12 17:57:02.989850,Right,-33.392891673840495,-29.59222921624678,-17.35793489480602,-32.146707507710744,30.537501455930396,-27.594011113684246,-30.05220404481952,-25.22748898284408
2025-12-12 17:57:02.993808,Right,62.59151092453976,71.75247825136466,82.84094947670746,68.68649789467236,-127.1553409301905,76.03012248487539,69.6548251278673,70.42283649421734
2025-12-12 17:57:02.999872,Right,47.52041629667838,42.72874749659604,53.44494302505882,43.836584009053695,-46.773396198921546,51.98434200216252,44.33117875360222,45.25818519031964
2025-12-12 17:57:03.002893,Right,-51.368487244479184,-63.86021023679132,-52.831091577716506,-60.17873991380111,121.6333443142612,-50.14656375376762,-59.0907491977523,-56.5185207515533
2025-12-12 17:57:03.006898,Right,-49.763293183052156,-50.73115306044929,-40.413167687778696,-48.18537575007758,63.09004774814821,-35.7463704714628,-48.18403462842616,-47.6345568719953
2025-12-12 17:57:03.010908,Right,50.31122184238302,56.12059327041425,64.31239992849623,59.065830613890284,-113.69139729042581,71.32904379419051,55.68300016943613,52.74532200856265
2025-12-12 17:57:03.013933,Right,62.597289082237694,54.696906510693225,60.978062346412116,61.5660473369735,-79.70809568186996,71.73460389849606,55.49548001463154,53.06547404623416
2025-12-12 17:57:03.017942,Right,-36.28150362326596,-55.71886529546464,-50.13123964205079,-46.700744310257505,99.58628616219539,-36.753631385237895,-53.26679129220611,-52.909428447143
2025-12-12 17:57:03.021935,Right,-61.19709556559974,-70.59175368381693,-65.24274464593327,-63.52037415835184,87.33296204620638,-51.70329966770987,-70.72217486407135,-71.30602282370091
2025-12-12 17:57:03.025905,Right,37.90926545041111,40.25590759061015,45.34699135204937,46.8289719886252,-94.35478681573204,58.94079134671483,37.446392573483536,32.94801437949718
2025-12-12 17:57:03.030974,Right,82.5720984540203,76.11558831633556,81.76160864491249,86.79120292705011,-105.29722503493576,96.89372494020517,76.17326573357968,70.94641564717858
2025-12-12 17:57:03.034990,Right,-3.3228110556392494,-22.615985791489948,-15.381887738012665,-8.757138020402635,76.86536584918758,0.7622016434879697,-17.81375367310102,-20.331899235514356
2025-12-12 17:57:03.038995,Right,-55.51145883893423,-67.76113268207519,-59.34528502972353,-55.91279610376478,114.17565875101809,-43.99411932453586,-63.075359998405474,-65.38068903370004
2025-12-12 17:57:03.042005,Right,20.415535394859035,21.363615183870934,29.585188876673783,30.94508760941244,-61.140712089694716,44.860977326991815,23.39012980125881,17.853361276012947
2025-12-12 17:57:03.046007,Right,72.8754773243345,67.48949922898646,75.21779146575136,79.79508492827335,-120.94908423056586,92.9680622131209,71.14998905515495,64.79287114843828
2025-12-12 17:57:03.050016,Right,-9.132812565237145,-29.728433650359875,-21.739412960432674,-13.61480950882833,45.351979881569605,-1.6373293155993451,-21.743280764230803,-24.72855218724908
2025-12-12 17:57:03.053974,Right,-85.75083611386526,-103.11555788850092,-95.19572901091124,-87.90298875408007,124.61742696349665,-75.61249752727963,-95.45757063608107,-96.54925702381661
2025-12-12 17:57:03.058035,Right,-26.092234775509496,-28.671728027260542,-22.49698522437575,-16.29015060996244,-33.962756433014874,-4.257916472199213,-25.49828590951074,-28.926190356492953
2025-12-12 17:57:03.063057,Right,49.94638250641128,45.72873826756404,49.485378773269986,59.21886965680005,-135.83258802363798,68.51874495348602,47.85964136970688,42.92183911644679
2025-12-12 17:57:03.067073,Right,-0.12433376363333082,-19.085540085181492,-16.57267189058075,-2.5311450169629097,9.641242418437287,3.731712960119694,-13.681945829024698,-15.918707385464586
2025-12-12 17:57:03.070071,Right,-72.48679487427762,-90.97071721568864,-88.8036281120967,-75.31536188539758,133.3294678411139,-69.96751134679198,-85.20412499332451,-84.91229962092439
2025-12-12 17:57:03.074090,Right,-12.376919856929817,-14.904593351817311,-13.733688899226763,-2.8665608373312352,8.589261248915136,2.051133436242708,-13.66845639778876,-14.717684626615664
2025-12-12 17:57:03.078048,Right,89.66882637249364,90.09810808996554,89.65204013047878,101.59531349534245,-126.65281863002383,104.40076429350756,88.45795459148576,86.17363719519744
2025-12-12 17:57:03.082108,Right,56.39376718682115,42.57716140458069,41.173155481837966,55.82060155011641,-16.140619102061464,56.94324189699455,42.56553799712856,43.089275476067996
2025-12-12 17:57:03.086058,Right,-51.30219529410397,-68.72706235461555,-70.43037414607352,-57.25677173044369,134.68429379415556,-54.42265824123115,-68.04832510144661,-64.70095970595503
2025-12-12 17:57:03.091122,Right,-44.29635114863231,-46.73198577183575,-49.274362269350604,-39.9488054795429,42.56637552930988,-34.03583149560791,-48.903579482688656,-47.546981617912024
2025-12-12 17:57:03.095162,Right,51.96044781277942,56.429617216772385,52.50336078354485,62.2792303629376,-122.9948942882611,68.31511529659792,53.42235036585225,51.62773667060537
2025-12-12 17:57:03.098172,Right,53.36368790149845,45.19723982525284,40.585502322692264,54.6684138995015,-54.83390625309221,58.17082100429707,46.27079986791432,46.17297061974568
2025-12-12 17:57:03.102154,Right,-37.97741628330823,-53.17947948963956,-57.77100959314157,-42.173033893292995,118.81799448619404,-39.976110940382114,-49.29218393684823,-45.17016605203571
2025-12-12 17:57:03.106117,Right,-43.515691458242145,-45.5818696193237,-50.93462696839924,-37.446835233171896,73.58347291720293,-34.64809088251104,-44.636015849611795,-40.15275567266144
2025-12-12 17:57:03.110185,Right,50.251523519132206,57.84889621570164,50.65433409932848,64.30933096181707,-106.37190454009851,66.83921981284084,55.67960815850347,57.42083145150718
2025-12-12 17:57:03.114211,Right,62.43679097084146,58.12225972806846,49.65424886474102,66.84559643479088,-86.94597954547953,67.8748817412984,58.47725662301218,59.91207673280769
2025-12-12 17:57:03.119206,Right,-41.37210299289018,-57.96350769618584,-66.18670845662564,-48.12967440851298,91.55198022706372,-47.34614368548955,-53.75400330950106,-50.62327229494986
2025-12-12 17:57:03.122232,Right,-77.44012075221758,-85.21615496174945,-92.8955420975235,-78.57554821121312,90.89157900328246,-76.97533122866707,-82.45172382898636,-80.75752842421662
2025-12-12 17:57:03.125224,Right,18.192233567085736,22.89180393868537,14.813392474068678,26.77482173912631,-91.58745353662198,27.024278151358885,21.562603893609776,19.416821681872534
2025-12-12 17:57:03.130262,Right,70.20297583344143,68.04471076509799,59.194529818159936,73.25009170343401,-117.15577861135353,69.73637888913572,66.40166432142905,64.06988274010928
2025-12-12 17:57:03.134267,Right,-12.522908380674409,-26.433373966089675,-35.5924470196569,-20.198860023171164,61.008428238147644,-26.031111592299112,-26.362634475442064,-24.952178793244457
2025-12-12 17:57:03.138284,Right,-71.76221019495097,-78.21700273133501,-87.75100953432957,-75.3055575745193,109.08129724421906,-80.51365681459038,-80.3918156005684,-77.77792462487923
2025-12-12 17:57:03.142288,Right,2.278423138500557,10.146741480691162,-0.2862728740565217,9.690810959289365,-64.5184451574869,4.646630755136812,3.7434250202622934,3.2396246292000797
2025-12-12 17:57:03.146320,Right,68.18326678081735,70.90243031901582,60.127016190579525,72.15302280941341,-137.4707589974214,64.81332883872665,65.30248004463556,63.242667370968775
2025-12-12 17:57:03.150305,Right,1.751238235116034,-11.125128963013594,-20.761984462900728,-6.55308461376012,25.758581671883803,-15.46817867617483,-11.742171620499903,-11.212172960243151
2025-12-12 17:57:03.153313,Right,-69.95509271487231,-80.63209921905354,-88.79842260128862,-76.9484845397659,121.87722219119587,-84.17336598135307,-79.46676822190784,-77.58348501483943
2025-12-12 17:57:03.158491,Right,-8.19898473982812,-3.4126510664241323,-11.441219679445567,-2.683252453155035,-24.76362848765075,-7.670823415590348,-4.390704584602645,-5.556877725861341
2025-12-12 17:57:03.162286,Right,74.88935352223689,79.90823591892081,71.01368066808755,81.10504575007559,-135.37237553518116,75.98002396909169,79.24882183771479,75.66425245958453
2025-12-12 17:57:03.166343,Right,25.597082596330893,16.141749913391777,6.826238974439548,19.420355578203555,1.0215321866753584,13.866925081247246,18.96241075229409,17.554562873663144
2025-12-12 17:57:03.170312,Right,-62.06305047829619,-72.70667405310962,-81.96971387656413,-71.28774004431972,132.79473635734394,-74.75472463084134,-69.95403746558532,-68.75560446649752
2025-12-12 17:57:03.174382,Right,-20.63270892296123,-16.366090870238736,-26.14359888410945,-18.99940485879688,15.856161029204486,-20.11608901243767,-18.592959097935363,-18.491024490238487
2025-12-12 17:57:03.178378,Right,77.45065278104585,85.22108228430004,74.50447396447998,82.76509457422276,-130.09682057423197,80.55923999098627,80.29326590875826,79.16767418575091
2025-12-12 17:57:03.181398,Right,52.46761783784905,46.166627650729424,35.126203017676744,47.31371472714386,-32.00364671286843,41.99794653504432,43.81532745771665,45.26634832168861
2025-12-12 17:57:03.185410,Right,-50.179971983752694,-61.349832542151034,-72.37484033303554,-60.195913630770974,126.22031993851488,-66.53280691447526,-62.27388159093448,-58.457594913800676
2025-12-12 17:57:03.190457,Right,-44.77797737601577,-42.11636236397044,-54.032166439423236,-45.3777983553382,47.50760192808821,-50.743996712570606,-46.68912725327891,-45.822536065041845
2025-12-12 17:57:03.194412,Right,51.78486536527089,61.07391422267165,47.773667807718084,55.57688067428603,-122.43712598895263,49.90041472334019,53.3754730922351,49.63813271362437
2025-12-12 17:57:03.198460,Right,55.59111472238692,51.27794041826019,38.134380584404425,47.78767258479138,-66.38871090093608,40.55583524465828,45.47857886425845,42.42956570968475
2025-12-12 17:57:03.204417,Right,-40.3375940900396,-53.90290355764,-64.84475797176765,-56.72449969130457,111.93176934480834,-63.67920865144151,-57.706332044521616,-55.96953437941187
2025-12-12 17:57:03.207498,Right,-55.594497395713915,-57.2023019876151,-65.81795369549218,-62.80683693172068,80.97143589711004,-67.82113978485847,-63.845237460520195,-59.73056565757611
2025-12-12 17:57:03.210507,Right,37.92058924326193,47.4829860624086,39.95364883075854,41.253577877153475,-100.21993963839031,36.09653128522905,37.70478823962051,41.37689727125394
2025-12-12 17:57:03.213518,Right,62.437478285884026,62.53995563890203,55.687081219552965,60.451067145472734,-93.05719951779383,52.2246199740614,54.95921596689175,60.251296365578355
2025-12-12 17:57:03.218535,Right,-32.242904967634786,-43.21142769654671,-49.092812414108266,-42.30349266614894,88.00338220497588,-52.80879540603962,-47.165515051897955,-38.573916595783885
2025-12-12 17:57:03.222531,Right,-72.37625684870545,-73.9541123271747,-79.66141632494237,-75.27084721413576,103.23205587352368,-84.92062700949862,-79.07666897067998,-71.00302564247795
2025-12-12 17:57:03.226540,Right,17.137153243920693,29.328874020558032,22.173459681674103,25.37672461729244,-76.817209319413,17.64648058208573,21.240614810179522,25.0223557070276
2025-12-12 17:57:03.230538,Right,74.67947461083713,81.00324090005051,71.96222972463784,78.4284273439871,-115.74843785502617,71.64832641102588,74.46123010468409,76.49399463616282
2025-12-12 17:57:03.233562,Right,5.537130779113795,-0.8848284787745797,-10.9225325351008,-2.1946212652756003,60.541414725378445,-7.847917315230973,-3.990406272020664,0.3552071732569857
2025-12-12 17:57:03.237584,Right,-43.433568896311044,-44.43341236396009,-55.01698020715412,-49.15264454555199,125.33171247882683,-52.7961793466601,-49.17577076759517,-44.077511030434835
2025-12-12 17:57:03.241594,Right,35.39156464217558,47.86276228276711,36.44221489107804,39.129762058080814,-39.27497643309903,36.12498598156026,38.16017841454777,40.45717579500342
2025-12-12 17:57:03.246600,Right,101.6217877909312,109.16213487858658,97.3877174021427,101.43211518934368,-123.25472570284683,96.64322897617149,98.80591336095586,100.14674399479645
2025-12-12 17:57:03.249611,Right,25.25937081966549,16.920670067305764,6.186516758397829,12.12061943927165,31.072520445450436,6.085790220222748,10.081013107519084,14.796673280518007
2025-12-12 17:57:03.253561,Right,-65.32848720978836,-71.6418320523826,-80.92020363927395,-77.77913064398672,134.2234894253903,-82.22273446634563,-77.98347266659675,-71.07870727678801
2025-12-12 17:57:03.257633,Right,-12.861461541117023,-1.8860817747154215,-10.855591800774619,-11.661037631273757,-8.674412541180573,-14.038068309392429,-11.38529106949045,-7.078977474783642
2025-12-12 17:57:03.262624,Right,81.21964357006436,95.32693305692555,85.84962778907811,85.9652065833643,-132.33284890076868,83.1986675908231,86.0133065527234,87.82691605202854
2025-12-12 17:57:03.266590,Right,44.861387107630435,45.49158191746574,36.074582944238045,39.660094176570965,-5.873512435130806,35.4072775920597,40.95211162187388,44.64626964356103
2025-12-12 17:57:03.270668,Right,-49.48558434392362,-51.177823511563474,-60.06484557545309,-56.56295673998375,135.89024788900315,-60.76174181683882,-53.6523229153463,-47.84316963800575
2025-12-12 17:57:03.273680,Right,-26.045368969736955,-13.593783740003346,-22.59817038207848,-21.546743294668886,30.210991945611113,-25.189260329627132,-19.43798981727832,-15.838989728984416
2025-12-12 17:57:03.277711,Right,65.70992825699614,81.62780027447297,72.17656742472604,73.85127533127525,-124.03541321454074,68.8737705551805,73.67871744594049,74.36701011802234
2025-12-12 17:57:03.281685,Right,48.16715346701676,48.49432543344301,39.69162535374244,43.82523627768296,-38.81826646605296,36.667847540648154,43.57572597478702,45.73855028836533
2025-12-12 17:57:03.285670,Right,-48.646550468291025,-56.22249489497335,-63.364658545103794,-60.74053707150233,124.85960282692216,-68.31498019134096,-58.579830580397356,-53.36219395932858
2025-12-12 17:57:03.289722,Right,-42.83290550242418,-38.15100800714026,-44.21132112993928,-46.084941247376264,58.45576945847634,-52.76298306277022,-42.43026412616655,-38.07200112647661
2025-12-12 17:57:03.294722,Right,58.43677249247048,70.87409533582832,64.87891427918748,62.36418068321018,-116.4458922895937,55.669585053569335,65.50999856564795,66.81109645193283
2025-12-12 17:57:03.298758,Right,71.86262297851863,72.05240286015396,66.22617881123296,67.65944665136885,-73.94741342290308,60.38619934319013,70.91679681610276,72.2267333042928
2025-12-12 17:57:03.301768,Right,-20.412720983953477,-30.064379531271697,-35.398452373951415,-31.847615026115818,107.92071501019632,-38.113586028312966,-26.8365026400661,-23.80403678020957
2025-12-12 17:57:03.305778,Right,-39.67781900820228,-38.709273207548904,-44.47883641902963,-42.53832050361325,92.42000763588908,-46.85118199460294,-36.63407578877104,-35.54444864360812
2025-12-12 17:57:03.309767,Right,52.13692068527416,64.00594535320124,56.63071705335,58.61394362049123,-88.18890688718727,54.03992593936664,63.36656047065844,60.130233583979134
2025-12-12 17:57:03.313790,Right,77.67576997758624,80.1282973225625,71.57123210883469,77.03433510948253,-94.52004516480656,69.74068066334848,81.01334071582733,77.4682351514457
2025-12-12 17:57:03.317885,Right,-24.733831256688063,-34.2856633562842,-42.82546842775275,-36.132415241228955,85.03408135341238,-45.079103581815616,-31.18208828763909,-31.048279201251717
2025-12-12 17:57:03.322807,Right,-79.70750442265853,-80.84120039495429,-89.58580700703044,-86.53755385078694,113.29326968836381,-94.52627716347206,-81.26598388540333,-80.15163490634586
2025-12-12 17:57:03.326844,Right,5.5027171743258805,18.01519032165743,7.837824093931545,8.055364001554153,-64.13299343438189,1.1270829256573052,11.520586359166373,9.369295354850692
2025-12-12 17:57:03.329791,Right,70.44662255957883,76.15269012154931,64.70287733474129,66.78619062547114,-116.12507297636353,59.73229697724537,69.24910314535919,65.48066924598061
2025-12-12 17:57:03.333820,Right,-2.309865127190278,-12.166740939474039,-23.162208865403272,-19.27606463199845,55.048109401604734,-25.07773628353607,-14.222528968062761,-15.692797305771819
2025-12-12 17:57:03.337875,Right,-73.36008328180469,-79.7832317077482,-89.27728603512742,-87.9068262822775,129.97620856338972,-89.83638666369097,-78.94450168558615,-79.36002856247433
2025-12-12 17:57:03.341868,Right,-9.181540232772022,-0.32668096837733174,-8.694342585127288,-9.936285546968975,-32.01048087784352,-8.893505891054247,0.2552231428344385,-2.755883689298571
2025-12-12 17:57:03.345874,Right,72.15241410483213,80.15523679941543,72.75191585488119,73.41279904515613,-129.67924263222494,73.46928739658279,82.30744114078698,78.1157805795483
2025-12-12 17:57:03.350916,Right,26.501087210404876,20.89533000580377,15.078681204493932,18.295264672218764,18.767981486467306,15.724692346285792,26.182278830880023,25.112050383109818
2025-12-12 17:57:03.353953,Right,-48.18902365813301,-52.60033279364143,-56.993955005225416,-55.81524106242341,137.35322052375318,-59.20038992461696,-48.55319291334308,-47.225389068058576
2025-12-12 17:57:03.356875,Right,-1.4883190483233193,9.418761152932348,4.992223287154957,2.808351377930194,7.909480771913422,-0.43125421331706093,8.004178199880698,7.105285194640601
2025-12-12 17:57:03.361946,Right,82.10715674278981,94.28640903195083,88.94836202723991,87.95345640753476,-123.78274626425582,83.75736974078973,90.69895843876475,87.16821524739134
2025-12-12 17:57:03.365950,Right,39.87192567389866,36.437713755700315,30.987326838921945,33.2029616971804,-9.112389317588168,28.428462023774046,35.93017087027147,33.80271286989955
2025-12-12 17:57:03.369974,Right,-59.354116481001256,-66.65032292512478,-71.38567940697794,-70.44539787539543,138.06770821996452,-73.2830477139396,-66.02352456897279,-66.08487207490725
2025-12-12 17:57:03.373977,Right,-36.386255416971835,-28.347620820086377,-33.05086663467091,-36.448062022923295,41.98603189895903,-36.62338494011965,-32.11012338335422,-33.91847913887432
2025-12-12 17:57:03.378933,Right,65.120817184099,80.3599751623151,74.8059732462093,70.67733182876054,-118.20370472897912,70.85161597844763,72.76569001120879,68.69773694109062
2025-12-12 17:57:03.381967,Right,56.38429650389662,59.39438574947053,53.72583948164538,52.07279426135756,-42.3791426349012,51.295691940052166,52.84665367869093,51.27429109370678
2025-12-12 17:57:03.385014,Right,-48.021574451368906,-51.54983303748122,-55.95364369111212,-58.4198682173992,129.46372282754828,-58.19012683868914,-57.09972244049095,-54.10675117244682
2025-12-12 17:57:03.390011,Right,-59.112846797284874,-49.68979168626538,-52.89086144411249,-59.66385404844914,77.66610803809044,-57.051073646599434,-58.55322986030842,-54.89576687623776
2025-12-12 17:57:03.394035,Right,35.760777067245726,53.904058279438686,50.80674929355246,42.966078235525856,-100.96152525130265,45.501651122158364,42.043831753622726,43.86110444515725
2025-12-12 17:57:03.398034,Right,55.17050001210191,61.01654428953589,57.76186492666511,53.44036945843618,-74.18407001959577,52.88673441834089,51.1257087263366,54.03753300128301
2025-12-12 17:57:03.402061,Right,-32.25640278524861,-37.613450430117155,-40.54342303731937,-43.12014850165997,105.96785710267977,-46.17349825598285,-44.795233806995384,-39.18334999167746
2025-12-12 17:57:03.406068,Right,-48.995258330296565,-44.05227016607023,-46.81046058505217,-51.603306078258356,101.9844361256637,-54.90594680416416,-52.68611289586079,-48.61716763826189
2025-12-12 17:57:03.410059,Right,54.89118848206999,72.54182068127557,69.53599268297239,64.35245834206034,-77.49203369713496,60.97967992717895,62.56414470230993,61.62634348901338
2025-12-12 17:57:03.413117,Right,101.50819400878208,111.12214294906335,108.48106983460912,107.23348631633053,-93.88157910685277,103.28988115916582,105.71192081188565,102.88936948298397
2025-12-12 17:57:03.417098,Right,12.01473590117348,8.414438923851776,7.052437512343204,8.186008403406959,87.63382237471933,5.419043019969649,9.369018824976592,8.682290723878396
2025-12-12 17:57:03.422135,Right,-47.43875850331369,-44.58933078479822,-45.21936963376629,-46.87029630287361,131.35870575902754,-46.67246024261112,-43.22975794710146,-43.739065102125096
2025-12-12 17:57:03.426118,Right,25.780985613722805,42.28736398334331,41.00358711156514,36.62548940312445,-43.37755260431413,37.86927507809378,39.80810354897403,35.8606702757279
2025-12-12 17:57:03.430125,Right,81.88996873973247,92.87715484004184,90.99118062206617,88.31210648020624,-112.40172214591848,87.0912918999993,89.88446574285808,84.49072574149068
2025-12-12 17:57:03.434081,Right,1.1567353640321016,-3.1337764161744417,-4.100496817913154,-5.011884108671438,48.15134052718713,-8.742250914346187,-3.195780992280561,-5.683269616178222
2025-12-12 17:57:03.437144,Right,-80.56098683979963,-81.68358919056845,-80.96763774289138,-84.62020341781954,132.1291580984739,-87.949785411015,-81.45808965771175,-81.71832724126034
2025-12-12 17:57:03.441162,Right,-23.205079948573257,-7.970579774751968,-6.2351450089399805,-13.061608022157998,-22.75337103753691,-15.123146843910945,-9.959722550753213,-11.353761991056672
2025-12-12 17:57:03.445118,Right,59.2579828378457,75.14470887854804,77.50192146885456,72.30339136548992,-130.50014509101447,69.56350147543435,74.52725942302095,73.31128099536727
2025-12-12 17:57:03.450181,Right,13.406267092016606,14.963705463069346,18.479377105837557,16.23065963895806,8.896934619536978,12.446223117558475,19.028557883277244,22.11599314182422
2025-12-12 17:57:03.454203,Right,-67.88386065457416,-67.85034711040134,-63.274998935584335,-67.0328755842429,135.03360002278578,-69.25615520636893,-62.949575754731995,-56.58500768045269
