timestamp,label,FC3,C3,CP3,Cz,FCz,FC4,C4,CP4
2025-12-12 17:58:07.530206,Right,1621.0059630957676,1955.4348545376724,1946.9536454009237,1940.7273607809993,1077.0657754934275,1785.3076889416968,1793.1665452041316,2025.6124297926197
2025-12-12 17:58:07.547268,Right,8736.932080188271,10539.75292483139,10493.997740861509,10460.383464344253,5785.020152988476,9623.831215340753,9665.370406536415,10917.258904974069
2025-12-12 17:58:07.550260,Right,20053.70923916271,24189.965528044784,24084.58224085875,24007.903046752606,13191.02873458672,22092.558637375532,22184.787434924612,25053.187991316416
2025-12-12 17:58:07.553263,Right,25168.817486483746,30349.20692779495,30215.330732101684,30122.641193484975,16358.034431401633,27729.834490860205,27838.553320064973,31425.236779968764
2025-12-12 17:58:07.558297,Right,17191.34498016313,20703.00441582079,20607.048061949332,20555.004698386547,10927.165397759734,18936.18871586961,18999.266045949444,21429.159946324173
2025-12-12 17:58:07.561284,Right,2135.2221389702026,2527.9875460106123,2506.353406836657,2524.6521707073407,1176.7317173810225,2340.4129840441747,2331.0419712151634,2612.812864636857
2025-12-12 17:58:07.565293,Right,-9341.510361627035,-11298.013309113769,-11261.157970646658,-11194.457253600034,-5980.649345834696,-10299.221192115161,-10358.80256440927,-11691.832897407352
2025-12-12 17:58:07.569320,Right,-12285.0240369268,-14819.457167959306,-14764.603401541593,-14693.94878682273,-7778.5208093786205,-13525.726541101118,-13596.927512797294,-15335.814439786132
2025-12-12 17:58:07.573309,Right,-8735.362016161496,-10534.070999849704,-10494.492534514226,-10445.984341519652,-5677.882955644745,-9609.041518194834,-9664.139252989204,-10908.291580668418
2025-12-12 17:58:07.577345,Right,-3694.784495044092,-4471.118198373355,-4457.587151863729,-4428.503549042973,-2527.312194949918,-4066.9575049772975,-4097.0456559827435,-4634.7764593992615
2025-12-12 17:58:07.581341,Right,-1051.298324321513,-1285.2928879238898,-1287.2479658522643,-1264.5490627136314,-649.3622834118432,-1161.8045251218136,-1175.8074344565393,-1328.1922498331987
2025-12-12 17:58:07.586291,Right,-1686.1918176524923,-2036.3763451291015,-2035.5772813601652,-2011.3650960756931,-956.3453542219941,-1853.112598698528,-1868.9962304778164,-2101.2921270414954
2025-12-12 17:58:07.589367,Right,-3886.0786454311456,-4687.631841639173,-4674.8007264781045,-4645.575197167927,-2552.364092688076,-4270.888340787147,-4298.960184414056,-4853.667967532994
2025-12-12 17:58:07.593371,Right,-5258.955035685911,-6357.806287527899,-6338.088967096759,-6303.262973592849,-3563.42105179833,-5792.332943101064,-5826.047888440429,-6588.024099504808
2025-12-12 17:58:07.597324,Right,-4731.802061393973,-5723.035460951272,-5706.638404329075,-5672.752863340662,-3050.703644496796,-5219.165476150229,-5245.732919391943,-5923.958352634334
2025-12-12 17:58:07.601396,Right,-3181.1826619013445,-3834.9137423448265,-3825.513460043934,-3802.097359062289,-1896.6644879466621,-3503.450545111671,-3520.24127454916,-3963.5991811625427
2025-12-12 17:58:07.605399,Right,-2280.0015094465343,-2742.078905959381,-2735.498139031348,-2721.730882592383,-1476.040755329479,-2503.6249070496997,-2518.463329284219,-2839.332491267356
2025-12-12 17:58:07.609508,Right,-2700.592250287533,-3265.182961806073,-3256.313865024131,-3240.3204044479644,-1931.9878748258343,-2976.125191889587,-2994.388832845725,-3388.26533734682
2025-12-12 17:58:07.614460,Right,-3515.3031465606764,-4254.58862179087,-4242.70828030305,-4218.783746646717,-2317.9186230654013,-3884.671684621135,-3903.8140487492783,-4406.912550310139
2025-12-12 17:58:07.617531,Right,-3455.5733555110637,-4166.371862629196,-4154.502564444207,-4131.509893152281,-2064.151990400511,-3813.0834891679697,-3829.590685551055,-4308.159802069189
2025-12-12 17:58:07.621391,Right,-2526.595585215953,-3037.05780860316,-3028.2014354084386,-3014.225283169537,-1572.0498706036597,-2778.700367885409,-2793.2731761117466,-3145.1526925623184
2025-12-12 17:58:07.625451,Right,-1917.0435608668486,-2318.9901879953686,-2313.13865326182,-2301.5729467255296,-1419.3540314483107,-2111.650684763328,-2125.9492919105105,-2412.0354584546294
2025-12-12 17:58:07.629412,Right,-2308.098339813412,-2804.559902805602,-2798.71648360556,-2779.424105303129,-1609.7984459793079,-2553.668614124763,-2567.3185551624047,-2911.416351106949
2025-12-12 17:58:07.633487,Right,-2922.0514041640563,-3530.5842852991773,-3522.2758022117196,-3498.604485014803,-1756.6572285497678,-3225.8805587312672,-3238.356328330352,-3651.962735108682
2025-12-12 17:58:07.637505,Right,-2674.720928385388,-3214.16590120655,-3205.020270755631,-3187.635709399474,-1611.789714268234,-2939.5551886954345,-2950.9683696585707,-3324.0188802982448
2025-12-12 17:58:07.642607,Right,-1761.3315840021241,-2120.8463328456273,-2114.7172192112776,-2103.679128774442,-1261.5092324471334,-1933.2471488895826,-1942.4133476552088,-2200.187553147669
2025-12-12 17:58:07.645595,Right,-1348.4076547741424,-1639.2546338955872,-1636.3146643016953,-1622.0780526209855,-1012.0467543434352,-1490.3062256593257,-1495.955527052749,-1700.1470018120017
2025-12-12 17:58:07.648593,Right,-1853.7787929875776,-2241.434967186302,-2237.3210795986233,-2217.1155659187352,-1106.3169662414002,-2047.3760243498255,-2051.693528074771,-2312.715689921053
2025-12-12 17:58:07.652595,Right,-2376.4207561778603,-2853.308458593907,-2845.75358319073,-2826.694686965551,-1393.0206480354536,-2609.810063639772,-2616.3386922817444,-2943.827604537364
2025-12-12 17:58:07.657583,Right,-2052.6521929608425,-2465.66767078673,-2458.392023186665,-2444.6718382781837,-1398.9064947403385,-2249.3516348218545,-2256.864763272344,-2551.173833589768
2025-12-12 17:58:07.661583,Right,-1260.1348039471777,-1526.5746800216148,-1523.5562355571892,-1511.8038392537273,-962.536615934805,-1388.0927243891638,-1391.6958832730306,-1581.6706823552959
2025-12-12 17:58:07.665604,Right,-971.437594244373,-1177.3487143368693,-1176.2787159887375,-1164.7811294154963,-582.8552342730109,-1076.3776696213754,-1075.7560017976211,-1212.5488473722944
2025-12-12 17:58:07.669628,Right,-1365.8158605636563,-1637.6742375358008,-1633.31061493163,-1625.5843898562016,-755.3846176788211,-1503.3965430804528,-1504.0742906014202,-1687.2012321568327
2025-12-12 17:58:07.673565,Right,-1707.4350119935116,-2050.248727030237,-2042.4875052721472,-2039.3652634973405,-1168.3120253945817,-1877.4653557352722,-1881.6525564190233,-2123.676892530988
2025-12-12 17:58:07.676622,Right,-1450.2611480478663,-1755.0217540613376,-1748.9250688938191,-1746.0951040401123,-1106.9038462179597,-1605.8644805665826,-1608.309436024516,-1822.986229888862
2025-12-12 17:58:07.680587,Right,-894.705437349854,-1084.0945473551983,-1082.1684495953377,-1078.2431934451452,-564.4570752792642,-1000.4022000661353,-997.2109555674251,-1121.3077855226584
2025-12-12 17:58:07.685656,Right,-657.8069787278073,-780.795727736433,-779.779665318667,-778.4839759884635,-284.38405352801783,-729.2100205983734,-725.0851957031991,-802.7594527890906
2025-12-12 17:58:07.689667,Right,-878.4425724261673,-1043.766848354484,-1040.1514783833409,-1041.7238087928854,-599.935500968073,-963.0390331310919,-964.4672123446362,-1082.2380127180368
2025-12-12 17:58:07.693684,Right,-1147.5210094174836,-1384.1153484726092,-1378.8995860108407,-1377.8972160754493,-925.5777600468136,-1265.3561468378175,-1271.0399184258422,-1439.9742639409378
2025-12-12 17:58:07.697687,Right,-1056.1058186013834,-1277.1434162493097,-1273.064011967741,-1268.3551216094056,-710.1898331746343,-1170.1382866159547,-1174.196562975645,-1321.7342068242142
2025-12-12 17:58:07.701707,Right,-649.8541328178835,-769.3967571302783,-766.47037964419,-764.6638338619377,-275.3008562431787,-712.3415861416142,-713.8335901373066,-788.193926230655
2025-12-12 17:58:07.704713,Right,-350.9898919768748,-401.57332549092826,-397.8848632731242,-402.05730203236453,-225.0348670911044,-371.6444083037786,-374.439238221501,-412.07637130562216
2025-12-12 17:58:07.708796,Right,-454.87119940051343,-543.3735720815603,-538.2693310963223,-542.0082580909366,-496.967493400909,-491.3677164889523,-496.2411650386057,-565.399469583761
2025-12-12 17:58:07.713734,Right,-742.8372474033386,-901.2908641689573,-895.5540939567145,-894.2591611441458,-576.2800558086601,-818.6457145169261,-821.988422010385,-930.0195346274995
2025-12-12 17:58:07.717749,Right,-730.953214317211,-873.5676288306131,-867.8662957987399,-867.4833170631318,-351.5274942504766,-800.7568028609385,-800.9254703374463,-892.1117861890816
2025-12-12 17:58:07.721763,Right,-328.4799663174781,-377.64046238409355,-372.5316566673573,-379.3503008390544,-168.17170177109074,-347.107609079394,-346.2009089810308,-382.14794875041116
2025-12-12 17:58:07.724792,Right,-4.540173077082727,-0.7971896695671603,3.1037436519400217,-6.20896954316413,-184.8709010516759,4.624215714109596,5.735486679186579,-1.4985401701997034
2025-12-12 17:58:07.728775,Right,-135.56802151916781,-172.57120269932784,-169.27285413478967,-173.36836370173842,-219.6447121699457,-153.18461676087463,-150.28664311824832,-178.23626155528473
2025-12-12 17:58:07.732734,Right,-444.10808869136963,-532.9385610782192,-528.4815186915221,-529.8434409920592,-178.30207083385903,-492.0642327220412,-487.842373309948,-544.036643510568
2025-12-12 17:58:07.736726,Right,-403.63993045224925,-467.915099651902,-462.05308289220557,-468.51441047556,-159.02704359786003,-435.34414193267,-432.6305653145537,-480.26302382996073
2025-12-12 17:58:07.740820,Right,-23.139354578626808,-17.240843923587818,-12.062399579881458,-23.327748475887347,-146.70514402893605,-16.3263458434958,-15.032935140305199,-25.560066410747822
2025-12-12 17:58:07.745818,Right,196.4867383215751,231.0405127122358,234.4513705985737,224.97210546364659,-27.82904575453722,212.71687113321968,215.94485014514066,229.18619832172408
2025-12-12 17:58:07.749835,Right,41.841393526497995,50.028665466903476,53.69605925818905,46.55753859283868,99.68458508409094,39.518658475833945,44.99776933560497,49.65419110181392
2025-12-12 17:58:07.752820,Right,-136.7179301046708,-149.0878653266118,-143.32286458957242,-153.46514617095818,37.610630861861864,-146.1684680537146,-142.4329313520575,-155.6715747176786
2025-12-12 17:58:07.756794,Right,-24.78543733699189,-17.66624503568164,-11.5645054498018,-24.798055573104648,-103.04190596182889,-19.39249110748642,-18.73161298490595,-28.451148901338456
2025-12-12 17:58:07.760859,Right,204.12946440372616,243.44170768938784,247.12159665577929,236.33583398300107,-24.267859354804386,222.59700385936594,224.46177509172412,239.97346764993563
2025-12-12 17:58:07.764869,Right,250.68347798640752,304.9413398555407,306.93380117784545,298.5724570320599,221.75210393377347,270.05041361290205,276.3138307862173,312.7174725955847
2025-12-12 17:58:07.768893,Right,162.26499045276796,218.66839910949784,221.93888005942063,209.27614918362087,270.57261545341316,182.66090814987547,190.77049897364122,226.6334255281472
2025-12-12 17:58:07.773850,Right,163.11821030363808,220.7980022458537,225.8131743601134,207.3406302343783,72.44243480635737,187.66697742057113,194.66422447676928,219.8993031743446
2025-12-12 17:58:07.777901,Right,259.32537944121214,317.85174224912043,322.4501891031905,304.95464418726624,0.907381781600634,281.9915747974446,289.78895297350755,315.88653957415954
2025-12-12 17:58:07.780915,Right,310.5800869603845,374.42416869178123,377.883330020195,364.7323712561556,210.58261353931448,330.51516826181614,341.6191611874092,383.7508339171909
2025-12-12 17:58:07.784873,Right,325.4532682681456,407.2337300397194,411.0211846227612,397.13243191014044,373.0103855371126,355.7183763979119,367.8908797317563,425.74293787365605
2025-12-12 17:58:07.788937,Right,396.6799963091471,496.9268909644161,501.3392476682493,483.7522763450834,261.59317132728756,442.11505885796214,452.2765424288955,513.6068497806264
2025-12-12 17:58:07.792956,Right,464.44343179819407,562.0689863145817,565.4789872108668,549.3678734707355,133.9775989899208,508.2125679644523,518.2205824108096,575.6048495905707
2025-12-12 17:58:07.796974,Right,421.3743629917735,503.1026106107165,505.21043650602223,494.07696997319,243.71154631930403,451.28026826595305,464.49544402601896,521.3414680658025
2025-12-12 17:58:07.800975,Right,360.15637868564227,444.3784733771172,447.13927178180893,435.8840127691219,394.89638765629206,391.5005704309442,406.3031896597822,468.80464832263533
2025-12-12 17:58:07.805990,Right,442.78747160054627,552.8591362627049,557.0707842998672,541.313705231034,336.9457750247675,494.85336352846934,507.15979333606083,577.5539311267203
2025-12-12 17:58:07.809056,Right,591.7808195064426,719.5123765484896,723.327520615363,707.6709255285095,232.336958984175,656.4271182967932,666.7439943340723,744.1666566445492
2025-12-12 17:58:07.813010,Right,590.599627789692,710.226008100959,712.5083121867501,702.0090124289272,326.25087267011986,646.5466878296575,658.7048458322533,740.0717840231373
2025-12-12 17:58:07.817029,Right,455.6378480475396,563.155268354516,565.5789509407477,555.9901781480876,464.60133828475955,501.92919359041844,515.9368070439086,595.3729783024173
2025-12-12 17:58:07.821016,Right,423.70256432675524,536.895439695043,540.865798417828,525.7900582501898,387.56051197991474,475.10933782346547,487.2512907696073,561.3379782166448
2025-12-12 17:58:07.826047,Right,565.0614504657569,691.8774396940134,695.9106240214896,677.7744625266641,245.95185108465375,623.2770652053296,632.9457490373752,708.0107380299014
2025-12-12 17:58:07.829053,Right,688.260025956668,820.4847819372662,822.9007337350049,807.7513242553105,341.6432666128676,742.5856418901822,752.9840604602941,839.78090216493
2025-12-12 17:58:07.833064,Right,669.7710973278154,803.0612169769593,805.1669084536843,791.3794138376834,549.0650192014291,720.570775503933,732.1282128510647,830.2021035657963
2025-12-12 17:58:07.837085,Right,614.4374651467078,750.2362164227525,754.3225996367983,736.1885058098123,512.5725367383566,671.1025114606018,680.1462030658149,775.6235027095536
2025-12-12 17:58:07.841090,Right,622.8772519041668,755.1235764526646,760.8896264232462,739.8779059096123,295.43629775446607,682.2400681001018,687.826846602431,772.6040257264394
2025-12-12 17:58:07.846042,Right,643.6091239758534,768.3173733922886,773.9124245780986,756.1955447336077,289.24216479359893,695.3093340147752,701.831295273907,787.2293954988709
2025-12-12 17:58:07.849055,Right,637.228311930201,770.0454109493876,775.4360757861286,760.411732007633,519.7291993659455,687.9690779129742,698.4778763276408,800.1514418815495
2025-12-12 17:58:07.852117,Right,661.2349391225725,817.5298927450785,824.0078327943338,805.6502172347391,596.7765521527035,726.9226004109369,738.9069285946898,852.8736569706816
2025-12-12 17:58:07.857135,Right,706.0908917617053,867.861738783191,874.9661113375332,853.6191843675915,402.21897197392536,780.2013070788234,790.922803584137,896.9492356708506
2025-12-12 17:58:07.861153,Right,668.977674200607,804.8582624045666,810.6377789614489,792.8185776579194,284.41049905936234,728.2916974755935,739.2664226272609,828.5369978754316
2025-12-12 17:58:07.865179,Right,579.5329173443606,697.8181835312862,701.9568817587569,687.9734080106718,434.1378071103245,625.1062871405156,637.510484805447,724.8955876583932
2025-12-12 17:58:07.869153,Right,615.0645910312887,758.114266820834,762.1673659738153,744.7560179155553,576.1509978005197,675.6134838617872,686.0056770673255,789.0666847173125
2025-12-12 17:58:07.874175,Right,780.6554874902358,957.8496913150884,962.3042573813582,939.7405638153432,489.2048520541284,865.4059560277965,870.6235066928202,985.1655212778132
2025-12-12 17:58:07.877134,Right,830.2209097283194,997.7329004438361,1001.4968134950614,981.4266307556536,372.92027827643324,910.6728178467602,913.2587666346226,1019.3280939462129
2025-12-12 17:58:07.880200,Right,664.7020518808858,792.3304825838422,795.3988511875505,781.802791477181,436.5009043047321,720.1420160875423,724.5086575880414,813.495342483162
2025-12-12 17:58:07.885204,Right,545.95900544303,665.4755485109054,669.2223901919788,655.736666554003,529.2321891293395,597.1388899642043,603.4334143964807,689.0741821908159
2025-12-12 17:58:07.889218,Right,686.6873144439887,841.6093030929333,845.8523281581001,827.3921275866451,474.4533731008996,760.4390517583815,766.4785592867993,866.2527980792802
2025-12-12 17:58:07.893244,Right,872.7004428175278,1050.4096571062692,1053.1168131143786,1034.6344805089757,411.34655963775003,957.9933605619008,964.4640319168102,1076.9997493509436
2025-12-12 17:58:07.897192,Right,795.4213100570487,949.5889173644828,950.3805060377344,937.2929539793404,489.15386304899585,863.8677062747302,872.5995891920757,979.9046308062971
2025-12-12 17:58:07.901281,Right,565.8493897680892,688.047003263724,689.1610964551801,677.5552800389705,547.0087273348472,618.3923464142717,627.3727857553167,718.0793017854448
2025-12-12 17:58:07.905272,Right,537.9118100140477,664.4351923008217,667.0965315635549,651.3867505891249,434.2005908098072,599.6487504332326,605.1970680014929,689.1706724364776
2025-12-12 17:58:07.908338,Right,735.0226585313212,888.2950483170571,890.8802482575411,873.9781778774923,346.7929837872507,813.166027272935,816.0892196372151,911.7172853937373
2025-12-12 17:58:07.913298,Right,835.6305631289724,997.3633734883042,998.6690025746357,985.8479975574883,478.1127989725792,912.8422468187055,917.0112762267236,1026.832984817098
2025-12-12 17:58:07.917334,Right,704.6021029864205,850.7004552945727,852.3988640886964,841.0002864984563,613.9231584290974,770.6620130398078,776.1639357191743,882.8301612403011
2025-12-12 17:58:07.921322,Right,569.7003738915082,700.9595271445578,704.7004633592442,689.1502295460086,487.3707372082281,632.6519521696027,636.229283208726,725.6489087665686
2025-12-12 17:58:07.925345,Right,613.5621270446572,744.1400965471985,748.4505603789585,730.8559413265903,290.3101525409729,679.475555138546,681.5792062008986,762.6951937060803
2025-12-12 17:58:07.929321,Right,715.5035253780661,853.6716049697716,856.3460737579735,842.5557622018969,366.4064792452846,781.0745130117284,786.0538078960963,878.9049832276069
2025-12-12 17:58:07.933348,Right,711.5674500642344,858.1908301139483,859.9807127772365,848.5778313543415,589.2574292728677,777.7426938111894,786.1985422563739,893.559893211117
2025-12-12 17:58:07.936359,Right,644.109634786495,792.48419367522,795.499234423507,780.6771231866442,562.170658398245,715.2784749870189,722.5229883398861,825.3218707315391
2025-12-12 17:58:07.940361,Right,615.8678693552501,751.1278365078615,754.8714915099554,738.050991401542,318.11746353964554,685.0024205872323,688.7951449662214,772.7379710205132
2025-12-12 17:58:07.945368,Right,611.7132412892533,728.1972019288223,730.2459825478727,718.4609634816879,268.34701787744416,668.0523211748805,671.9789813874522,747.3943995003356
2025-12-12 17:58:07.949346,Right,600.3180211451836,717.5494131137384,717.4905865038745,710.9988102621865,480.8723851244431,652.070730097359,658.8639620747417,745.2346868333407
2025-12-12 17:58:07.953396,Right,625.5765586842317,764.8494078905787,764.5568943319377,756.5162097085267,573.6050519945566,691.2715362499002,698.3594882277539,796.6575040395837
2025-12-12 17:58:07.956407,Right,673.267965858453,821.0480653649429,821.2680953984382,810.133786224178,395.9549547082279,748.9257255819393,753.9035542558413,846.7042478405638
2025-12-12 17:58:07.960416,Right,632.4732711497927,755.6912286413135,755.3304500899976,747.0302741411142,269.73116013308754,694.0689870875794,699.4755519008031,776.7565710025374
2025-12-12 17:58:07.964413,Right,510.89599491504487,609.7805467915023,608.7006543707103,604.8617690504761,392.0504014691687,554.7842346131802,563.2132481695153,635.4059603841743
2025-12-12 17:58:07.968448,Right,487.57934160286095,598.9634213445242,598.5287830437301,593.0828004587675,506.85577629780164,539.5007194256177,548.3620950552868,629.957021170645
2025-12-12 17:58:07.973436,Right,613.4011449051322,752.1920997269917,752.6565467525506,743.2439670730382,403.69526292028604,686.3566861862782,692.3096446570707,782.1115761708934
2025-12-12 17:58:07.977457,Right,675.9417892938945,809.6085777132539,809.7324931729818,802.3802096368745,286.3527079799096,748.2890137569048,753.1871713170549,838.0077013224363
2025-12-12 17:58:07.981479,Right,538.2239732134622,638.9092353981687,638.6569549188716,636.7143668351928,357.912112713675,590.9168145661242,598.2474016617052,671.0745272814529
2025-12-12 17:58:07.984489,Right,394.04168996494263,482.6285779130412,483.53382792312186,481.4506486894097,443.0578247110825,442.60357543546706,451.08126753312536,518.0020785579691
2025-12-12 17:58:07.988506,Right,458.6094130112324,568.5329262139276,570.7022396534448,564.3088376754895,348.96949942730134,524.7080993036507,530.7246585540706,600.9341775702778
2025-12-12 17:58:07.992570,Right,601.3446708696429,725.3362291904632,726.7643485217122,720.8869457017863,245.88995789043838,674.9833798401523,679.0768133866368,753.8753961301409
2025-12-12 17:58:07.996596,Right,566.3346587502165,673.4803895759396,673.290915150079,672.5063295962755,332.440827175451,623.8410268621519,629.2089814761421,702.2847510069842
2025-12-12 17:58:08.000523,Right,405.83064506133087,493.25382408162113,493.0215321817668,492.7422397827031,436.184052493365,448.84174814319704,454.9885918556247,520.7010890976526
2025-12-12 17:58:08.005570,Right,375.22583969449624,466.2799789843848,466.89965738216415,461.37165233609267,332.3688891529455,422.5305926046567,426.22870470257476,485.96012068609707
2025-12-12 17:58:08.009660,Right,489.9185162113281,591.0615183503833,590.8830108824186,583.4116700692102,185.82066471979488,541.8586269142106,543.7868797160918,604.2516330045182
2025-12-12 17:58:08.012599,Right,522.5791794133838,617.5940941723529,615.3636545209447,612.1531052184291,258.8870540430071,563.5597681917716,567.8928460985189,633.1139529419597
2025-12-12 17:58:08.016607,Right,412.00798858725466,495.59423458226956,492.758961456595,492.2064891254995,411.5872932833736,442.2147236430319,449.35860520019196,515.2045062668622
2025-12-12 17:58:08.020637,Right,344.61227093148045,428.8509042490041,426.7249870246742,424.00015616836026,343.47919433383504,379.7994671200868,385.6391020404408,444.45970713323914
2025-12-12 17:58:08.024582,Right,400.3566986176884,487.11766926723067,483.98510628193617,481.55049595737364,151.7075202690321,442.1929678225424,445.37617726204917,495.73261675587855
2025-12-12 17:58:08.028633,Right,428.85541920596734,506.02466869854834,499.70480918267276,503.24757874244824,165.0048962777364,463.56526594923344,467.4195601211395,515.5928835527739
2025-12-12 17:58:08.032636,Right,352.9314256901853,421.08165256970096,412.62184811756015,419.78191736806184,342.68189308652654,379.82489326864015,385.5555287998868,436.414501511259
2025-12-12 17:58:08.037664,Right,307.44497241731733,381.5917133932235,373.64258118590806,377.0751040043542,346.2813851538813,341.2122380696237,345.17277905647643,395.9270492719952
2025-12-12 17:58:08.040668,Right,365.85445757582784,445.85136813204736,438.8469065541867,438.6275822869502,158.01996280800086,407.52675713354256,407.6875077364966,453.52136808936484
2025-12-12 17:58:08.044613,Right,392.8535754403565,460.1424654208822,452.996734328568,455.78566419763956,108.31913417909527,425.782142984448,425.44291813031305,467.3948070696788
2025-12-12 17:58:08.048688,Right,307.4087594295852,358.4134151856415,351.7506822695723,358.40015047893394,266.2548820830998,327.9938000742113,329.95387481036596,372.6526452989783
2025-12-12 17:58:08.052696,Right,249.73142504750285,304.3664447607007,299.85091797378846,304.2871204079129,321.24764369177865,275.237856670632,277.32730249129236,321.3111512805335
2025-12-12 17:58:08.056700,Right,320.5844623182202,386.98262473288924,384.05155068298336,385.13022753072437,164.99062965682242,357.3133719948819,357.329955836758,398.8087577415863
2025-12-12 17:58:08.060732,Right,378.6144169388572,437.3710811957717,433.7640863462584,437.6194660703186,85.35796353325713,408.72157942596823,409.1255288399989,446.3095085074892
2025-12-12 17:58:08.066707,Right,291.9725380312884,330.1636161877541,325.6481717946008,333.9104431933956,219.54461814201204,304.72537084296346,308.1976815353846,342.8171760493424
2025-12-12 17:58:08.070745,Right,186.42302035947796,220.6181651976658,217.22970855527092,223.25713855260983,297.0508565797354,197.63469835103024,201.8895018605981,234.8969023473328
2025-12-12 17:58:08.073772,Right,222.2591465417063,269.3318679773947,267.69255886715837,268.1850352677284,151.90604973206064,246.64308901852928,248.27842187380884,278.9991157754557
2025-12-12 17:58:08.076766,Right,305.46754613128724,354.84667519130744,353.3723303930601,353.7763054793468,39.00723412790103,332.4562313912902,332.77546238235664,362.38275522575714
2025-12-12 17:58:08.080770,Right,262.27276612224523,298.41530776873697,296.85683392966166,300.48691167263314,156.74519089836394,278.0280931314919,280.06567249342334,310.92322845128365
2025-12-12 17:58:08.084798,Right,151.75316359690623,182.5888765194686,183.25049603090156,184.4363889003871,269.10764181189006,164.73909813677892,167.10145625600126,197.8944673173828
2025-12-12 17:58:08.088806,Right,146.55107446474722,185.84618258301634,190.12890286452603,184.07976479351055,141.9858739345218,169.77736798371188,168.8456244992558,195.36081384622958
2025-12-12 17:58:08.093835,Right,216.07574055570876,256.11403137270827,262.5265399450436,253.6429117625812,-14.952099451213144,241.50192027463345,237.8852020658087,260.1142785359407
2025-12-12 17:58:08.096857,Right,199.25209566159174,226.77308471035212,233.65206764813047,227.13046443881467,69.43096628016792,213.30749441991793,210.45295641070697,233.79624251578934
2025-12-12 17:58:08.099847,Right,112.19238995749038,135.587401529192,143.30199988587992,135.82884272158844,224.25203152105678,121.94600676296977,119.52438438509125,146.36906601279043
2025-12-12 17:58:08.104781,Right,105.81737622077344,138.91937796323327,147.71801763755502,134.5211221149657,147.95622907200595,124.65621144819306,119.25612235197332,144.19101927388692
2025-12-12 17:58:08.108905,Right,166.86501300393138,199.12812255736208,207.11191413877532,192.05275816109497,-37.940629864810035,186.46964248717995,178.36709952179808,195.6615871253889
2025-12-12 17:58:08.112876,Right,142.40092422056478,155.27199530479265,160.7285681736539,150.45427199627738,-14.655192213976989,146.23316600348335,139.24303359223995,151.27178028866183
2025-12-12 17:58:08.116968,Right,43.616716452583205,46.51012015435845,50.41237504425226,43.49078734894283,150.01204435594263,39.46481703571044,33.65896841417998,46.95994202903239
2025-12-12 17:58:08.121879,Right,38.792499822273385,56.01750575652113,59.8886915690382,51.281801385921426,136.0987586135161,48.74296280997805,39.447108128806576,54.74097598204389
2025-12-12 17:58:08.124890,Right,129.75604322145227,157.30016411846736,160.25663509726292,152.56552355794702,-37.538596997066634,152.41837710741675,137.71900637296494,149.25195181422168
2025-12-12 17:58:08.127916,Right,128.07292908866657,138.37408417568076,138.75588015961694,138.63609811564675,-61.264415424870094,141.04023986670654,124.602564888075,128.85117776639527
2025-12-12 17:58:08.132933,Right,2.7701722435303964,-7.815400295774452,-9.233377922384534,-3.330853615247179,85.3510609207442,2.292217367736157,-13.19118020334281,-13.047723605763167
2025-12-12 17:58:08.136937,Right,-44.194376568601,-48.800548526400235,-49.810405361058656,-45.6248498003697,107.65266661878559,-36.901699587877374,-53.72017811832484,-52.762863697775174
2025-12-12 17:58:08.140879,Right,60.13065024401294,72.21801122487523,72.01374989497708,73.72260617569555,-44.14339884533547,83.58039471710799,63.321759877027944,66.02560085558798
2025-12-12 17:58:08.144956,Right,114.22418692836072,119.65837322600419,119.233702801459,125.22508753353031,-88.97326376300771,135.6412257044576,114.18297717702808,115.89554564119317
2025-12-12 17:58:08.147968,Right,-4.143978412845172,-21.604315073229373,-21.80255493655568,-9.990234944911208,44.94404798411415,4.228505281207617,-16.32198072859319,-18.608565939066466
2025-12-12 17:58:08.151956,Right,-114.63383291420178,-137.39226051123114,-135.8686650598538,-124.54372153553413,82.99935948124039,-104.06701309076743,-125.84646903286921,-133.08737846527947
2025-12-12 17:58:08.155990,Right,-49.85532876997604,-58.92831244308036,-56.159004501765594,-47.74634021212114,-69.39319029636681,-24.66393440263346,-49.548346301104175,-59.85717287781881
2025-12-12 17:58:08.160005,Right,52.77840943398769,46.54448553232942,48.54290356882848,59.49002628761809,-137.9787937955698,79.65181513456628,54.60498018018552,44.32342445902759
2025-12-12 17:58:08.165012,Right,1.6111495059740264,-19.49339334500837,-18.34022960148286,-2.3067270951578394,3.046403758591623,16.100239965715446,-5.969865493971156,-16.01375341686071
2025-12-12 17:58:08.169012,Right,-114.9643128933385,-144.67475782101974,-142.50082386983559,-126.58513250481337,81.46337797942397,-103.79858193354448,-125.19786104207742,-138.77992029843153
2025-12-12 17:58:08.173036,Right,-103.35855700835236,-127.07739637204213,-123.91397256404161,-110.84537560798344,-68.34376098710345,-83.20035323762568,-107.56762788665947,-126.75971767431474
2025-12-12 17:58:08.176044,Right,-10.969502130406909,-32.959055382496445,-31.42629423859762,-15.627405688283034,-183.81998443440534,9.465921736817108,-15.948181200568797,-36.22955688161892
2025-12-12 17:58:08.180046,Right,-20.82296885474352,-51.763204987946665,-53.02321143928566,-30.626766382541973,-53.113448667063494,-12.875840500200866,-34.53999505742104,-50.07965512573719
2025-12-12 17:58:08.184035,Right,-116.20096544813714,-149.69360313451034,-151.65958022102132,-128.014891107101,84.18155696100439,-113.31521832590806,-131.02211180113954,-143.77384766147588
2025-12-12 17:58:08.188025,Right,-132.77856126739061,-158.3832019007532,-159.26914570084773,-139.86568073244416,-30.64007276200573,-122.4854947948188,-139.73882044879429,-157.33864672057098
2025-12-12 17:58:08.193078,Right,-71.80458711029496,-97.58881923524314,-98.58338417731284,-80.11545641331759,-197.942325073971,-61.50296902189439,-78.74202021067322,-102.68916586061823
2025-12-12 17:58:08.197097,Right,-80.04489551874576,-117.48797977481445,-120.26572076023149,-98.29397239536047,-122.5755776179576,-83.23144520935602,-97.92224918257853,-120.484683775765
2025-12-12 17:58:08.201047,Right,-157.14422074050526,-196.19919782373472,-200.1346116927598,-178.63254292623606,46.22901797740633,-166.92644857650157,-179.59061819130147,-195.34385633841157
2025-12-12 17:58:08.204120,Right,-161.97635305600124,-187.55359421791218,-191.36883078183746,-175.8693632176728,-9.12088306996884,-163.27465427332208,-177.3257465412171,-191.55535769199196
2025-12-12 17:58:08.208117,Right,-98.12302242041187,-120.35438401356078,-124.47339655445103,-111.45315729813592,-194.08614537326503,-96.4459814250149,-111.81893604319339,-132.57814790811972
2025-12-12 17:58:08.212088,Right,-114.9177804193896,-153.98281152710115,-159.01101055071922,-141.53574106562155,-183.4843760384574,-126.29490796266327,-138.929975622239,-165.51078741096717
2025-12-12 17:58:08.216156,Right,-211.04577074348344,-260.00265456933266,-264.64273275654887,-244.2069618832029,-18.5368032583674,-230.25121287623188,-238.80913789998885,-264.1807777062022
2025-12-12 17:58:08.221156,Right,-216.80618516468894,-251.26454348300376,-254.16640846427117,-237.15731848673022,-16.990045087847875,-224.08843514875844,-231.74839343644453,-253.6495406924887
2025-12-12 17:58:08.225179,Right,-113.76488965610133,-134.79920467980992,-137.04766756674508,-122.65383124293385,-180.0083540939213,-110.13572362099103,-118.33518271271168,-141.58820998378724
2025-12-12 17:58:08.229188,Right,-90.04993343093156,-123.72616889661003,-127.04962332212017,-109.04277831694708,-201.9221594646624,-96.43151914784903,-102.3286909218732,-130.8616701329338
2025-12-12 17:58:08.232205,Right,-201.55271365384397,-254.04663841766887,-257.7560627241328,-236.66770728651318,-48.503683763945446,-221.87667309067547,-224.12361743910878,-256.19292585474614
2025-12-12 17:58:08.236146,Right,-258.9650973313255,-306.4770084469492,-308.82067391135206,-291.68164365967823,-15.325596202012093,-274.01373116201285,-275.67173250950145,-307.6003304041951
2025-12-12 17:58:08.240209,Right,-166.51200525850436,-197.41075324172562,-199.10489354578021,-187.00067137170117,-167.08705362604087,-169.75840042169875,-172.69960711902968,-203.0840947127872
2025-12-12 17:58:08.244222,Right,-100.76773417991353,-134.43107372212398,-137.9189138191141,-124.35937132893014,-218.30004578628723,-110.80877414665883,-112.19742223042704,-141.35597085306654
2025-12-12 17:58:08.250252,Right,-194.04661683409358,-244.4100457312161,-249.93850062249112,-232.99357735112426,-76.1075757697763,-221.2903581467108,-218.95424945413833,-247.5788432729314
2025-12-12 17:58:08.253200,Right,-293.32034214118903,-344.6222880133282,-349.908504199062,-335.54207609687,-17.821226135391043,-321.87842292821733,-318.7259373789566,-348.20904637251806
2025-12-12 17:58:08.257269,Right,-235.74172895564698,-272.9608786039171,-276.6791525131557,-267.4261302015075,-166.0770825274667,-252.48208102735225,-251.76348420679278,-283.21227038273355
2025-12-12 17:58:08.260267,Right,-139.55626590226893,-175.71490996630746,-178.4601073442027,-168.9645964812662,-251.3633390119794,-156.15719601673482,-156.2357759475999,-188.51050189786474
2025-12-12 17:58:08.264283,Right,-184.05937599978643,-235.23074503839598,-236.85276192397578,-224.56468113715528,-116.37958186630567,-212.94792318917462,-211.06977083632955,-242.36103648974677
2025-12-12 17:58:08.268316,Right,-288.921718491707,-345.1249743285589,-344.16836293943925,-334.8147457781306,-18.507891384360846,-319.57223514840007,-317.30433427990647,-348.65074895639555
2025-12-12 17:58:08.272298,Right,-274.3148481435783,-319.3300709921168,-315.96027851846884,-313.0983710454602,-153.96920933490037,-293.58948442243855,-293.4543599850731,-327.3717847847147
2025-12-12 17:58:08.276353,Right,-190.15133048183634,-230.89817418981693,-227.6178055900673,-225.55679534730734,-286.201012127538,-207.07622032842482,-206.77470505383098,-242.45040106549277
2025-12-12 17:58:08.281317,Right,-207.35534167804872,-258.14568280117237,-256.4412239092053,-249.94374887671438,-178.9099329237506,-235.61268596808077,-231.36817842003074,-265.3745159471291
2025-12-12 17:58:08.285351,Right,-292.7533187902882,-346.8350593234063,-345.60646662692307,-338.6331265348417,-34.7948068673868,-324.8092546494445,-318.3804936397064,-350.7091861749068
2025-12-12 17:58:08.288349,Right,-281.1588110944722,-324.7984519903839,-323.39870435753255,-320.780090401764,-122.15718555430067,-303.1280913624214,-299.68801900174003,-334.61720952228643
2025-12-12 17:58:08.292359,Right,-196.5765785224212,-237.76013009288,-237.9640107524756,-235.5552926043165,-280.0779726608889,-214.78773002975504,-215.15788594449987,-254.70093711215304
2025-12-12 17:58:08.296403,Right,-208.63551045872737,-263.42897978125256,-266.49995306658093,-258.1547920436715,-220.05407088267384,-236.45198346721008,-237.1557267412427,-277.9180460511707
2025-12-12 17:58:08.300393,Right,-307.9090755361249,-368.69248238706496,-372.8532661629142,-361.3011860893748,-61.29370906416443,-337.4913256628206,-337.6918297543307,-376.5207136772806
2025-12-12 17:58:08.304345,Right,-316.8352120689815,-363.5878790541901,-366.6625299984007,-358.27692693826975,-104.89179701110697,-330.9868522975885,-333.10416732760496,-371.82080537301954
2025-12-12 17:58:08.308508,Right,-220.41388303929125,-256.7062008858775,-259.31601102201967,-252.68942620028974,-271.4888572881173,-225.06131216685753,-228.23728455160744,-269.53992444695905
2025-12-12 17:58:08.313415,Right,-196.31444617031957,-243.6725664458354,-247.40242622460937,-236.85444224462844,-251.02002302423352,-213.16453616064973,-212.6564012520248,-254.8917455804185
2025-12-12 17:58:08.316495,Right,-284.6250345330045,-344.3070570314885,-348.38111372932326,-335.5280092820176,-81.97467073737062,-315.1202268121997,-309.7049984399928,-349.6092773420387
2025-12-12 17:58:08.320443,Right,-313.92881411808776,-365.5339252462727,-368.03316316305427,-359.6313142715371,-78.28477666591061,-338.8998598520411,-332.9669675594778,-370.9087683171383
2025-12-12 17:58:08.324456,Right,-224.09791742492234,-263.18203376670135,-264.30865972995525,-260.4762383462512,-243.17138110889937,-239.0736739761196,-235.43675297370646,-273.85058357188245
2025-12-12 17:58:08.328410,Right,-184.0448824481573,-229.62412199453684,-230.88388593390118,-225.93777119077276,-266.2369994784531,-206.1096544106258,-202.287318028335,-240.74586846790044
2025-12-12 17:58:08.332479,Right,-280.13626863615355,-339.17437558982056,-340.3091255958425,-334.5550192949013,-106.86642586323433,-315.7947952054092,-309.801524775743,-345.92031609331025
2025-12-12 17:58:08.336496,Right,-351.17255195841426,-406.3583361778874,-406.1792156464653,-406.0546789114014,-70.29600012031733,-385.79794608283555,-380.17013361596037,-414.4325054442743
2025-12-12 17:58:08.339567,Right,-279.2135143200285,-321.9388884852524,-321.52686052263016,-327.3899373068707,-233.42066975060152,-306.4168741112808,-303.10075213579694,-338.34639508026885
2025-12-12 17:58:08.343562,Right,-199.71500173566164,-245.78485587704927,-247.55004817340523,-252.00240506359842,-296.0853953998303,-233.85331609036075,-229.93770939862588,-266.27581614698283
2025-12-12 17:58:08.348513,Right,-245.0443182575982,-303.89380102575524,-307.5396627607988,-307.8270198429236,-139.30805033197976,-292.69161288801115,-285.34317809087224,-320.0857404177077
2025-12-12 17:58:08.352559,Right,-303.98394361237297,-359.9965500216349,-362.5672949589789,-364.3856801080401,-48.88602534410893,-348.641481316532,-340.14430860389257,-373.14743235177593
2025-12-12 17:58:08.356559,Right,-243.38332247943617,-285.03042396815727,-285.2917305638548,-291.20567143987864,-185.19274743305868,-273.73810542176943,-267.1348730418249,-301.5977960713208
2025-12-12 17:58:08.360555,Right,-169.02199098397978,-211.03571828716667,-210.83864856592845,-214.9767781609553,-286.9644779957889,-198.81693671969697,-192.32691552635515,-229.24851432198193
2025-12-12 17:58:08.364571,Right,-229.99530475959182,-286.1128238135716,-286.9006605213508,-285.79521075694356,-160.73546363183414,-272.20629360654857,-262.9907903331914,-299.33013354684226
2025-12-12 17:58:08.368586,Right,-331.82631203212077,-388.5910725663998,-389.6322846672265,-388.916365789657,-41.94757653179113,-374.9922120056581,-365.21921785752056,-399.1920103812008
2025-12-12 17:58:08.371591,Right,-301.81490523717366,-343.1000520818052,-344.05317507579457,-348.3847039521788,-154.70467584815924,-332.28580336627783,-325.95241255837027,-359.8007985018776
2025-12-12 17:58:08.375611,Right,-204.41925467649708,-241.75554327608552,-243.87557869206648,-248.76139641477494,-292.97435539844446,-232.5820420635864,-228.60522381204646,-263.89224135223776
2025-12-12 17:58:08.380612,Right,-219.99514570384054,-271.93984222371364,-275.31374029803555,-275.89298704476096,-204.07572191843065,-261.2287044597324,-255.29876858665375,-289.51878127164673
2025-12-12 17:58:08.384625,Right,-311.8034775148262,-369.8597032582038,-372.22057431715075,-372.36118412495125,-57.570810461300425,-357.34009071456967,-349.12831990479026,-379.83036689826986
2025-12-12 17:58:08.388659,Right,-299.79289207980037,-344.02669380028965,-344.11045935814036,-348.8286635293043,-126.21175785784726,-332.05512772494694,-324.7919356872444,-353.77523111901246
2025-12-12 17:58:08.392651,Right,-202.7690354126389,-238.77622012089705,-238.4402567934594,-244.03916737018153,-278.2657593502663,-227.50575759378262,-221.25329994689673,-251.69358565466246
2025-12-12 17:58:08.395666,Right,-207.33907730603823,-256.3160388386459,-257.35413441917626,-257.9728671616176,-228.67194838650175,-243.02321866503917,-234.55960072012385,-266.59457702125655
2025-12-12 17:58:08.399681,Right,-315.20116485626204,-375.10270862001926,-376.23469402542105,-374.76550045155454,-73.90490707496065,-358.9360380731523,-348.36965321324533,-380.34054894035216
2025-12-12 17:58:08.403677,Right,-328.7154883822659,-377.8255335642607,-377.1670440543676,-380.081853743759,-107.69683924445417,-361.5497731316136,-352.8183557485463,-384.4592396551161
2025-12-12 17:58:08.408720,Right,-211.1833694151719,-247.1375687791151,-245.65137886611046,-251.12063490913715,-266.0243838337774,-232.75686362246051,-226.70626303669997,-258.17370395432226
2025-12-12 17:58:08.412705,Right,-156.80586795753334,-199.49663136177696,-199.28849993698532,-200.63613458781037,-245.19853256596252,-185.52598008845234,-178.44007629377302,-208.35053362493636
2025-12-12 17:58:08.416716,Right,-240.75103272177512,-295.3829421653645,-296.1678249777178,-294.194255319424,-74.02236727357376,-280.22262586758006,-270.670305603242,-298.2752739050775
2025-12-12 17:58:08.420741,Right,-293.01620416593505,-342.214668931847,-342.41576308890944,-343.5695874163648,-65.81107511237497,-327.046287286561,-318.48775974375894,-346.01713723142166
2025-12-12 17:58:08.423751,Right,-218.43589133571368,-256.15311425260734,-256.1925610686303,-260.26796717901016,-234.2253213954391,-242.4433670155704,-236.84864291746635,-266.3734579287702
2025-12-12 17:58:08.427751,Right,-165.5035192509531,-207.9344201948843,-209.28922405967023,-209.99871564493515,-264.8497377554886,-194.78689008043148,-189.0255469821277,-218.73832704784581
2025-12-12 17:58:08.431775,Right,-240.2146340343752,-293.9965880457312,-296.04179489740636,-293.2917021411704,-100.56466612953227,-280.1509541707346,-271.7541931258165,-299.1603476857417
2025-12-12 17:58:08.435800,Right,-306.42090256809024,-355.2084733780357,-356.2448348260368,-356.65997599525144,-49.14191485091578,-341.467078773072,-333.0341651401832,-360.0384675572859
2025-12-12 17:58:08.440783,Right,-241.93099533283385,-276.9948424890172,-277.7283374600229,-282.06210266181733,-209.0265571665368,-264.6159975050832,-258.6782264911453,-288.77811703353655
2025-12-12 17:58:08.444788,Right,-164.96048596227774,-201.69132939138217,-204.49763760203496,-205.47574607405113,-283.09300464671105,-190.2938721893588,-184.37562261451967,-215.97092875587987
2025-12-12 17:58:08.448801,Right,-209.95402882160852,-258.80440972337965,-263.75456695229514,-258.76078823494026,-130.24759243347216,-247.59562790294876,-238.96800672105746,-266.73405665758764
2025-12-12 17:58:08.451794,Right,-278.65141046990175,-325.5336293395376,-330.2055823332048,-325.6415165651706,-28.887490875844378,-314.69645892328117,-306.0101552345441,-328.7929528304958
2025-12-12 17:58:08.455826,Right,-230.42234681075206,-264.06327096925816,-267.5130833989242,-266.9521353979362,-160.69157980574528,-253.3119677726645,-248.32379936095094,-270.4424220736255
2025-12-12 17:58:08.459837,Right,-149.21107673255028,-183.86863169068238,-187.82383522071177,-185.7758112141746,-274.74834342411486,-171.53939103754237,-168.48695551150013,-192.50536689936416
2025-12-12 17:58:08.463797,Right,-182.798326942313,-232.18448764487403,-237.7225336760166,-230.07763355481438,-155.39592459326377,-217.7160977848107,-212.43323315511225,-235.9046404331457
2025-12-12 17:58:08.468877,Right,-257.50934021169087,-307.7495376273873,-313.73935599747347,-305.19279836746864,-20.904589476645924,-293.51516920520226,-286.66277467185864,-307.7195257979329
2025-12-12 17:58:08.472870,Right,-213.00450765510323,-246.3857963483315,-252.25444400607375,-247.21311574795982,-113.39620099129388,-234.76215072220657,-230.22664009715663,-251.3733908656286
2025-12-12 17:58:08.476916,Right,-109.72449907293776,-136.77067640982568,-144.02354798297165,-138.420352576999,-248.8193708990002,-126.52133329422213,-124.4269822872011,-147.98530741687864
2025-12-12 17:58:08.479925,Right,-125.50318839406827,-165.9490967556485,-175.4191119580064,-164.7800698694191,-164.52190153172705,-154.09515875362558,-151.3362941305386,-175.148383288295
2025-12-12 17:58:08.483901,Right,-225.22485834208783,-272.28276829165407,-282.3156371486839,-270.6912304589059,-10.677576745685656,-258.69120801630197,-255.18991025263676,-276.1473035957315
2025-12-12 17:58:08.487915,Right,-221.37445499084424,-254.9187502138666,-264.06981552025536,-256.7741954291123,-67.86469300003955,-241.8087443553377,-240.31198059848975,-259.18567896814784
2025-12-12 17:58:08.491925,Right,-120.42573044879828,-144.68308934819652,-153.9669316065847,-147.66182305314578,-222.63468921679305,-131.93651896656957,-132.1913069532602,-151.70980906218756
2025-12-12 17:58:08.495883,Right,-111.93590636568842,-148.03748823446222,-158.46012139960658,-147.54388398927404,-182.1404741810111,-132.94962405861588,-131.87130338448333,-152.25707760301884
2025-12-12 17:58:08.500960,Right,-216.56494994927198,-263.8001298320596,-273.76899367163423,-261.5368881680188,-22.96058025682578,-246.02074414119124,-243.83440267224796,-263.37330096401274
2025-12-12 17:58:08.504967,Right,-245.93909701233497,-283.1398281636066,-290.77833885210566,-284.29633834649576,-45.53692370504723,-265.8767158645205,-266.4582734516589,-284.7600604099571
2025-12-12 17:58:08.508002,Right,-149.12129167001694,-172.92559497995535,-179.23777049791533,-176.89846435008803,-208.32217596602277,-158.14313057641266,-162.16705907566939,-179.71817608061247
2025-12-12 17:58:08.512001,Right,-102.56293080752948,-131.79427741101244,-138.8830688277958,-133.55573952349368,-203.59964080527425,-117.92012640391476,-121.05013671767665,-137.00477911607595
2025-12-12 17:58:08.516007,Right,-180.08822606375907,-219.6012878479669,-227.13076388719492,-219.24724320013775,-34.85707152445684,-205.49118077976163,-205.18692513398128,-219.01231110066874
2025-12-12 17:58:08.520019,Right,-218.48592378286412,-250.55316353758099,-256.7798993126489,-253.4563510941225,-13.529681554908166,-238.39834361273097,-237.27199663879583,-251.2181459229323
2025-12-12 17:58:08.524031,Right,-125.09365743357921,-143.40204047138104,-148.63174785324372,-150.80592107231496,-177.14887933121645,-135.61447521450464,-135.6374452439486,-151.78094053675886
2025-12-12 17:58:08.528988,Right,-51.46344058768591,-72.97043264354579,-78.97670058958465,-80.31277475843672,-216.2410188865033,-68.67604649852728,-67.37752007890958,-83.42975490220124
2025-12-12 17:58:08.532048,Right,-111.38897021731827,-143.82254243345233,-150.49094210355543,-149.43612723698607,-50.36768548673717,-140.63420717656845,-136.31113201449625,-148.48480494919932
2025-12-12 17:58:08.536049,Right,-171.83261034765746,-198.58706502319546,-204.19691464514472,-206.32317624602,20.509472437464865,-195.80908621801063,-191.59990213811398,-200.67742994782748
2025-12-12 17:58:08.540069,Right,-105.54780704691075,-117.05923580174567,-121.61785145680187,-128.14195666619344,-126.39457334618783,-114.76589493994834,-113.60060669272207,-123.79800006054575
2025-12-12 17:58:08.544111,Right,-30.176006541063543,-42.96207175665768,-48.17296062345849,-52.67497799813282,-209.01488372925087,-39.791285259183496,-39.47573883226141,-51.86598042759579
2025-12-12 17:58:08.548095,Right,-86.96400552615523,-113.96090908668702,-119.78837623586878,-119.69573996140389,-67.1619309001835,-108.8022356320289,-106.37277494138107,-117.95491813879926
2025-12-12 17:58:08.552139,Right,-175.24153763457434,-202.42916720442008,-206.8596119498834,-208.16844653966837,38.88072684945655,-197.02021087118192,-194.22351307381177,-203.55802832654445
2025-12-12 17:58:08.556117,Right,-139.26416007673834,-152.32036797737237,-155.11255157436244,-161.02045127662132,-85.50251343828859,-149.11616378702456,-148.80444761132821,-158.0145713966922
2025-12-12 17:58:08.560066,Right,-56.35090947494609,-67.56805208936566,-71.14450019062497,-75.4523689277703,-205.82678341743303,-66.01291041006334,-66.32032110635191,-76.60850425122771
2025-12-12 17:58:08.564162,Right,-86.86992655601352,-111.86788994952803,-117.51571830851026,-115.17897282313788,-95.43107064149808,-109.69054366333876,-107.1520021141041,-116.73923757742159
2025-12-12 17:58:08.568165,Right,-168.76800059550442,-196.51595557795372,-202.6642151559936,-198.17762638087152,43.38012200573576,-193.68697340833023,-189.72543133364525,-197.94761037523858
2025-12-12 17:58:08.572155,Right,-132.6630883072503,-145.30161229043733,-150.73331218538806,-149.23467288620304,-41.08134094715933,-143.4796858918271,-142.03596730262507,-151.25512546504615
2025-12-12 17:58:08.576180,Right,-23.965136023820378,-29.992215437348932,-35.7639810104738,-33.79832627432188,-180.49863007836393,-28.54983114055358,-28.962295310222544,-39.95231571153272
2025-12-12 17:58:08.580174,Right,-25.3653166522854,-44.236592490575276,-50.87456112151267,-43.86590480792802,-103.68939842560212,-40.295000374899246,-38.58933990332298,-47.97276636661263
2025-12-12 17:58:08.584189,Right,-119.1240907550673,-145.51891735219397,-151.17065620893845,-143.18295649299398,54.754318450111896,-138.30511865054723,-134.58536216022912,-139.8127238554298
2025-12-12 17:58:08.588185,Right,-119.2869650819921,-133.34957400133135,-136.75002010166645,-133.94181093299994,6.021686251042411,-125.31744173716288,-123.64445202826755,-126.98632884770632
2025-12-12 17:58:08.591214,Right,-17.030893392220605,-21.41701128828572,-24.357761399121955,-24.110352968564257,-152.35424696977134,-14.445759423426352,-15.443158309964929,-19.997940234607086
2025-12-12 17:58:08.596227,Right,3.523108315275749,-11.125252480444033,-15.762491690402385,-11.746262534928974,-118.513501129637,-4.79255143343471,-4.6091266484581865,-9.658318146422971
2025-12-12 17:58:08.600216,Right,-90.91495522877085,-115.35035742190666,-120.96781696652761,-114.88468392164214,49.44333898150944,-109.71270403370727,-107.16540617018472,-110.78327660262585
2025-12-12 17:58:08.604249,Right,-120.33102274863631,-133.86078832420753,-138.59301592240809,-136.91858939564554,42.368238290946465,-130.66384337929776,-129.22951597021893,-132.54317307518795
2025-12-12 17:58:08.608260,Right,-26.55883398820879,-26.04565151204588,-30.13809528411366,-32.06943954224698,-121.31339475011919,-25.81324362521991,-26.853805730410386,-31.881210885941982
2025-12-12 17:58:08.612273,Right,18.92855371834594,13.886283015657682,9.085558265040163,10.02059679228114,-129.48881264450029,13.058152339188382,13.136854966112878,7.7698477348312736
2025-12-12 17:58:08.617337,Right,-64.79772061103722,-81.16914849414025,-86.14544415444834,-82.41705896932399,39.92013634639443,-82.01134243607521,-78.6602656856412,-81.50514739891514
2025-12-12 17:58:08.620283,Right,-117.47522540239152,-127.21849959430983,-130.7753249152447,-130.8539011980174,76.44309346066439,-129.4945909055241,-126.05143144988688,-126.88979194755666
2025-12-12 17:58:08.623262,Right,-36.97907775209751,-33.08273676678073,-35.59474195801886,-40.31703231064603,-83.7512459840218,-37.26608550970559,-36.46959711550153,-38.172941656957846
2025-12-12 17:58:08.628317,Right,30.923020876885857,30.82641969237011,27.733755072578788,24.885805524303578,-138.21027156998753,27.260573128965916,27.997378649102757,25.255732427875046
2025-12-12 17:58:08.632331,Right,-33.61158107611118,-46.73870788051863,-49.92633285501506,-49.08280731004197,18.118506042199442,-47.67460658989148,-44.020192763302475,-45.39040251210099
2025-12-12 17:58:08.636348,Right,-99.07838053134037,-107.83164993539685,-109.02560330281267,-110.35099970191368,97.91399440346868,-107.59683918877272,-103.21879785496276,-103.14713932489394
2025-12-12 17:58:08.640359,Right,-28.024256344535388,-20.18838243134087,-19.611128952004947,-24.94786306511378,-41.55802231494454,-20.87683681436465,-19.09811458326294,-20.307463648059638
2025-12-12 17:58:08.643357,Right,63.94362675512093,72.59126593775,72.18921856282395,69.2383996854478,-132.97844704426825,71.54125902053784,72.21370881592156,69.17440424396773
2025-12-12 17:58:08.647359,Right,20.620289824379142,14.864648662827676,12.354909987945575,14.952781002502888,0.07141698386112694,14.505497660138644,17.204217931750463,15.203134430514183
2025-12-12 17:58:08.651379,Right,-65.39064168607001,-72.92211085083545,-75.67020551822498,-73.4391977172636,113.08100312305032,-74.21919154343777,-70.70053362555336,-70.00834870195831
2025-12-12 17:58:08.656371,Right,-25.162320300529245,-18.32556564162951,-19.906704834342236,-22.167707060929388,-1.4557236422406277,-22.677080164517974,-21.195102917932672,-19.380696794425603
2025-12-12 17:58:08.660436,Right,73.87165861224639,84.26035056379624,82.885797071649,81.34913683641935,-124.79089181180461,78.28868538083043,79.30460644204868,81.07717094093096
2025-12-12 17:58:08.664428,Right,56.79660813722876,52.956678217306035,51.11809089803137,55.16164499154547,-20.063514277571812,48.959443400934106,53.08382269600406,55.89178497926332
2025-12-12 17:58:08.668421,Right,-31.606676754978253,-41.48445804134826,-42.40881656043348,-37.23052277270472,124.63097977430152,-42.56988504520268,-36.36219227415859,-32.47421664916328
2025-12-12 17:58:08.671437,Right,-14.01864538132213,-11.124958661122946,-10.230852736160159,-9.569297707232181,46.839529432792915,-11.509978048299672,-7.202856577641796,-4.5934503447206225
2025-12-12 17:58:08.675476,Right,83.59699963597814,94.22613050349173,95.43886846583337,94.42541611613706,-100.78387950046454,92.89594619011041,95.25967029709136,95.95889422419714
2025-12-12 17:58:08.679473,Right,78.5880107365956,78.63692123192595,78.75037202445674,80.83266543183709,-36.81478891133156,76.43380580435041,80.06245664399466,82.03286020521773
2025-12-12 17:58:08.683502,Right,-26.161072884802707,-33.32367284479551,-33.20488420772017,-31.305816888896516,122.20731433485344,-36.832064500893466,-32.423217005387414,-26.88341888433206
2025-12-12 17:58:08.688544,Right,-43.9309335113212,-39.6173518403084,-37.93820519023575,-41.83700861723628,79.92510491884605,-45.43688372991164,-44.47849022629089,-37.44835780412541
2025-12-12 17:58:08.692559,Right,52.57297995701083,67.07887188883615,69.63694161563762,62.8263145366509,-83.99379404744832,59.97649225269561,56.795360618882114,62.97180868923897
2025-12-12 17:58:08.695554,Right,85.35790250092396,91.38450830816873,93.59863056396716,90.586651682097,-59.99288287392119,85.6002250527963,82.47580345958704,89.4248864366964
2025-12-12 17:58:08.699541,Right,5.101856556881103,2.4336782223545015,5.3151421756483614,4.496414668188663,114.42267428660125,-1.8063400257960893,-2.864934924422414,7.027856844622875
2025-12-12 17:58:08.703564,Right,-21.157095777773065,-12.951493724423926,-7.745845651021227,-13.603222295438172,123.63052471427363,-18.359852951209177,-20.26853140250023,-9.423721025028499
2025-12-12 17:58:08.707571,Right,71.67978417377162,93.60634889290668,100.23648114062962,89.22433094162261,-39.129906802139885,85.74675003021548,81.0544870110316,89.59478963725269
2025-12-12 17:58:08.711576,Right,122.6454956063244,138.32779229508014,144.2002898490755,134.59893907529477,-60.95282137637696,130.32798262231518,124.9008789222571,132.15088444809953
2025-12-12 17:58:08.716621,Right,45.86648496436828,48.88117009308189,54.2434963042615,46.90632788510993,106.18602780453512,43.142845326510724,37.808198621700285,47.37602184903517
2025-12-12 17:58:08.720587,Right,-8.682130931018037,0.1438986001885496,7.069114213736611,-4.046464814455248,156.44576329173287,-3.990154477854958,-12.360984321712749,-0.08871115850342903
2025-12-12 17:58:08.723589,Right,63.981900521335774,87.04338287754217,95.58583056001225,79.70505137876899,1.3517586805901374,82.92642178515962,70.07322055204713,82.40967019430536
2025-12-12 17:58:08.727613,Right,128.01367225706053,147.43451157264644,155.550628328303,141.38721665514458,-66.01505563410319,143.74354230701283,130.18398421406164,141.99545076629147
2025-12-12 17:58:08.731635,Right,64.2433283860446,68.79754739219788,75.95757383266755,65.72530752449529,81.10626606130973,66.34371926361928,55.35125245527888,68.39239957122481
2025-12-12 17:58:08.735560,Right,-1.4311954773511388,4.603128907299833,12.327738190171658,0.2244664889149135,167.9987415045689,2.190207775660383,-8.440321176414727,5.294056286496925
2025-12-12 17:58:08.739633,Right,69.29711223988124,90.48305822341354,99.13884201836481,82.75670568439818,34.284289130526304,86.96932869070588,73.82128222975007,85.12762239079166
2025-12-12 17:58:08.743645,Right,163.44500797974615,185.45592567049607,193.62633423010993,179.10868377335282,-65.38339754476328,182.55078182385478,169.21737623825902,177.43305966969638
2025-12-12 17:58:08.748610,Right,116.7816966378814,123.93780480381974,131.47494027920766,122.64898990121583,61.294867827506096,123.98237662263273,114.31243770275614,122.30565526805003
2025-12-12 17:58:08.751656,Right,12.219632981366885,16.477115277055418,25.197717584349448,16.844334062705457,182.1706242600667,18.601342521105835,11.648078028083546,20.776692707760958
2025-12-12 17:58:08.755606,Right,25.249443881541083,43.814721017944976,54.20141395707469,41.85694363597577,72.71321345321121,45.01153720347793,37.73912689816643,45.77981785385782
2025-12-12 17:58:08.759686,Right,104.76702060614844,128.42434188653715,138.36039398307184,126.29821585668105,-64.19480326421944,127.47979522454261,121.25423329028854,126.83584658919426
2025-12-12 17:58:08.763706,Right,80.46753189473748,91.51713837091665,99.61801199951879,92.20231695209077,24.141928046314206,89.03240952104534,87.66450037336836,92.97007762682188
2025-12-12 17:58:08.767734,Right,-9.363385135169665,-3.6101741375496204,3.9943539559717465,-3.245965638652706,169.71615761524208,-8.267413008739823,-5.495343630773277,1.4867111322964774
2025-12-12 17:58:08.771733,Right,14.441999367511016,33.39970983267267,41.68888887924186,29.068911375492462,99.17622490683289,25.142257516296013,27.654534558689193,34.94531154677679
2025-12-12 17:58:08.775745,Right,133.01871533958183,159.6418197619496,167.4096384854456,152.8706219883552,-54.522531418765084,148.94488895249287,150.41671531677093,156.5175945149349
2025-12-12 17:58:08.779692,Right,153.19840218943546,167.51471846306595,173.72394696510673,163.2962408666208,-1.3760231568539893,157.46592655790437,161.35875832275997,167.77661604513196
2025-12-12 17:58:08.783776,Right,55.84044283736148,60.480949360554405,66.5697067071269,57.889951492610635,160.93920130954302,51.503639861479314,58.724582111573,66.95886883779713
2025-12-12 17:58:08.787775,Right,25.7865477923624,41.46242993504529,48.765621553922756,36.1016141318737,127.02085601583894,30.67356979575561,38.05221382770827,46.199967474127334
2025-12-12 17:58:08.791782,Right,109.96891165913621,137.59943682382072,144.48949022868305,130.4161602442,-45.232165250721664,123.43216029608084,129.95224588271503,135.6761960808867
2025-12-12 17:58:08.795797,Right,138.61882085291654,158.39646355373043,162.58255428140728,154.4606849720949,-40.14789075527369,142.6157377164127,151.4324986444335,156.07052661016587
2025-12-12 17:58:08.799832,Right,50.022887436207384,58.72777386429152,60.8117235378686,58.29705030432888,127.52686101100335,42.96931298816344,55.32061488115869,61.41204942597142
2025-12-12 17:58:08.805826,Right,7.51952621791861,24.283983783701842,26.393249114516948,22.723199466352526,139.4113656534464,7.923147047204111,20.461641618967406,27.124899953312706
2025-12-12 17:58:08.808858,Right,90.96401099833383,121.03042236874535,123.33028195020597,117.57741421385435,-32.92269734644651,104.01100722437695,114.72033875639681,119.5809808981976
2025-12-12 17:58:08.811871,Right,143.97338817450145,168.58724875801272,169.93113067941886,167.4400682167543,-74.70694749925678,153.27112550004676,164.6899687776604,168.83483474674722
2025-12-12 17:58:08.815860,Right,66.86184721229802,78.34109347418416,79.25749417730185,80.06231479332928,85.75113255573888,66.26662294601556,79.68033634795574,86.20199877030973
2025-12-12 17:58:08.820901,Right,7.060715500520018,23.20606692424917,25.235649598667806,22.948972632228106,145.77529980602412,12.55938929443073,24.116889152952353,32.790892546545365
2025-12-12 17:58:08.823921,Right,86.02940939555265,116.48290205784724,119.0364586164942,112.82889612663712,-4.42396070441464,105.32866339360044,111.79136430332437,119.72188015801657
2025-12-12 17:58:08.827896,Right,170.2155427694379,197.59236765953392,198.47740072922898,195.4854163284108,-76.97437029354478,187.27069321663294,191.21180573870515,198.11406209567212
2025-12-12 17:58:08.831883,Right,115.94224553003733,127.52605324878095,126.66722301361733,129.5129871685931,73.97396616296464,120.13048563912162,125.27411495574779,133.61035966654163
2025-12-12 17:58:08.835900,Right,33.33617467476142,44.59474532154127,44.26896884460439,46.36545134444168,177.78559991228394,39.338521972582384,44.58310043052188,54.501238333243236
2025-12-12 17:58:08.838928,Right,78.4607199417078,104.45950820113649,105.47831462424074,102.75815242472163,51.58680204502889,99.59692104665737,102.17047090306005,110.70920459681656
2025-12-12 17:58:08.843929,Right,163.85967789688584,191.69040065825538,192.44049464937416,190.07438661194465,-58.829519430531946,188.22193540299486,189.43073458617437,195.47258468578366
2025-12-12 17:58:08.847940,Right,126.26538687655557,139.517109448876,139.45938158330682,141.75568418228067,61.2207181040867,139.66535753224161,142.35344528682617,148.1869303026906
2025-12-12 17:58:08.851965,Right,34.00850118388189,43.31926769117126,44.194152333177044,46.8445997472445,193.4901173686594,46.47154491627589,49.15561185957631,55.79170534844161
2025-12-12 17:58:08.855966,Right,58.66129518917296,81.56064514387981,83.92102613132738,82.786057278121,94.2501086659031,85.13484468824754,84.16440614608291,89.17373276900616
2025-12-12 17:58:08.859915,Right,152.00424029189162,180.12296800264448,181.73189545277273,181.19739656700403,-49.75432802555588,183.77700375595305,179.87940635955601,181.75879940745654
2025-12-12 17:58:08.865016,Right,134.7077696317865,149.8906524625345,149.17411554171122,154.00408906271332,30.495517242241476,155.2857687270298,152.4010871067003,153.2895004345046
2025-12-12 17:58:08.867998,Right,33.65999629924772,42.777456840791274,41.14209050867066,47.01685941587493,183.8726470102265,49.436859469802584,47.82567027036566,49.630571742527536
2025-12-12 17:58:08.872001,Right,35.462160968687385,58.25895099052286,57.18691841387772,57.94065069280623,121.6150480430806,63.41521755422582,59.54767052695388,60.880589924854576
2025-12-12 17:58:08.876024,Right,138.16749848613108,170.26192483131308,168.73255509120645,167.14834154292475,-42.60724144837877,173.1886493072525,166.36753867240623,166.06420779935434
2025-12-12 17:58:08.880033,Right,150.8396789434628,171.03952414695232,168.03881312531303,170.29614146602398,-4.623067557666218,173.9892393971677,167.42973135549983,167.99719089170685
2025-12-12 17:58:08.884040,Right,45.87767246302974,54.75823561947618,52.03883923809917,56.1741482977086,161.26674982182158,58.740160990681034,53.50827390377526,57.727690784377046
2025-12-12 17:58:08.887042,Right,11.084751410744502,29.424600227182964,29.216249748918926,28.810148074669996,139.66740586613014,32.35991090693278,25.95531668928743,32.502909674469265
2025-12-12 17:58:08.891067,Right,104.51858082623221,134.70340231983573,136.46023275348125,132.36242791224504,-37.057255878084106,135.07122713860008,127.3039413637307,133.2664706846699
2025-12-12 17:58:08.895058,Right,152.295523810928,174.3981522803806,176.4265203414834,174.72455615433864,-48.02087130154541,173.70374466790236,168.27297339370125,173.900314453771
2025-12-12 17:58:08.899068,Right,75.14281985721027,84.36067732627271,87.13908161444124,87.54063570259314,118.08386282755237,84.35876166363596,82.48311118059792,89.69765221289708
2025-12-12 17:58:08.903103,Right,31.67700461084314,46.83572799322428,51.77355964612798,48.43176899071841,142.42379608709598,47.03525550484483,44.84233820383088,52.74912005737133
2025-12-12 17:58:08.908116,Right,114.2586246796709,141.71367905336956,147.71725746203447,141.03220954464632,-27.871942204408697,141.52411727627623,136.4912385092466,142.45332217578834
2025-12-12 17:58:08.912111,Right,171.93529412336648,192.85552966370597,197.330971420859,194.40190179376805,-80.11771576025058,193.6798551655811,188.6391914103151,192.90158225494088
2025-12-12 17:58:08.915106,Right,93.99139024956094,99.19026374648092,101.91059343377128,104.3946788636531,80.18052292054927,102.226751971888,99.57653592166025,104.72524128475925
2025-12-12 17:58:08.919124,Right,21.57226463840925,28.73401783494046,31.591404271341162,33.496635648436495,152.60551593702985,33.01657727104612,29.669349463103572,35.79871424402518
2025-12-12 17:58:08.923163,Right,87.590885976766,108.31655795466213,111.4547395502741,111.08642409452295,3.1371329562098254,113.25345214482513,105.60313341552683,110.05455438625359
2025-12-12 17:58:08.927164,Right,168.20168101167656,186.17748472811945,187.56402697552403,191.37853898340836,-85.07014064685791,193.89192331321829,183.7756572423241,185.7752269943885
2025-12-12 17:58:08.932183,Right,111.16518042633834,112.24716644687578,111.39366138329206,122.41795807112067,59.45066007820424,124.84889101449517,115.6929535230156,117.25862022813817
2025-12-12 17:58:08.936183,Right,18.614457342482638,16.934319987602066,15.869903493789025,28.09532052068971,175.97081830145908,33.189304391577025,23.567702122047194,25.388502484958735
2025-12-12 17:58:08.940202,Right,57.720328356852406,69.34269729870721,69.07212663427345,78.20629875463783,58.242853448115056,86.67820578048122,72.97743119238294,73.44798791603534
2025-12-12 17:58:08.943146,Right,150.2372906380333,163.40807904182293,162.5141139528423,173.02772580456804,-61.269718595183804,181.8681863489328,164.52748361202248,163.86202980689995
2025-12-12 17:58:08.947216,Right,118.71264351664286,115.90585014176031,113.93686762580182,129.39827128330944,52.54091534312465,137.3271908442257,118.87716314286808,120.34921619891247
2025-12-12 17:58:08.951211,Right,17.4407968174055,7.8743232361157425,6.984791251103161,22.191891214723,196.63563748990418,32.0255670392944,11.371996159141418,16.82197600933432
2025-12-12 17:58:08.955238,Right,32.31525270227576,34.20343588605465,35.64354392916721,45.7619565903442,108.74942843118333,58.74613932290231,33.30190054496052,40.72066966989951
2025-12-12 17:58:08.959289,Right,137.01126162029686,142.91069338290254,144.79849385093257,154.59143041618518,-41.73669589104247,166.87055717394105,138.7309712703427,146.33577076946676
2025-12-12 17:58:08.964207,Right,144.4960525508941,134.9305200848612,135.50781606933742,151.1998253953061,31.43263862472668,159.0581704970682,133.1518707187788,142.5915448704618
2025-12-12 17:58:08.968304,Right,54.12861318522482,34.36429069736914,34.81139666205854,53.30094246438239,197.99368735322787,58.05534086021362,34.78612740132667,47.549801484972704
2025-12-12 17:58:08.971272,Right,46.29530916768999,37.58650787836814,39.400062420623726,54.470275626226794,154.3775007838558,58.93697561393492,34.31664042219927,48.08842751974589
2025-12-12 17:58:08.978315,Right,139.2999076150154,140.88463533071626,142.7912115471554,156.58231460864772,-11.185703841401846,160.29660684085684,133.38024534574652,145.34497587772785
2025-12-12 17:58:08.981321,Right,154.94131802408083,147.42097620754794,147.48175331416132,166.0061782685225,14.40582947486837,167.7116302178183,142.03219588169304,153.2201500319352
2025-12-12 17:58:08.984327,Right,55.93004273547558,38.913593278834014,37.81361277164251,59.247553941910155,184.2596469484124,60.924941377481446,37.78564529209689,50.705700450751465
2025-12-12 17:58:08.987341,Right,18.779054128710413,11.922005725718918,11.317692062511924,29.258674387529027,180.87418233694916,33.098067202896345,9.478197786316741,23.708856357989134
2025-12-12 17:58:08.991342,Right,104.2727008258953,109.95969913766021,109.10612647139351,124.67693114775466,10.377101925958414,128.28408175124787,103.13884598236473,116.89364210134954
2025-12-12 17:58:08.996371,Right,143.64778327103704,141.66944492478797,138.69217820667836,158.5421005464159,-9.443547467657481,157.84866987084388,134.84015433296736,148.9809772579756
2025-12-12 17:58:08.999366,Right,55.188586041214876,40.050972393597476,35.33153054793365,59.077008938998915,156.52265094112954,54.504346539091785,35.922812805263675,52.35418782697525
2025-12-12 17:58:09.003359,Right,-0.4790064251428703,-9.090787425782764,-13.890187549826805,6.783890175662236,195.6748619461141,2.139678455918329,-14.912913277075859,2.254232994397171
2025-12-12 17:58:09.007386,Right,81.13749237722368,87.58458043672726,82.21034408101696,99.0934036836552,32.747351042198716,95.5777024536219,77.36638955629314,91.43885448525543
2025-12-12 17:58:09.011394,Right,152.12758483369544,155.30117991784937,147.55721840930346,167.52870554162655,-29.378374337218702,163.22002920438536,146.1590420681896,156.56383740718593
2025-12-12 17:58:09.015359,Right,85.75588713253092,74.50429462714237,65.17657697598042,89.9324996805517,124.0047499529901,84.4784111170593,71.50678104706458,81.59438754987787
2025-12-12 17:58:09.019422,Right,11.407302431311109,2.0503836561838398,-5.937744016235229,16.82272973601357,205.16674840825726,11.954529379116138,1.3434171705011977,13.251716408442007
2025-12-12 17:58:09.024467,Right,73.10263461443537,78.52430757561524,72.49469772566226,90.27724380535074,62.27392689764383,85.41802684099821,74.09376763959881,86.75868962801178
2025-12-12 17:58:09.027450,Right,160.5681762445165,166.18068112814217,159.74007625642116,178.5292220414849,-36.5095766656741,170.59752522791678,159.41549456452776,172.2966939730395
2025-12-12 17:58:09.032469,Right,112.99340742238564,104.26544214937894,96.14637063817645,119.72733765144949,95.19609481137013,108.50224578926282,99.41239251062507,113.80496782257978
2025-12-12 17:58:09.035426,Right,15.133159155695466,4.902796205919003,-3.540038826671662,19.91066049685469,212.13006879913155,9.180795421125367,-0.02150389351299964,15.238533059935435
2025-12-12 17:58:09.039545,Right,35.99342737096595,40.459288926955196,32.47629137520562,52.077862787031336,94.16984755502199,43.85821910513914,31.164604885168956,43.877937090263
2025-12-12 17:58:09.043552,Right,116.19112741728895,124.56371250498341,115.68506909103598,136.1889469769376,-42.642693986344966,128.17524080285511,113.59046945947921,122.31976509679225
2025-12-12 17:58:09.047547,Right,87.17466762188997,81.71974516879709,71.17030574700038,96.63605396852654,51.38515392062254,87.3877969920286,75.12503398800618,82.27747010276653
2025-12-12 17:58:09.051545,Right,-7.426675924289157,-18.479174606327433,-29.346528366600978,-3.8085524819907732,194.78971102229843,-11.612545650728862,-21.736112891230732,-14.458625853658305
2025-12-12 17:58:09.055558,Right,6.866714967065491,8.802762202176382,-1.5198957473039627,18.76299907534849,115.47853875708824,14.544102541767643,2.9518223412014777,8.637757961158059
2025-12-12 17:58:09.058572,Right,104.35606228972028,113.49353535189584,102.29416545855929,121.2556940108334,-40.37531069878605,118.2698564913153,105.05995619573514,107.89937289489899
2025-12-12 17:58:09.063559,Right,101.94832727503672,99.25828873265709,86.15169474897266,109.65870284791163,17.666724856666406,104.96605916370754,93.44231561022752,95.75707549059007
2025-12-12 17:58:09.067568,Right,1.2800034933316056,-9.46159894806624,-22.75813259302231,1.9883504875324434,180.18352895214048,-3.461712160613388,-13.106701786266058,-8.911925078908098
2025-12-12 17:58:09.071594,Right,-10.32934631711396,-9.318316670454806,-20.959839020171785,-1.8663518029934494,141.55648121934792,-6.237358566882904,-17.437035714116064,-12.64078841675655
2025-12-12 17:58:09.075608,Right,91.86144457614864,103.12382465401606,92.03975218541746,107.05420795857208,-29.048640444729244,102.03891649615252,88.84269651895738,92.11557235621149
2025-12-12 17:58:09.078624,Right,121.24065942387097,121.89063642808469,109.5486330302374,126.8860115086427,-16.701076082899817,118.84236265918298,107.4167820635339,110.31502977169293
2025-12-12 17:58:09.082618,Right,24.9767217226472,13.061688471207162,0.5638451717240969,19.067183842271334,151.41802913331776,9.918658010137733,1.5617077366478043,6.4078522981581045
2025-12-12 17:58:09.086576,Right,-19.489015859988285,-23.28355539412587,-33.40384335120325,-20.507278351287823,157.45464162694407,-27.279790683329338,-35.8805850786448,-29.567541122291004
2025-12-12 17:58:09.091644,Right,63.43567584732955,73.3717897200695,65.79085350477544,73.0566459435504,-13.338863185694208,67.68209041864611,57.45916175808816,63.626112146972446
2025-12-12 17:58:09.095652,Right,107.79384053396643,112.92222923881491,106.33120383477944,114.09254684692132,-45.882379392001894,106.33005766967835,98.20682804859825,105.2505058326642
2025-12-12 17:58:09.099608,Right,18.36633510761021,11.8119940005854,6.3902501750708325,14.628477994017885,115.30581269113463,4.327641002717428,0.9289992112026084,10.836420994761284
2025-12-12 17:58:09.103659,Right,-50.06104599685932,-50.23558778956067,-53.03656700871943,-50.95910517471202,162.07318780754576,-60.59454226001981,-61.99929397807864,-50.49851984983252
2025-12-12 17:58:09.106693,Right,20.04002981011581,35.29093333684432,34.38356062985258,29.78383719889098,-1.672376619579154,21.385021667170804,19.19379050009593,29.166655683293357
2025-12-12 17:58:09.110736,Right,91.60542682856612,104.85020714336133,103.24885785578226,99.80959474167321,-80.17741985357134,90.145867717496,89.09915284116869,97.70992011362978
2025-12-12 17:58:09.114686,Right,29.47178781007824,28.69595670659328,25.921114482014673,26.853469042660436,61.66066178130859,15.837415625952417,18.036960055003874,28.504557338383165
2025-12-12 17:58:09.118818,Right,-48.67808845377294,-48.17641592283326,-49.869683555021766,-50.856595107514295,145.68779891176382,-60.1998243854614,-57.4802086851123,-44.18190767242049
2025-12-12 17:58:09.123726,Right,5.239790495150373,20.616091110772686,21.255211819923716,14.206730412653997,0.7237313486257335,7.127719853582676,6.9883843433635775,20.86901308117376
2025-12-12 17:58:09.127736,Right,90.56449520465685,106.8382553661504,108.72603601208539,100.17443597267265,-116.0145029869891,92.2778278029291,90.85260526930506,104.48320726663223
2025-12-12 17:58:09.131790,Right,44.54763991983782,45.72397507861024,48.48222962775617,41.75336686016817,1.893139226580388,32.04175678975298,32.38163846761745,47.62153085132013
2025-12-12 17:58:09.134780,Right,-53.076848879645695,-55.63156871696992,-50.546831417465,-60.38228949251061,124.93691246872186,-68.75994747785444,-67.99182493206172,-51.01793328401982
2025-12-12 17:58:09.138745,Right,-26.9862704698171,-15.91755069035571,-8.353823540441226,-25.144278505220427,16.72755719264387,-30.79540391365299,-32.19755517230078,-16.612902082997607
2025-12-12 17:58:09.142748,Right,68.26252930724877,84.36389524147671,91.96561033274338,73.57298276580696,-124.48232043506141,66.96443515083229,66.0948326565267,78.57962928857887
2025-12-12 17:58:09.146757,Right,51.57134258691076,55.22995032944891,61.26057596466853,47.20781836200331,-36.875066466556746,36.34983659030695,41.390367188170785,52.95630753398291
2025-12-12 17:58:09.151801,Right,-45.73483933223906,-47.238960209389916,-41.43321588874096,-54.180006243506796,115.17520333693392,-67.4193761634524,-56.44830440390797,-44.01764705772803
2025-12-12 17:58:09.155817,Right,-38.89542729334062,-26.838269282583497,-19.943276280828286,-36.24004975738353,47.90694504485873,-48.71136377476796,-36.65993703829008,-25.332289666563156
2025-12-12 17:58:09.159835,Right,62.80993186227715,82.95056351431413,89.60560549667571,73.3708023531508,-112.16488406111603,61.12597303165239,72.52616731097805,80.64749068097444
2025-12-12 17:58:09.162840,Right,69.3751750861411,76.97666227736045,81.85641566988488,71.76003621063137,-65.38557614923047,58.01722596160107,71.64520821110636,78.1998019443854
2025-12-12 17:58:09.166843,Right,-38.01892408632557,-41.18789867196756,-37.040918813523604,-43.51786366383021,100.84223941473465,-57.395209302936564,-40.76933035609545,-33.446673124388326
2025-12-12 17:58:09.170865,Right,-71.57007926070219,-64.94519795537053,-60.03717207633599,-69.30336573385284,75.73804897865921,-81.16787835089781,-64.93781887989462,-58.08638637125841
2025-12-12 17:58:09.174813,Right,15.654591703765618,33.578841755748726,38.17137412838929,27.567868839978473,-93.86835523705668,16.47427936778695,30.765057301432535,34.82037399741239
2025-12-12 17:58:09.179878,Right,46.715203367617505,56.60798780209734,59.13593046730966,53.346250091999536,-91.3146822573326,40.75988487907307,55.75228924828116,58.080544947777526
2025-12-12 17:58:09.183981,Right,-45.181095583313436,-46.5134690260893,-45.04040837706998,-47.41151937338873,77.69781221760786,-60.06639122685738,-43.15114276195527,-40.01872880193696
2025-12-12 17:58:09.187920,Right,-91.7200600793658,-85.10619366713945,-82.33670950851229,-88.7353414480167,95.3805522559851,-98.54580803103454,-82.31438914300816,-78.8509728125282
2025-12-12 17:58:09.190916,Right,-6.143672643142054,13.707579677189642,17.69456206195173,6.517296511468885,-74.44230252726265,-1.605043732932245,13.071951261495997,14.879028319301142
2025-12-12 17:58:09.195931,Right,53.41458107576182,67.13203901803354,70.30858101203921,61.12195553292986,-118.27147181348118,50.93701713777409,67.49462526507705,68.50323360897892
2025-12-12 17:58:09.199942,Right,-20.579906136241334,-21.816094384084863,-20.054184332344448,-25.110179568218882,42.312702388633625,-37.51147076093912,-17.31793215295329,-14.772609684740019
2025-12-12 17:58:09.204900,Right,-85.10954579255485,-83.79737933148135,-82.6503386639015,-88.6315553704917,105.01847569080564,-99.98448345816723,-79.78633265572716,-76.68719326531573
2025-12-12 17:58:09.207964,Right,-14.947563929097669,-0.17840345751756104,-0.19539923893171363,-8.347424069797853,-48.11104346331922,-18.062719032997848,-1.0818401355936658,-0.8394471295250696
2025-12-12 17:58:09.211918,Right,62.9983769024293,75.31335952921654,72.80511232595018,68.07441637836018,-130.54471064063182,56.989616965685855,73.19509797671344,70.18261440254719
2025-12-12 17:58:09.216018,Right,5.444285652625695,2.4430514592750114,-1.3123318747529993,-1.266351156446035,12.921407226705924,-14.476419105074456,4.343181161704706,0.9584264817240182
2025-12-12 17:58:09.218995,Right,-81.53356723520119,-85.65873428753548,-87.41482813753828,-89.49075849600922,115.47108482095427,-101.42775807759608,-81.89127711969923,-84.8998436848342
2025-12-12 17:58:09.222999,Right,-40.43611867607251,-30.903615708499274,-29.970296811421576,-37.77479238336673,-13.937909497199144,-46.346386748929945,-29.861993449732836,-35.132678688372835
2025-12-12 17:58:09.227006,Right,47.07786053367818,58.52073117544205,59.306580834709166,51.63308044691803,-133.8344566862761,44.33668052756184,58.75942402642977,50.409853955789
2025-12-12 17:58:09.231038,Right,17.20799302530577,15.26238097363239,13.964683491307369,10.964239709472167,-20.833561714647658,3.086705620655266,19.06043926582788,10.807621395608294
2025-12-12 17:58:09.235044,Right,-68.45969285345564,-72.89445651602728,-74.90901599870995,-78.04505211218566,114.06711223969614,-85.19682690572881,-67.98177299574309,-73.84379232284118
2025-12-12 17:58:09.240054,Right,-40.08946920647577,-29.594979121240613,-30.83778239100502,-38.99497561017051,20.64896815261818,-44.78443545137634,-29.406715831704787,-34.595956758807006
2025-12-12 17:58:09.243004,Right,58.01837633368086,74.63698662535899,73.35618268464896,64.32562212360426,-123.22584996605292,57.34464342903084,71.21325372376305,64.98507399110531
2025-12-12 17:58:09.247055,Right,44.270308182420194,47.62465513351344,45.727735798493086,41.06783069917219,-45.580804136714505,31.698126193250573,46.970207566551835,41.33246096059884
2025-12-12 17:58:09.251057,Right,-62.22622387980846,-66.51108806683624,-67.41237945258763,-71.37111560418998,109.83101570315739,-79.59049205369956,-63.634002386403154,-67.26916837994577
2025-12-12 17:58:09.255093,Right,-72.98578377997728,-64.78315749943431,-63.75698862346326,-72.82340052389554,51.79155425681074,-76.62504691941649,-63.65962260112792,-67.44748557941057
2025-12-12 17:58:09.259109,Right,22.804862161587153,40.90520609864325,41.76056265953957,30.77689857891164,-113.65039022010842,29.036563101126376,39.33493950936827,33.23761477698281
2025-12-12 17:58:09.263054,Right,41.161366394246215,48.93139311799314,47.48120761624159,41.5642888759794,-80.63035171086631,37.64314098459363,49.817289256046934,43.1083746565746
2025-12-12 17:58:09.268130,Right,-52.70216079860347,-55.68747283772609,-58.29782110181259,-60.484499774804135,85.70176057809954,-66.29631619971042,-51.08015068502573,-56.0277168069224
2025-12-12 17:58:09.271118,Right,-82.21298522708776,-76.68078698751196,-78.17670979642571,-83.26685008692402,71.4114661164911,-87.89326122270313,-73.6866031906502,-78.16779059972396
2025-12-12 17:58:09.275156,Right,7.791019106998874,23.948886984973797,23.334928445146943,15.491790175714414,-99.57722494346467,12.081363241361487,23.27322114173512,16.828836339245754
2025-12-12 17:58:09.279177,Right,48.401146588900474,56.03066648921231,54.765493143459025,49.78327609153894,-110.36364798032446,45.42757452029048,56.763448914200126,49.496255613565154
2025-12-12 17:58:09.283174,Right,-35.08636887689045,-39.91612456318035,-41.40058103794581,-44.04861063811222,56.79023095202592,-48.66270998630921,-35.238790113737195,-40.556522965121985
2025-12-12 17:58:09.287119,Right,-83.27220527621739,-80.89763067489548,-81.22258505244099,-87.60726024020732,87.40500908915692,-89.89617673210978,-77.33924275293248,-81.57503595200251
2025-12-12 17:58:09.291187,Right,-5.018415493155771,11.837205481730052,11.72802070355101,1.928652426827739,-77.95601832202374,1.408566800780136,10.944407881472216,4.241894423394115
2025-12-12 17:58:09.295201,Right,47.422967214049095,60.54559596916624,58.34731383682447,52.20146439254745,-133.4068628081841,50.602420609867295,59.93956967650411,50.115885910192446
2025-12-12 17:58:09.299216,Right,-36.55411614469813,-36.427552836257746,-40.523851152986026,-41.99776022327046,20.184426352901937,-44.628152159007186,-32.71853126543283,-42.87531532990579
2025-12-12 17:58:09.302221,Right,-113.76548638505301,-109.38579756349463,-112.84461144517627,-117.14429395610614,90.08322969593064,-118.51352384286656,-105.88286989927565,-114.77232696719875
2025-12-12 17:58:09.306259,Right,-48.61807277366279,-28.49250911200761,-30.420292225615412,-40.8236324890413,-60.570048711422714,-42.10762048322795,-30.719802322832948,-39.06724901390044
2025-12-12 17:58:09.311236,Right,36.198778059562756,55.87614283255334,53.97585889298716,43.25906011324878,-155.9353663559632,37.372970645099485,50.43882637724437,43.09840240540916
2025-12-12 17:58:09.315211,Right,-13.740499634197477,-8.99724852984491,-11.231492610357236,-18.821450572824688,-22.27099465599167,-30.887350336486634,-12.70099539956118,-16.90384326258436
2025-12-12 17:58:09.319282,Right,-101.62980542171135,-98.40532211421032,-99.10795688833787,-108.61092372852545,86.98147372947278,-123.03318969458087,-102.0478533922394,-103.31412570520945
2025-12-12 17:58:09.323273,Right,-64.1488756737017,-46.57826800533354,-44.91031805708735,-59.60088853361776,-36.26777635940016,-72.80638252824065,-53.881241735760426,-55.34177760064222
2025-12-12 17:58:09.327288,Right,23.613564434894215,44.43441102154611,46.9816602463834,32.43173391758137,-166.57903747196178,19.991686491859582,36.76227776048995,33.92510043492075
2025-12-12 17:58:09.330292,Right,-9.068727997593669,-1.6788134395596899,1.004614704843334,-9.234078486348153,-66.06330169550347,-21.875562292028917,-3.6500510139735525,-5.328349241590331
2025-12-12 17:58:09.334296,Right,-107.58323853209004,-103.97455072607409,-99.64504905343165,-110.658550491793,71.85719568818604,-122.20917087528505,-101.71841693181614,-100.77851438848938
2025-12-12 17:58:09.339327,Right,-93.13909852540746,-74.80143764148943,-68.09972096482397,-85.23098287699395,-15.28568853622346,-95.66124799806494,-74.77184106795357,-73.54835127742444
2025-12-12 17:58:09.343354,Right,2.1579621984565165,28.171592176819104,35.36772429732082,16.19085866552996,-168.4201911362543,3.4699027157694218,25.58848063905407,25.176568109842265
2025-12-12 17:58:09.347344,Right,-6.880907105663937,7.182506374305376,13.40816315157008,-1.8065977565420326,-105.22196450809133,-18.824226551732863,7.370657749613201,7.0723545234432095
2025-12-12 17:58:09.351343,Right,-112.73721293607014,-106.4106801258531,-99.77120470331374,-113.86661375582116,50.86058119757945,-132.36309599590822,-102.96799798332358,-101.2073127267613
2025-12-12 17:58:09.354361,Right,-128.04115972994623,-109.39693685614657,-100.66170662199193,-119.60986400314141,0.5905971977772424,-136.87493236417504,-108.22308289235116,-105.62037385720214
2025-12-12 17:58:09.358377,Right,-35.285549248997995,-5.833178388906163,4.110627477701257,-17.455892719433905,-171.45837701731944,-35.600060052755,-8.025959214897739,-5.947981108185559
2025-12-12 17:58:09.362388,Right,-19.646803573890793,0.5749099476415722,10.208787229726795,-7.759515745834506,-153.8052813845643,-29.51531351322774,0.6863303938371246,4.03861359792063
2025-12-12 17:58:09.367405,Right,-123.33418941145646,-113.28010626906325,-103.1327594566635,-118.93653740538139,11.066253814547963,-141.9795782483161,-108.58467958939582,-102.08898732042508
2025-12-12 17:58:09.371402,Right,-165.831899545512,-145.97976332874896,-133.81007980555205,-153.47834610212158,7.045053530229779,-173.60637721523744,-141.6092138214317,-133.90023947440932
2025-12-12 17:58:09.375455,Right,-77.37170000644255,-44.32267962282276,-31.174011589921065,-53.299853147833346,-164.05994280551386,-70.9313001489354,-43.02820297413564,-36.99855096335523
2025-12-12 17:58:09.381441,Right,-25.314017382210295,0.8297202509711497,12.782737615815677,-4.935922672124434,-185.40563658980682,-23.58877284225673,3.2785902334762795,8.394428105999395
2025-12-12 17:58:09.384444,Right,-100.4879103511339,-88.3706113653243,-77.1953928919529,-91.05948052958774,-17.45440218449221,-111.14893400067376,-82.22934191356762,-75.59282521351633
2025-12-12 17:58:09.387458,Right,-150.47337362769758,-134.4978171817529,-121.87970517352369,-139.65918555738608,27.127471790881827,-158.72622301035153,-129.4174628555411,-122.117037187385
2025-12-12 17:58:09.390460,Right,-70.49960382733843,-42.052027340236236,-27.82747270595155,-51.03869406093145,-133.7142277830717,-68.99230785787222,-41.641779094519734,-36.62494622642771
2025-12-12 17:58:09.397701,Right,-4.548221466407995,19.76725989264014,33.899686979173566,12.334530281419575,-199.24997045104828,-6.815097930000775,19.93672683303521,22.941800468499423
2025-12-12 17:58:09.401571,Right,-77.7187879709818,-67.19428776952918,-52.97145013860063,-70.11391213801835,-48.01924875545228,-90.10116520900556,-62.53193623324478,-58.25397081672054
2025-12-12 17:58:09.404527,Right,-159.1556691921869,-145.5794577470224,-129.17843839795023,-147.95205223729863,36.18140299847437,-165.430044843637,-139.76979283622495,-133.4014603751457
2025-12-12 17:58:09.407542,Right,-99.71675470827176,-70.20440474194038,-51.63243759851139,-75.35994399897754,-103.9950642505355,-89.32257946333993,-68.3561702666666,-62.6069476631601
2025-12-12 17:58:09.411527,Right,-4.938908289499523,25.168215565277933,43.20960133892004,19.732235184666933,-204.48643726201408,6.994841625990375,25.606049815902225,29.415067957761494
2025-12-12 17:58:09.414521,Right,-37.12470736146497,-22.731248190910264,-6.531616458880308,-26.355258172254253,-73.35395204651286,-38.1733501935596,-18.1321579849282,-14.478476756841701
2025-12-12 17:58:09.418561,Right,-116.53203372137068,-106.63644037260383,-90.72095634656216,-111.68092044684454,49.56997945577314,-119.61193111123066,-99.09846796637066,-94.94998067548659
2025-12-12 17:58:09.422551,Right,-77.79619085101149,-56.38896964018568,-39.8465208238722,-65.15612797495123,-60.30426079942845,-68.6363162991729,-50.891657831663906,-48.3673465867505
2025-12-12 17:58:09.427505,Right,15.907335245334252,38.81176794035491,54.422578869049175,30.337531549339474,-193.19196682704205,27.18360809830483,42.987239278500056,43.298934847898636
2025-12-12 17:58:09.431511,Right,-8.131747522689693,-0.8794512183922052,12.825258533735905,-5.201366838868125,-96.66657518591092,-10.944618484489183,6.127700323388126,6.957095046531322
2025-12-12 17:58:09.434592,Right,-105.03693195194501,-104.8691405305799,-91.51431597236297,-108.26448020267708,53.35828934959136,-114.18982071916253,-96.86152171811409,-94.1099784831058
2025-12-12 17:58:09.438592,Right,-92.77726653192803,-80.6338812701797,-66.40403125218836,-87.90074027062656,-18.147834649324068,-90.87970430938367,-77.48972910106022,-75.33582619567096
2025-12-12 17:58:09.442607,Right,9.195729852501245,27.641519224438525,41.43710178742731,18.367727352881047,-171.5118464026673,17.431917022193375,26.598171146393724,26.142214081388374
2025-12-12 17:58:09.446617,Right,16.06056831531896,20.91542587619915,33.150400205931874,14.512073286052328,-113.90672784300114,13.867098160630121,22.455102501411602,21.438359027659317
2025-12-12 17:58:09.450567,Right,-78.51659952518821,-84.65960866749447,-72.37155783100206,-88.76746826917952,52.97529744924395,-87.5050359142333,-79.05029492640097,-78.1734499492195
2025-12-12 17:58:09.454622,Right,-91.39946901189614,-88.890090604953,-74.7712686907289,-94.64143474565208,22.943801657027507,-89.37449028846822,-84.87897041323595,-83.5122347089673
2025-12-12 17:58:09.459661,Right,7.658184181207616,18.472463719874213,33.22109197019745,11.839511061494704,-142.12341884341004,19.441838023652963,18.809616297305183,18.057651961808006
2025-12-12 17:58:09.462665,Right,38.704840064270684,38.38619088528503,51.54613197795152,34.78987859170593,-127.52180777258764,41.92500172801738,39.831077369031846,37.56830306654592
2025-12-12 17:58:09.467677,Right,-52.133707183489605,-64.8571918193702,-53.1366102894317,-66.6464984254344,46.623448689955694,-59.24101917065855,-60.6774585333369,-62.646102315949975
2025-12-12 17:58:09.470703,Right,-90.24424180225833,-94.88618601263806,-83.28709686182629,-100.1892471048559,63.46601679283776,-90.29876720615721,-93.56864786607548,-96.48545439550799
2025-12-12 17:58:09.474714,Right,2.1893744985609374,10.39215282522855,21.24837504588868,1.3289259690936888,-98.81763041185332,12.608678965498257,5.953440832552587,-0.15742383766701096
2025-12-12 17:58:09.478645,Right,59.36585157736408,60.48721377419861,69.06194812207104,52.862625780457165,-127.97175436533144,62.95558291851921,55.58762543231205,47.62890783662806
2025-12-12 17:58:09.482716,Right,-20.7252148163534,-34.71072570108299,-27.666030562244487,-39.57458041584323,36.88388168303209,-29.683704908344225,-36.05636482270711,-42.65687971805164
2025-12-12 17:58:09.487733,Right,-86.64334924408467,-97.38025461403231,-89.65756662247804,-103.94592549120716,90.89952143820847,-91.24402588437442,-99.43806132604004,-104.7149015159921
2025-12-12 17:58:09.490755,Right,-15.216718305277027,-12.307463670385914,-3.863453810929059,-22.036278049243265,-65.77368543478224,-6.861151149341822,-19.113057304650283,-25.522802662482718
2025-12-12 17:58:09.494740,Right,60.35657396562965,60.212840268253785,67.38560913275069,51.8047791171266,-139.49915415467694,66.76715443840294,53.047513755820546,45.62512973959747
2025-12-12 17:58:09.498767,Right,0.755623837478197,-14.75116789380263,-9.298204906568571,-19.689401948802697,9.926527313895349,-4.373070235411433,-16.845272912745713,-22.899398302903137
2025-12-12 17:58:09.502768,Right,-79.42679506849163,-95.25979463789918,-89.96389222768266,-100.7592575562885,108.0300942777576,-81.80918234002456,-95.11011602005601,-100.20501958760724
2025-12-12 17:58:09.506810,Right,-27.795716837310465,-30.081158347125893,-24.70630435289786,-38.48990072499146,-22.354939867083885,-16.022114343035355,-33.00827076184942,-40.44342406173382
2025-12-12 17:58:09.510742,Right,60.24334381529843,57.87709240445838,61.50241482293495,50.78912787659647,-131.83553421731995,72.64856564273032,53.747235678212746,43.25793677744514
2025-12-12 17:58:09.515816,Right,21.69119126059377,3.4474007664466626,4.773208544975205,1.2281097215054615,-11.472965623932396,20.522213546484636,2.7684502874362806,-7.778191474586492
2025-12-12 17:58:09.518822,Right,-68.03877546545118,-90.72056603450983,-89.8966050905401,-91.23464285259615,117.3439664730322,-71.78556366801604,-90.1233222059891,-99.52686313635786
2025-12-12 17:58:09.521818,Right,-37.45861637595226,-47.699174891386065,-46.545466308383766,-50.107787236531294,17.963346065498627,-27.924971915521382,-50.89312493694888,-61.94417259064721
2025-12-12 17:58:09.526828,Right,58.08530060808698,50.492283485335065,50.4659416899849,48.99510485915016,-118.33053698378353,72.98438985248231,45.979297476285865,31.676993680928717
2025-12-12 17:58:09.530848,Right,39.112386310724105,15.737581987024896,13.937902034871513,19.009598736927728,-29.93288823905459,43.79002145492632,16.926697961080208,2.0093031646611053
2025-12-12 17:58:09.534846,Right,-59.8865771681958,-91.2543189360913,-92.8458125463003,-85.8839597090373,125.31059695119257,-58.340307964610474,-84.49255275841278,-97.75577256456745
2025-12-12 17:58:09.538872,Right,-49.35700951407853,-68.28674577543643,-68.4845283551258,-65.53945167191341,64.71279741996113,-33.54621297287349,-62.416068244185226,-75.91016867121289
2025-12-12 17:58:09.542889,Right,65.16515866124973,54.460703415934404,53.725004055082536,56.220581317593314,-90.3795477886415,90.66834149075021,58.33956174470404,42.32426525279152
2025-12-12 17:58:09.546898,Right,90.9394932413561,67.68088942883332,64.49076846641401,73.12241294057094,-40.90472907647563,107.50058696325232,74.88333208813856,57.84183275392206
2025-12-12 17:58:09.549895,Right,-0.2665078892114252,-35.09302961675712,-39.62032858747625,-27.232733257671498,130.35419752910093,8.153644178510632,-23.77400138788471,-39.49628647164354
2025-12-12 17:58:09.553903,Right,-27.294993171643,-53.380246971883025,-57.50588805046573,-48.20847197565672,111.93932939048682,-9.742310963711134,-43.77905786015799,-59.31012999014274
2025-12-12 17:58:09.558926,Right,61.735890648404165,46.06024091790823,41.4131709277317,48.84226387462695,-55.543705744916224,88.83780737516236,52.04876456923557,34.37231706615421
2025-12-12 17:58:09.562925,Right,100.22923424573855,75.50551843500944,68.46593074394696,80.79335557002196,-55.24848951325475,119.3779884090668,83.30462453202017,64.30871332858806
2025-12-12 17:58:09.566940,Right,21.381601373410376,-15.911798267283302,-24.794987999586738,-7.85327978825444,115.2176919100566,30.32080611652873,-3.5742290481412056,-21.566939938031283
2025-12-12 17:58:09.570939,Right,-17.529157534298065,-48.01934064413217,-56.82662685172181,-41.9614048301155,140.66600346439918,-0.8397240631247769,-35.788452987331766,-53.34905940628232
2025-12-12 17:58:09.574973,Right,64.81120607138837,47.34025431118425,38.67783188636531,50.557488042282785,-22.722836680784894,94.37069078447803,56.578364948301896,37.314375830217614
2025-12-12 17:58:09.577977,Right,115.48135431451647,92.57950955621345,82.95439459211775,97.60531316834386,-66.9489234847897,140.84758738367964,103.41642670550027,83.41584598946429
2025-12-12 17:58:09.583018,Right,31.894590241919104,-4.906862520827417,-14.659729644707113,3.6465936402310035,90.78600601389007,46.127281772027345,11.404427572659188,-6.285017828169657
2025-12-12 17:58:09.586988,Right,-41.34712044736352,-74.59368364593684,-82.3496257006882,-66.18452743927992,153.29691720627852,-21.42602081664336,-56.33408381823392,-71.81538931009345
2025-12-12 17:58:09.591004,Right,23.401319634236643,4.239251572096691,-1.7574723976758833,11.246160474700446,0.1428720693620562,58.505553269822485,20.731980660353656,4.270641893366701
2025-12-12 17:58:09.595022,Right,100.15425995307578,78.55213564451333,71.76433888093743,88.29886276696925,-85.49311391113588,134.46798702411525,96.86718910744639,78.4075164514943
2025-12-12 17:58:09.599051,Right,43.42998118916876,6.658265490921622,-1.852457865843462,20.82872156735175,55.3260773985312,64.2186240960691,31.0062212355042,12.833668939107156
2025-12-12 17:58:09.603053,Right,-40.62889192555667,-76.9633386831556,-85.72253622871722,-63.30533326933801,160.58970126988788,-20.618916540960527,-50.652530020632184,-67.39416388758036
2025-12-12 17:58:09.606053,Right,8.07980521544323,-11.977754263833049,-20.697239541997988,-2.5815932206314756,36.1451124024552,40.35955046307117,9.723524071634529,-7.110940932921949
2025-12-12 17:58:09.610071,Right,104.95887297616764,88.19653542353262,77.5740917397452,96.76468164626931,-82.98135481528152,137.67258153795046,106.70908688477903,89.46389749007722
2025-12-12 17:58:09.615024,Right,77.38176378048865,45.97042708027584,32.892420997523004,57.710665242921095,26.90352496441119,95.43776832115054,66.91277652708231,51.59351451277689
2025-12-12 17:58:09.619027,Right,-16.545647883213405,-52.954289189096016,-66.03069228610912,-40.538984430389974,159.6014870770441,-3.7001765295062796,-30.49198809715199,-42.92110807983772
2025-12-12 17:58:09.623104,Right,-0.28666401579585,-22.955151479764027,-34.00017366490283,-13.710638069776905,64.72664227692167,23.629020586995466,-4.176536293118261,-16.005832680897583
2025-12-12 17:58:09.626139,Right,90.21008727570597,74.86292368782233,65.03743649367607,82.94829005439897,-83.60433719271168,118.52292023439168,90.85547488873817,78.20555808907739
2025-12-12 17:58:09.630120,Right,75.98232959101551,50.01540609930453,40.24000978024196,60.43253382401235,-11.740451233846215,92.71271445393268,68.73186188181535,57.29275788525774
2025-12-12 17:58:09.634147,Right,-25.37278200361561,-56.4821157413171,-65.51262326133292,-46.18573315955291,142.36789352403775,-14.629905929142296,-35.694318790061516,-44.42770514793665
2025-12-12 17:58:09.638092,Right,-28.81889159374714,-46.16111199990337,-54.07639194552394,-40.43449977343698,87.43835089585082,-7.301495676229024,-29.826071698824308,-38.12310152079954
2025-12-12 17:58:09.643144,Right,71.12747108172061,63.52560187154813,54.75791457736341,66.32481345557244,-76.69301242644906,98.74996644054136,74.19422727957863,64.01675061979768
2025-12-12 17:58:09.647164,Right,87.00840135313501,68.13635520983007,56.81247681747482,72.71067399754611,-46.004295226902286,101.18487473538426,78.83020104746538,68.28275649254647
2025-12-12 17:58:09.651178,Right,-13.36012779262046,-43.44072918472011,-55.92829808456372,-37.86721056134047,119.19372746045428,-12.439839968445085,-30.748701222382806,-39.44314157127155
2025-12-12 17:58:09.654192,Right,-47.229487211703145,-67.88252999790711,-79.28764480772588,-65.73113611106237,106.62897037708444,-40.53143309979987,-58.0117536004509,-66.17321610076033
2025-12-12 17:58:09.659146,Right,43.29881890942261,35.11735050918651,24.45192341037182,34.45910661106427,-64.49081619373283,59.13611326375303,40.33075095208005,30.371414191507938
2025-12-12 17:58:09.662206,Right,84.91990246477826,69.85360927067086,58.5006226186124,71.3883598167231,-79.07917804866884,93.49687856234323,75.65428794108266,65.08290084017426
2025-12-12 17:58:09.668228,Right,-2.958640167102658,-29.44263833606965,-40.60452678303409,-25.127098840119288,85.5311582485856,-4.65229032085972,-20.01811685794928,-28.556914414333733
2025-12-12 17:58:09.671236,Right,-58.552950426981624,-76.7121787215583,-85.66566392750974,-74.121202429822,117.77311494623336,-52.674096814356744,-68.16470677412144,-75.43312367590988
2025-12-12 17:58:09.675241,Right,18.24976395283511,16.23549655026727,9.236993145726956,16.190550169123526,-45.74463906805886,37.653053263228685,20.531896936006888,11.863528777448664
2025-12-12 17:58:09.679247,Right,77.0143234513871,72.61546984880988,65.83969462724781,74.43734880388729,-102.43523865316092,92.22246680024728,76.80537843414095,67.35887238349278
2025-12-12 17:58:09.683272,Right,-1.7216650782256693,-19.1732188886308,-25.543203829885897,-14.04485915951409,49.673832974490324,-0.4380201477695209,-11.452127431311965,-18.571080411960793
2025-12-12 17:58:09.687222,Right,-80.2031982695953,-94.4340350036291,-98.76392283101268,-90.47351934100152,120.90101765498366,-77.88492382677418,-87.39773492590393,-92.11743959923115
2025-12-12 17:58:09.690228,Right,-17.04201584387374,-16.21814040987738,-18.93897275270683,-15.601153569421513,-27.821705919664964,-2.8932875236327504,-14.54595385952598,-20.033671136085104
2025-12-12 17:58:09.694284,Right,71.18799568732811,71.52597006860742,67.97457682125605,72.91401827836489,-123.20199498268266,83.49352935182642,71.27476779501376,64.05148165175524
2025-12-12 17:58:09.698315,Right,26.700451899060226,12.093596281116334,7.0507513211359765,16.974204591411763,11.033738373246706,24.86911248178569,15.313610838309614,8.82728294280787
2025-12-12 17:58:09.702320,Right,-59.516119072671245,-75.75471660403673,-80.47458946077495,-71.11470793824992,124.35053168018203,-63.19499418071155,-71.29233411274981,-76.07047803335809
2025-12-12 17:58:09.707315,Right,-21.78998375782612,-23.564409065244035,-27.37848272348856,-22.32299706048252,6.102502936865676,-13.323707101352738,-23.122679389209225,-28.65552567456689
2025-12-12 17:58:09.710345,Right,71.335568345512,72.83618477675554,67.94751346307021,74.21402588959245,-121.60588385745814,81.79061835416542,71.07066824168942,63.34075887935978
2025-12-12 17:58:09.714336,Right,48.68873434762645,35.927484126115814,28.887901103465992,41.56421896186839,-18.42364341663051,46.5705289946477,37.80011867957728,29.9471779418418
2025-12-12 17:58:09.718312,Right,-42.0540316660863,-60.30424844920162,-67.81771692093571,-52.65497152689568,125.93185801877098,-47.468623515831496,-55.26973709454069,-61.58885927958545
2025-12-12 17:58:09.722387,Right,-24.781576293667968,-30.124988668358128,-36.718346570449285,-24.183270250101486,46.4369102673827,-16.965347797264258,-27.255920104229517,-33.59193968728141
2025-12-12 17:58:09.726408,Right,73.143661733503,74.02009142959469,67.39680477719412,80.19907384974977,-102.70044273006806,86.92890778720175,74.57745534559035,67.13380809400587
2025-12-12 17:58:09.730406,Right,68.65261754473795,56.20545018498524,49.03569720066844,66.0492938345451,-37.949276106603975,69.6378231686349,59.02607751886717,52.9541210975658
2025-12-12 17:58:09.735411,Right,-35.8572711884035,-57.591371176518805,-63.15405062355421,-46.564791728575074,122.03786821908034,-44.7677436107233,-53.02490917956129,-55.26563157052624
2025-12-12 17:58:09.738364,Right,-52.818262846917605,-63.452126677273554,-65.43275804589939,-55.826900902638954,77.928270514637,-53.96445301586573,-62.91072854996128,-62.768519527953686
2025-12-12 17:58:09.742429,Right,46.504987441033336,46.34981618918755,46.69514015277491,52.179256338198684,-89.79134992675426,52.16755378822745,42.17398803483957,42.245210138409675
2025-12-12 17:58:09.746440,Right,81.4867746623504,72.19943736661844,72.57020856804411,81.1704089046325,-69.7899225779629,76.78170205016613,69.18536422331454,70.02606596974692
2025-12-12 17:58:09.750459,Right,-2.7234325858489683,-22.52320579463776,-22.011708913325492,-11.367022359350813,99.29945704838337,-18.32817068410077,-22.656196451693177,-19.023775184081387
2025-12-12 17:58:09.754523,Right,-38.538787081675764,-49.38975095144451,-47.546229360988946,-41.6770035751033,101.35934686997734,-47.71528025904081,-52.47898913791323,-47.10321269148881
2025-12-12 17:58:09.758476,Right,45.10979358199256,46.64918062517063,48.88012854106455,50.172222995464836,-67.12688231175161,44.90109809079331,37.721806656600165,42.464897490363
2025-12-12 17:58:09.763463,Right,89.05226884583863,83.32814280460298,84.09070819183216,87.46605029721286,-91.54904384722977,80.76510574076383,74.01754748798703,78.82681619610048
2025-12-12 17:58:09.766531,Right,6.59455880083442,-12.86726812985762,-12.872117492306643,-6.588239888276803,72.92785631504375,-13.800255004563951,-18.186397275443596,-10.811903879270176
2025-12-12 17:58:09.770519,Right,-49.27527124142034,-63.886295526943286,-62.297718282889036,-58.905600128577134,118.67515778685447,-63.84673310953622,-68.65328419517937,-59.04479454232387
2025-12-12 17:58:09.774524,Right,28.514111001507445,27.699083878782403,31.045611271087182,31.005486110037964,-38.94989154390532,27.46109561866433,20.079958546788475,29.346129947132795
2025-12-12 17:58:09.779473,Right,97.32459701558219,93.00659186469784,96.18097036634936,99.3173654316688,-104.14258435385909,93.34859793599753,86.36498142358141,95.14102722429197
2025-12-12 17:58:09.784555,Right,26.234002614550263,7.144034654236748,9.819133800085183,18.01373308473012,45.143194499579295,9.087034196632885,5.6561961308816535,16.20558826693741
2025-12-12 17:58:09.787559,Right,-61.96690510076405,-80.010864879152,-76.16879600780885,-69.31290767189603,127.93479710640167,-77.74791326816921,-79.74952225418747,-67.41302943588016
2025-12-12 17:58:09.790571,Right,-17.396345015744373,-20.515651017785785,-15.348702730487275,-12.960879465525068,-14.855175636195781,-19.46921575376473,-23.50614401011626,-12.010525276462431
2025-12-12 17:58:09.793565,Right,63.44121978740441,62.40140224088282,66.90910674060251,70.31501767555892,-122.05676706805752,63.3176520990055,58.336562691616564,68.45801791273516
2025-12-12 17:58:09.797583,Right,23.1152605360312,9.87676719323099,13.177152340298562,21.006750216925866,1.443129641480482,12.417982656097593,9.206477503361384,20.48995740157443
2025-12-12 17:58:09.802603,Right,-62.860965921587194,-76.61626943358169,-72.55048855186214,-65.63568011733332,121.5184735439052,-73.52870660868575,-76.41240003066014,-63.002625213948704
2025-12-12 17:58:09.806605,Right,-32.37783584114186,-31.081174788771023,-25.327583873704498,-23.491771987361062,12.601909380910001,-29.961119938194315,-35.41483357233483,-22.19159795483756
2025-12-12 17:58:09.810566,Right,54.5774961240204,60.417164741256784,66.01433397692745,67.76326515170331,-121.94606151427615,59.556208894082374,53.403656609967584,65.0854035135635
2025-12-12 17:58:09.814665,Right,27.06743280687442,19.801295172565005,23.831604584735032,30.61790772506538,-31.45506624331574,18.836465261247213,16.32440199491066,28.317009314190727
2025-12-12 17:58:09.817644,Right,-72.40226964750946,-84.55454445775104,-80.97563538046597,-73.3275546762361,113.38707516978684,-85.90950268900997,-85.08371368440021,-71.54759488764375
2025-12-12 17:58:09.821646,Right,-61.55092009451255,-59.225089225883494,-55.262809236774046,-52.63422979060306,40.97509924192673,-63.490484791567724,-63.420732897175185,-50.31635975480367
2025-12-12 17:58:09.825671,Right,42.3999391809939,54.249411776332636,56.983629589143675,57.41082504898441,-112.12210505369512,46.34349358769032,44.88779904671901,56.120275975420554
2025-12-12 17:58:09.829676,Right,52.03098105569552,53.76625707979838,54.060963093212195,57.79767708839063,-56.24914410508063,44.00103135768586,44.19769176175032,55.82134440642858
2025-12-12 17:58:09.834697,Right,-43.62392213838757,-49.78085581527375,-50.09802643146941,-45.61056647310579,108.90365801806911,-60.69882210910873,-58.08560052658504,-43.76966320245174
2025-12-12 17:58:09.838702,Right,-60.91526372577937,-55.726089944484556,-54.44936187247913,-54.97540031764038,79.1612700572332,-69.00816468602716,-66.81576017744374,-51.53140721573345
2025-12-12 17:58:09.842707,Right,34.217305078616846,50.039605629506696,52.19894316737009,48.90247848171202,-86.92410655168169,34.60288363986183,35.992426761975366,49.514463032501226
2025-12-12 17:58:09.845719,Right,63.19837683543119,69.29085181393748,70.54786035277175,70.91221260190468,-78.26392676397154,54.105519594271755,58.25072486524732,70.84899643987319
2025-12-12 17:58:09.849721,Right,-29.89755678786969,-36.33817603466741,-35.59131305587107,-32.92335390720655,87.4125649955713,-50.33848442238741,-42.33282708565093,-28.418975828186376
2025-12-12 17:58:09.853690,Right,-72.79948391727885,-72.1917826678,-70.6996091866622,-72.61309352012722,97.44483779041366,-87.08990752729733,-78.92594268866014,-64.66950840327081
2025-12-12 17:58:09.858753,Right,13.615978580837691,26.95071789035137,28.335683029548818,21.942608488523547,-70.30616955343794,9.474409621740051,15.809309182430297,27.901557851282632
2025-12-12 17:58:09.862705,Right,67.55723716411376,75.74618528381325,75.38206018344135,71.38797905934189,-105.05921595065047,56.79537120881287,64.5864098424463,75.28242875880824
2025-12-12 17:58:09.866776,Right,-12.754796879929927,-16.596974708738344,-17.907333034781914,-18.139765564419577,56.46447160491516,-35.627026239169936,-23.90731905429857,-11.783251842487516
2025-12-12 17:58:09.870796,Right,-80.22277391123134,-78.36901444319847,-78.50775494667141,-80.71060995432708,111.5774909185493,-98.19718393860967,-85.4240313031296,-72.18325395637748
2025-12-12 17:58:09.873814,Right,-13.1212389268876,3.565603078010099,4.292312727431636,-1.0663610184237768,-43.20487923971268,-17.91327614857437,-6.836842103046365,4.50060241266965
2025-12-12 17:58:09.877810,Right,58.97655071824556,72.97655530611883,72.35816028344016,69.82227730907107,-119.53901091103216,51.046881140784535,63.11926255388971,72.12493780397563
2025-12-12 17:58:09.881828,Right,-1.5379722187499283,-3.0183228591504303,-5.087817486228232,-3.1988319401116314,23.246221370523926,-24.277244322933257,-7.797076277045562,1.5266658449900206
2025-12-12 17:58:09.885849,Right,-83.76334719037914,-85.74738874931245,-86.91422148091806,-87.2584477636392,115.01287947317905,-107.76174175443884,-88.59683209213836,-78.09940218115662
2025-12-12 17:58:09.889846,Right,-38.123802973113925,-25.603522681927643,-24.84287150973796,-30.840090102097747,-20.561113209772884,-50.15863487462775,-31.416379404425243,-21.550489322548856
2025-12-12 17:58:09.894853,Right,42.17205452059716,57.52777296995191,58.8278710542163,52.6757184976741,-136.60342303919788,31.31835755085922,50.97156135932164,60.35510209600125
2025-12-12 17:58:09.898880,Right,-3.8548932174089714,-0.5173762806989544,0.7742674386608996,-1.8328555745974882,-24.047165341758955,-26.721563939237967,-3.5057916084806493,8.48908603444761
2025-12-12 17:58:09.901879,Right,-100.7198528568806,-98.61795059998803,-95.72813114821201,-100.0648833097548,98.74268232622308,-125.93623076138465,-101.01465978165652,-85.34317208064022
2025-12-12 17:58:09.905892,Right,-73.48664249987269,-56.47958048391956,-51.28829082642096,-61.85811430457943,-4.234786340182836,-87.30841316002625,-64.30623375370124,-47.852547404166216
2025-12-12 17:58:09.909887,Right,27.631691273145407,49.80020728615273,55.46336264773345,43.42222773652975,-143.91998481293376,15.932499654241838,37.90360360153136,52.97492264383891
2025-12-12 17:58:09.913903,Right,20.91618762971484,29.713165161199868,34.40964198989059,26.23182657887628,-58.69220326685718,-4.5681694823506405,19.79200632453285,34.923902333765
2025-12-12 17:58:09.917881,Right,-69.75885960149753,-67.36229559722415,-62.60534714154983,-70.7356671575235,96.40763080146462,-101.556956051616,-75.51861383982032,-59.063340162035274
2025-12-12 17:58:09.922937,Right,-62.22443574620411,-46.24619097631694,-40.56612074210989,-54.202360710860376,38.28086225307379,-82.18869073392125,-58.17354258516207,-42.44259502784189
2025-12-12 17:58:09.926957,Right,43.205549611433526,69.27210622868733,74.28056213568198,58.55789383611591,-116.5686835795168,31.162278146191966,53.52075614827481,66.53789156992661
2025-12-12 17:58:09.929963,Right,63.74761666797713,79.77075876156141,82.69010257714399,71.28020046061465,-71.09166356033711,41.183359031841974,66.16069991231961,78.15362632545839
2025-12-12 17:58:09.933956,Right,-28.497473746600008,-22.30812389887251,-19.94794060825552,-29.159948976106534,95.99200624992591,-60.741140401580196,-32.371960226671945,-19.02816715573681
2025-12-12 17:58:09.937928,Right,-59.58955069046351,-44.07930658218447,-40.28101791076915,-53.50828360219202,76.36324784723729,-83.43499867471837,-55.68504690483678,-42.228473046533054
2025-12-12 17:58:09.942002,Right,20.056016432325123,46.76492656456685,51.09056043536566,35.56992217529114,-92.26715852984853,6.949932913004886,32.29004427464315,43.28868923368964
2025-12-12 17:58:09.946000,Right,47.06158541869081,66.60502899716721,69.49860145541425,58.62102202209098,-96.48771596285223,29.13660372749291,54.98179808301393,64.23599148794392
2025-12-12 17:58:09.950014,Right,-42.91592355592729,-33.81860277920532,-31.73751994911072,-38.13817590295548,68.21499375241183,-67.54263313403499,-39.69254003736933,-29.701402127903293
2025-12-12 17:58:09.955032,Right,-89.5488068196064,-72.53639296575511,-69.26947887742062,-77.57074868189738,90.62826079562728,-104.30839748097787,-77.38214396233161,-67.03266036125797
2025-12-12 17:58:09.958030,Right,-6.629750968317239,23.312659455131325,27.525702960068884,16.768717037441093,-73.64556625909245,-8.09775074942445,16.201286740757496,24.531135066756633
2025-12-12 17:58:09.962038,Right,53.21663627500311,77.0916386719573,80.54543581948474,73.03061423530562,-119.53614857193315,47.07130104020325,71.82225948076848,78.2709719036693
2025-12-12 17:58:09.966078,Right,-20.782904222058278,-11.536059135962205,-8.38995479280402,-12.588220388350237,36.605406468948786,-39.36470828515303,-11.724484691038015,-4.853284870082007
2025-12-12 17:58:09.970066,Right,-92.47648832996128,-80.21670715193522,-75.27677137202136,-83.20658026142519,100.55796418191312,-107.93638993757486,-80.0412771843985,-72.69743988223263
2025-12-12 17:58:09.974091,Right,-31.817397751634417,-5.099301483683121,1.4946688776963128,-11.864070457515481,-49.21909052599585,-34.811941914878844,-9.56872959136308,-3.964453065400903
2025-12-12 17:58:09.978109,Right,44.5187309640969,70.32964607647045,76.121134367997,64.69147942459676,-133.5473595012154,40.088401315471856,64.53328874515137,68.43295770104305
2025-12-12 17:58:09.982142,Right,-7.216455191406567,4.58758558712816,8.799693945009494,3.460011362141813,6.120377010156517,-23.475041717065324,2.7133687794212165,7.537851057187254
2025-12-12 17:58:09.985158,Right,-88.67575670689257,-77.48672007879304,-73.07127484896137,-77.63038800143477,111.13501917731992,-103.84180210171326,-77.96236155382394,-71.86822667130309
2025-12-12 17:58:09.990088,Right,-44.75497789897781,-20.066506452931208,-14.6737427576536,-22.73774136101929,-11.793109595218993,-47.184374979107815,-24.53404993163531,-20.078275648037106
2025-12-12 17:58:09.994161,Right,43.78707637323532,69.52623901228435,74.39106793921019,66.95456843578904,-130.47000043597654,41.54562336187519,63.03401288468922,64.96493195515086
2025-12-12 17:58:09.998182,Right,10.459568005153415,20.82710455488541,24.507673128646275,21.213021920579195,-21.632118246554455,-6.21992593377945,17.941530294236145,20.555049239154414
2025-12-12 17:58:10.002197,Right,-83.94897097862122,-78.71195501288639,-74.70484170339932,-78.78107743383589,112.44897753141777,-105.24286402398866,-79.42031464253705,-73.88959761620436
2025-12-12 17:58:10.006196,Right,-62.91466211419538,-44.285902022785194,-39.370123327787496,-48.989632870952846,22.95308421363916,-72.65548812933412,-48.83586813390866,-42.400778830903164
2025-12-12 17:58:10.009213,Right,35.98664572297275,61.47280856294037,65.36860447826302,54.74490642127603,-120.21285568201165,31.353948057956586,53.87412574058544,58.78000155989366
2025-12-12 17:58:10.013230,Right,30.0843810380793,44.16840589290496,45.768698202189626,40.382425782046994,-46.58255519124759,15.28490906501247,40.44214459584509,44.37753302182523
2025-12-12 17:58:10.018238,Right,-67.26628551629983,-60.098825950110495,-59.241775609059914,-61.90945785080294,108.59825768052542,-86.15857759543724,-58.58087176433946,-54.90562320116578
2025-12-12 17:58:10.022250,Right,-70.14608310366384,-51.69443219419372,-50.11021027983952,-55.45489181978792,57.0152870568636,-76.10784090453672,-50.64846498744737,-49.09623514055329
2025-12-12 17:58:10.026246,Right,34.64780648229498,61.00845408293617,62.048950400613194,56.50290470296295,-103.2651869982401,37.52730580094794,59.47657601113133,57.94560811701331
2025-12-12 17:58:10.030229,Right,63.28623026126297,77.9090525469469,76.96017049208876,76.61571957441993,-70.33675519597818,56.10579519026214,77.96153905924257,76.6231451147305
2025-12-12 17:58:10.034306,Right,-25.131629766347032,-21.432387178859244,-22.892200768607836,-21.087919425544897,97.52431349235849,-42.22639847995015,-19.0449744079815,-16.662082674091607
2025-12-12 17:58:10.038290,Right,-58.609372065297066,-45.170403135314245,-44.90865326402036,-48.391872819977834,90.06501328241575,-67.35685670830571,-45.86112629003401,-41.049176112302575
2025-12-12 17:58:10.041307,Right,21.42770917414964,47.514905670564985,48.848168080326104,41.03944170495561,-76.5613373353699,23.548894675812335,42.21397301502293,45.88704556313178
2025-12-12 17:58:10.045319,Right,51.55041100418384,70.37481978568621,70.66133937988707,66.06385225885697,-91.16848027798005,47.42891218774457,66.79386987783982,68.87772398486413
2025-12-12 17:58:10.050317,Right,-41.43388971106833,-35.80258037657768,-36.35002541362064,-36.70805933860811,70.97394510200684,-55.653415794920875,-33.73950454423357,-31.524545659424348
2025-12-12 17:58:10.054348,Right,-95.04371691653068,-84.20522545992526,-83.67969441618425,-85.8110075356517,103.21213673697821,-102.17846863903833,-81.19837018111866,-79.28135745095642
2025-12-12 17:58:10.058300,Right,-10.270171758958895,13.559631356536556,15.245677826886094,10.480973544882545,-57.88850120889765,-4.1671508292420185,13.202777144403626,13.162921129289543
2025-12-12 17:58:10.062367,Right,60.463838679472246,79.68850159512385,81.06912687241129,79.60077619665662,-113.2679074660573,63.103830527434184,79.66478487442782,78.9204593184702
2025-12-12 17:58:10.065383,Right,-8.733464871555043,-4.168925264172344,-2.870649418075118,-0.24190527177961485,39.377715293851,-18.32761017022858,0.3915072053187032,1.9885451311405404
2025-12-12 17:58:10.069393,Right,-86.12792749601431,-79.8187745888863,-76.98197744334038,-77.29580285342854,113.54461082656053,-92.87203750272602,-74.17893500631999,-70.56407401091496
2025-12-12 17:58:10.073409,Right,-27.63625082114595,-7.235835272343252,-3.3006726968787916,-9.33878540020396,-31.13285596079004,-21.359084213912865,-5.613735088222711,-3.6518994168271774
2025-12-12 17:58:10.078355,Right,57.005346657657356,76.87588627755588,79.56021873975806,73.8144100652953,-126.34704856210374,61.82209639733628,76.74043570341837,75.67148245362966
2025-12-12 17:58:10.082420,Right,10.232286707199819,15.417642689602076,16.474363017791802,14.40754602425659,3.8846544988264213,0.6713295741283218,18.221184589519908,16.60180858047613
2025-12-12 17:58:10.086419,Right,-81.59745901932911,-78.41107618201654,-76.96967684859419,-80.58277320297293,114.37882350055224,-93.4531376221239,-74.90657392363937,-75.65069281527553
2025-12-12 17:58:10.090523,Right,-51.89838023656739,-35.09052488258979,-32.85879639263294,-41.246733480367766,-3.2759965105615265,-51.6510008247169,-36.095463992956866,-37.85844647380134
2025-12-12 17:58:10.093511,Right,37.147092071138104,56.806122758097274,57.47399025665709,50.33650218584626,-131.28353812504974,39.985271855177416,53.02116422392646,49.10391380371573
2025-12-12 17:58:10.097520,Right,16.08793236568272,21.607435754481457,19.415510383417768,18.810951310822475,-32.192339385828745,7.036144142482954,20.82639316292625,16.66487415643087
2025-12-12 17:58:10.101523,Right,-71.62428156182978,-71.47486838688405,-74.76542490066367,-73.47345472415873,108.18649794125304,-83.82792072136726,-69.92597878823835,-73.21800204194676
2025-12-12 17:58:10.105545,Right,-51.642600338498596,-38.4646081708928,-41.24052273961752,-44.21367964615047,28.711770656960653,-50.785656644879055,-40.37345610847933,-44.95419818471095
2025-12-12 17:58:10.110479,Right,51.91482582215576,71.85349296539562,68.61956994608681,64.10179173181223,-119.03553390598609,59.04791691089122,66.21110554373081,58.86628665186305
2025-12-12 17:58:10.114539,Right,58.46489106384615,65.84582047426511,61.202139891903016,60.285841692043505,-54.65748743330187,54.133379840404814,61.896069835203434,54.24990343472706
2025-12-12 17:58:10.118544,Right,-32.76836443651155,-34.34544899863272,-38.849540798872795,-39.04920293228042,106.19726351816098,-44.47466930865994,-35.66289622867362,-40.895068423710256
2025-12-12 17:58:10.121540,Right,-41.29803621582323,-32.029816090978784,-34.74276377434512,-39.556686404280754,67.21053247225063,-41.48627300963199,-35.37752324469329,-39.35489180556485
2025-12-12 17:58:10.125557,Right,56.13188086255286,75.46108941829539,73.5389807701822,67.36059588890566,-95.64592857960997,67.35811946836111,69.72985179544048,64.82849575814612
2025-12-12 17:58:10.129572,Right,78.85365701847331,88.6405037328791,85.88230427908024,85.4076932122623,-77.04635914392384,83.90782537869745,86.20870272157208,81.46840899612212
2025-12-12 17:58:10.133592,Right,-21.335717323096105,-22.653179172173168,-25.46980716142525,-21.819441928654896,86.6908089978242,-24.8948024999263,-20.46732064869002,-23.083902819978476
2025-12-12 17:58:10.137600,Right,-66.54830753806709,-59.546751212501476,-60.717938923653946,-60.634432164233885,86.35391324436205,-63.928603700649546,-59.1258091724244,-60.98146656675176
2025-12-12 17:58:10.142620,Right,20.275024610347828,39.479253172580684,39.42904244335159,35.09422526826893,-80.69662953729676,29.638639791744936,34.504188155479824,31.20687836661149
