timestamp,label,FC3,C3,CP3,Cz,FCz,FC4,C4,CP4
2025-12-12 18:01:51.556943,Right,2172.1642851809047,2478.017202338324,2488.5268041868308,2443.5992234242535,1662.748181538963,2322.9675989591083,2330.9291376048823,2562.79941296691
2025-12-12 18:01:51.573975,Right,11691.618786802183,13339.218186711547,13395.76191802041,13153.702368525941,8960.042600527106,12504.00651871576,12547.566805954953,13795.799937984633
2025-12-12 18:01:51.577944,Right,26776.057880077948,30554.31685751663,30683.79276899766,30128.238340119377,20533.45059752439,28639.712200776932,28741.770774762448,31599.668180718923
2025-12-12 18:01:51.580964,Right,33490.015406511935,38225.208828905175,38386.93489091916,37689.25403943159,25649.50225705743,35828.1416731977,35960.66638203745,39528.53963685957
2025-12-12 18:01:51.583986,Right,22758.387475308293,25986.190030012047,26094.471218265455,25617.35761094864,17297.57465269394,24355.736000093668,24454.915487544888,26859.421729744907
2025-12-12 18:01:51.587973,Right,2773.110868340402,3172.519562060217,3180.031803092308,3122.122417751176,1894.7965036747191,2971.9689279898594,3003.199340378982,3255.20198294695
2025-12-12 18:01:51.591991,Right,-12356.965917334222,-14106.32986347709,-14176.798394785234,-13911.614202910045,-9551.25294633428,-13228.018698054657,-13247.070817796834,-14611.203942707216
2025-12-12 18:01:51.597004,Right,-16284.478020811279,-18587.08276179497,-18677.634916369803,-18327.669345103204,-12313.859789549082,-17434.740050687687,-17466.415497421753,-19232.007679346774
2025-12-12 18:01:51.601016,Right,-11700.047223274829,-13343.609531809227,-13408.721234919853,-13159.571010770625,-8784.491562180221,-12521.292595447158,-12541.235405540676,-13803.54093941336
2025-12-12 18:01:51.604025,Right,-5004.09270405327,-5700.84240814019,-5730.648742277408,-5625.212874537683,-3847.4953740351484,-5351.732425689115,-5355.059170726163,-5905.201322417357
2025-12-12 18:01:51.608038,Right,-1348.497785239364,-1539.264556190581,-1551.7093978744233,-1519.4990332250018,-1113.7882026446168,-1445.467915234738,-1439.3022300527664,-1604.250205991324
2025-12-12 18:01:51.612046,Right,-2155.1801659845514,-2462.2128925664583,-2479.3171564100776,-2427.2132235103054,-1602.0166086522513,-2309.3585212357575,-2306.3515079050558,-2552.1218382384395
2025-12-12 18:01:51.616053,Right,-5203.133660411462,-5931.710028110887,-5962.255328293075,-5849.458917246899,-3891.952736296691,-5559.688725385931,-5569.709612695733,-6135.023397969082
2025-12-12 18:01:51.620072,Right,-7076.125702919788,-8067.6281272012275,-8106.310128534911,-7956.809215617017,-5453.453638677718,-7556.998713006498,-7577.381639725179,-8346.485090811155
2025-12-12 18:01:51.625092,Right,-6264.661226065713,-7152.2343496370595,-7188.716951638577,-7051.525162753649,-4870.120377477142,-6697.152821849915,-6714.626593785128,-7400.059349466348
2025-12-12 18:01:51.628107,Right,-4156.826415167889,-4751.140919387224,-4779.120435945806,-4680.621730841696,-3112.4497829375323,-4450.815473312046,-4457.775142687256,-4909.2503675300395
2025-12-12 18:01:51.632089,Right,-3074.4705686981324,-3507.041666557663,-3528.689973993227,-3454.6164646113757,-2228.4380205190973,-3287.763454449014,-3291.890735848341,-3618.6230470642913
2025-12-12 18:01:51.636060,Right,-3686.743032759754,-4201.85627528152,-4225.077256707475,-4142.032947353902,-2854.253551746253,-3934.890591388801,-3947.578824360273,-4344.744721937575
2025-12-12 18:01:51.641137,Right,-4636.034619330545,-5295.46886403684,-5324.692246603081,-5219.318275794038,-3673.550868405495,-4954.516698433552,-4975.6628897106275,-5483.234745190595
2025-12-12 18:01:51.645153,Right,-4465.34003299498,-5106.759428655496,-5136.833965712343,-5030.71456114715,-3395.8023388246074,-4778.758011664613,-4799.998872010154,-5284.233383263694
2025-12-12 18:01:51.648147,Right,-3355.4560968666337,-3829.434701228398,-3852.0860302185174,-3772.1803157866234,-2421.1642313894117,-3585.873868524679,-3604.204542855965,-3957.08006581245
2025-12-12 18:01:51.653120,Right,-2679.5188874405576,-3047.70149901486,-3063.169649871066,-3004.051922208164,-2027.5207555615343,-2853.1689174773637,-2873.0780351574067,-3152.544508145191
2025-12-12 18:01:51.656205,Right,-3122.3888812634395,-3559.5618850290775,-3576.1522540575825,-3507.7348484534305,-2512.8347031382145,-3330.937774206046,-3354.5822383612394,-3688.832838415401
2025-12-12 18:01:51.659176,Right,-3808.6218437376665,-4352.120551299537,-4373.534046068788,-4285.758332761703,-2940.83506582852,-4077.1172633965034,-4099.886972034234,-4504.8502874779515
2025-12-12 18:01:51.664197,Right,-3536.0546775014373,-4035.14144514082,-4055.163620677078,-3973.5609789513983,-2573.2385212333174,-3786.187764510745,-3803.5955559685826,-4167.755876713432
2025-12-12 18:01:51.668195,Right,-2448.272962126066,-2783.2352769994177,-2796.332325310679,-2743.487237913301,-1813.767702020472,-2613.3823229345726,-2626.8582083209185,-2872.5549128984567
2025-12-12 18:01:51.672206,Right,-1850.5534213809296,-2105.427001113072,-2116.145542068407,-2077.1832275625784,-1528.0710754290922,-1974.1745266474318,-1987.2364090658957,-2177.2543067687657
2025-12-12 18:01:51.676241,Right,-2381.9899525555084,-2723.015042546438,-2739.01988672046,-2684.134919379838,-1894.6069900827715,-2553.3154679285362,-2566.7434872606536,-2813.5230459666345
2025-12-12 18:01:51.681246,Right,-3099.4144644539338,-3539.147814133903,-3559.404877553927,-3488.2454444200266,-2273.7139609921724,-3323.030750539154,-3336.6742453286424,-3648.285600005416
2025-12-12 18:01:51.684250,Right,-2808.883673445089,-3196.091431392939,-3212.969020464807,-3152.9327452096622,-2065.740026015439,-3001.655534525984,-3016.2032115582842,-3292.206305234926
2025-12-12 18:01:51.687268,Right,-1758.3956618724624,-1997.5567625201074,-2008.568691419321,-1972.4572116970085,-1425.81789721339,-1871.697512115934,-1886.2449435777962,-2060.4285067357123
2025-12-12 18:01:51.692288,Right,-1253.2297134593828,-1431.6950381464558,-1442.1813491802895,-1411.3165924699279,-1045.977092850604,-1336.867401978583,-1349.4947504821466,-1477.5148479946656
2025-12-12 18:01:51.696283,Right,-1778.6880816885969,-2032.8638959724922,-2047.0290913390927,-2001.186552432715,-1293.2682959685335,-1902.1099931678036,-1914.617057143012,-2092.511470899335
2025-12-12 18:01:51.700291,Right,-2366.403852078365,-2695.565722138388,-2711.097569584963,-2655.649614152964,-1722.1128682973795,-2524.1837909545284,-2540.991213250323,-2775.154230921413
2025-12-12 18:01:51.704261,Right,-2042.3478701125132,-2327.0149085433222,-2340.106321134139,-2293.474764643819,-1622.1059036555234,-2174.995193859213,-2195.4255893416703,-2400.4925404806854
2025-12-12 18:01:51.708328,Right,-1167.5293981040595,-1340.8049820676679,-1351.5470668073976,-1318.9839681335725,-983.7592135616578,-1248.6741970372386,-1266.336987783201,-1384.737888797652
2025-12-12 18:01:51.712342,Right,-808.2289640735835,-934.3154705625493,-944.9146330914227,-916.2587075108895,-561.1919767057989,-871.1767559100408,-883.8775557404151,-960.2023340985179
2025-12-12 18:01:51.715342,Right,-1219.7350040582241,-1394.509634657763,-1405.639104743139,-1371.890984311467,-829.392534316401,-1304.5703139060643,-1318.3738819115097,-1433.9635045583127
2025-12-12 18:01:51.719358,Right,-1620.557663723128,-1848.6754845294636,-1859.5055320853135,-1821.9934297043364,-1280.9841081604827,-1725.867384700221,-1745.2288261650829,-1909.4434474798618
2025-12-12 18:01:51.724312,Right,-1366.5858665962005,-1568.8035712029086,-1578.136088788393,-1544.6379121998325,-1149.1950971359038,-1459.553855934646,-1479.7794143529609,-1623.192008543061
2025-12-12 18:01:51.728382,Right,-747.9103522741934,-867.7688356800936,-874.0393408774398,-851.5780496867374,-533.4775816045003,-806.1836810694076,-821.1962345740758,-891.7031723642722
2025-12-12 18:01:51.732391,Right,-460.0719286375679,-530.2167338335421,-532.9527899305103,-521.364667410031,-232.5562223389279,-496.2883221770171,-508.1805989580462,-537.4150253464468
2025-12-12 18:01:51.736402,Right,-685.0060413195752,-781.2669673627242,-783.1924967456143,-773.206629869761,-544.4801384248422,-732.7282920817379,-746.8575602538185,-802.8027356710518
2025-12-12 18:01:51.739401,Right,-971.2960877873702,-1117.2244259279687,-1121.7817694928963,-1104.6721016602824,-870.581489659904,-1046.081275331555,-1061.294053795049,-1157.3997909482569
2025-12-12 18:01:51.743416,Right,-864.4246496330015,-1002.9608695307979,-1009.0760021732422,-989.6986685908632,-664.8429875402362,-941.9469836981734,-953.4252854582155,-1036.5081305026542
2025-12-12 18:01:51.747447,Right,-425.763045035128,-494.4070854128804,-497.46824733598623,-489.2556909803534,-203.50427647860488,-470.03501435677754,-478.83180495374836,-505.5244973389199
2025-12-12 18:01:51.751449,Right,-109.51900293509243,-124.37449829757679,-123.51585290330695,-127.7472472905065,-68.21984513732605,-122.05178814911051,-133.48101940052584,-126.9564747287659
2025-12-12 18:01:51.756395,Right,-206.87113805190893,-241.47477289428934,-241.5090521343518,-242.762734016811,-284.87862662394764,-227.05835165764438,-240.9788834907813,-254.31437914760318
2025-12-12 18:01:51.760466,Right,-490.0527428513742,-573.6653094550129,-577.5970480195247,-566.1234825001447,-415.2731357261073,-538.5207328731776,-549.4998781748,-593.0376710570999
2025-12-12 18:01:51.764482,Right,-492.66933408466866,-570.5067235874012,-574.599530727719,-561.5195408959407,-261.3866731058224,-539.3014670677367,-545.9877006355673,-579.2151428585057
2025-12-12 18:01:51.767491,Right,-122.7225545886904,-136.4205363582587,-136.1486984815565,-136.1101753799012,-39.88473469915334,-131.2197198413778,-137.54574893217068,-129.38841456733644
2025-12-12 18:01:51.771501,Right,199.60932340467116,229.40283092390746,232.46579086099518,223.50605837698095,44.03626944901771,217.42167696950492,210.2731194610824,241.37286156660412
2025-12-12 18:01:51.775512,Right,123.7883136626624,133.064269909024,134.74501270090695,130.9273054933874,23.598453288228484,128.27915245189797,123.31199378534802,140.10623511852464
2025-12-12 18:01:51.779520,Right,-130.94692668161588,-155.35999138481566,-154.63313155432115,-152.2890287208429,-5.95297704776749,-146.57779342509457,-149.40052925323835,-152.52593786179204
2025-12-12 18:01:51.784537,Right,-107.42446438944899,-117.87264329666505,-114.60718490873114,-117.1612516058085,-1.5405947678518714,-112.58298857504269,-117.68026844790438,-113.50530112194247
2025-12-12 18:01:51.788580,Right,213.49749900991446,247.29537596859154,252.97791965634678,242.87911138303753,83.12958211261139,234.4126821411919,225.8004288302327,257.01847425536835
2025-12-12 18:01:51.791562,Right,420.75876081846945,472.6341460325639,477.3158990784723,468.8611864575214,239.90950283224083,447.64029824108,439.73566474836844,487.8522513380158
2025-12-12 18:01:51.795576,Right,318.9653075238166,355.61767986892664,358.53036615778547,355.78297296304663,324.1225664609374,333.6156158766098,328.63309172807203,372.16813607519
2025-12-12 18:01:51.799572,Right,181.33574074304215,209.01256429295927,212.54502176697497,208.77658708735453,239.45416477093158,193.50810501485375,188.2282816960742,220.81480556096517
2025-12-12 18:01:51.803610,Right,270.46169691358955,312.2280756206528,316.94230527242325,308.12899270151684,145.15476234180824,294.0620077299318,286.5671272910513,319.0460882605257
2025-12-12 18:01:51.807545,Right,462.44272132753395,520.4432788150152,524.3890943230799,515.1824251580838,248.39452322171564,492.5361817279336,486.25255933856533,530.4699628046656
2025-12-12 18:01:51.812607,Right,528.885563746022,592.9311490997061,596.1126863296668,588.4579401163646,455.6535289644962,557.4300972681376,554.8418332650763,612.3581436731474
2025-12-12 18:01:51.816606,Right,501.7065721419058,572.3341150697961,577.2562226510781,565.050383882568,499.65055396567914,534.0883837943547,531.8866614904255,596.0717181765649
2025-12-12 18:01:51.819642,Right,526.3802260559751,605.7512615844316,612.5875723066565,593.1036676474614,371.77942476337194,565.9733674831514,560.9371760375216,624.8815791421803
2025-12-12 18:01:51.823625,Right,577.180243726878,654.9474433388095,660.4956469216268,640.4200307374122,326.72682285224437,612.3571414617472,607.3524983121897,669.6247495573771
2025-12-12 18:01:51.827651,Right,569.6317792180635,640.7133683807915,643.6380554723437,627.4830025819829,453.47428169849445,593.8178303319146,592.7951187121798,657.9548827612889
2025-12-12 18:01:51.831670,Right,582.6215074657812,663.6695548855932,666.6996901933453,649.1282968031592,557.9167338937114,610.5146464491263,611.6266763600288,685.041150189878
2025-12-12 18:01:51.835685,Right,709.837504382187,814.8313446053071,819.88421513309,796.7512955115526,527.4255564515479,754.5380328316824,754.2880262014805,835.2159294690355
2025-12-12 18:01:51.839631,Right,824.0710376828793,936.8954432525206,942.004429113178,919.608060386905,498.6214665174484,872.9928310154937,873.7863270094385,954.6949768917402
2025-12-12 18:01:51.844705,Right,757.0145879954798,853.1073882873752,856.5774396929774,841.1834453945048,560.025892111822,791.707782098907,798.14152284991,872.6634164089337
2025-12-12 18:01:51.847716,Right,618.2837010155199,703.3982515372918,707.2517948719324,693.6424343624385,589.477151441155,645.8808407157776,656.2633878957713,726.9350793320918
2025-12-12 18:01:51.851738,Right,654.7962158876471,755.9533493466442,762.345522184798,742.5656391819357,528.6429610615014,696.6602238012711,705.7214854283375,781.8026632491383
2025-12-12 18:01:51.855732,Right,845.1084677085746,968.658822058118,976.1781040740898,952.8479312636191,530.9495298673864,903.0957473703311,910.7483824800001,997.8668008620152
2025-12-12 18:01:51.859729,Right,923.8277590117068,1048.6181502667023,1055.3153148104902,1035.9435371820582,659.9411940625869,981.2286717623938,991.2461138314102,1084.1430628350936
2025-12-12 18:01:51.863738,Right,808.4609772174153,919.67248068552,926.8874574603979,910.408889836166,717.8581623767386,858.7734014738817,870.5126901726471,957.9822910646908
2025-12-12 18:01:51.867771,Right,717.7848540031118,823.8532464185264,833.5967785781249,813.2222332104575,591.6215497389785,769.7184418035904,778.6458352896152,856.867789772572
2025-12-12 18:01:51.873764,Right,810.4879707926884,924.3132899109041,935.1777872707462,910.6245669190539,504.72461004473735,867.1969118637498,873.2372235193616,951.9396659361664
2025-12-12 18:01:51.876798,Right,959.843356356374,1083.1643248019973,1092.4931618708652,1068.790475113201,655.157716270769,1015.0283620532136,1022.8160192825599,1114.2571125271497
2025-12-12 18:01:51.880806,Right,986.0419055860257,1115.0040873655817,1123.3228528517066,1100.2696035943227,839.8009269925533,1040.0060380289797,1049.7939315600088,1151.9365438048262
2025-12-12 18:01:51.883805,Right,907.8686163581442,1037.3588617530186,1046.9358879165957,1020.1327827656642,767.088693691243,967.1616719113663,973.0034873633413,1069.5304658486275
2025-12-12 18:01:51.887818,Right,851.5273524241056,973.7044254512293,984.3549103603,954.7363128607394,558.8478293148219,913.1111967685865,912.442255069851,993.4141798274359
2025-12-12 18:01:51.891844,Right,866.9257027967833,981.9552605148638,992.3847460852703,964.0757654225454,564.1744292961666,922.6894309951458,920.5416197906015,997.8314879985992
2025-12-12 18:01:51.895898,Right,931.8021373597439,1057.3203098443337,1069.3813820719952,1039.280748427962,782.5625289472518,987.8768918053247,988.4161881832406,1082.089645016822
2025-12-12 18:01:51.900865,Right,1005.7529724526685,1155.1850323209073,1172.2029567142017,1133.317295165616,873.3683740813285,1075.3975830953568,1076.3564680019626,1187.0554972565733
2025-12-12 18:01:51.903944,Right,1010.8453401618171,1165.4492135758046,1186.740361860022,1141.983743801713,718.3867987426929,1087.758383709588,1087.2855270225555,1193.311691351235
2025-12-12 18:01:51.906938,Right,898.6975208956283,1027.8760535081383,1049.5549759233836,1009.706628952059,582.6566740693524,962.0941851871321,964.2965835668147,1050.5880702846916
2025-12-12 18:01:51.913874,Right,786.8702992614126,896.9608431798406,918.2585408276645,884.472412461997,654.9283699416555,837.2037421724526,845.567207666114,924.9566100584343
2025-12-12 18:01:51.917936,Right,852.900653136312,983.418040398974,1007.3472091729054,968.8045670952415,781.1637345771305,915.7620041333139,926.5336344363168,1021.9670523024397
2025-12-12 18:01:51.920861,Right,1033.5648199167335,1196.4812458992237,1223.530947340536,1176.1762627041899,773.9918112836313,1118.4604648731183,1126.3556557558477,1238.5937699178467
2025-12-12 18:01:51.923917,Right,1050.8962516461033,1208.6892636541743,1234.956414283486,1189.2129148588283,690.7144594293786,1133.3963230140507,1139.4756036031758,1246.5039769604336
2025-12-12 18:01:51.928932,Right,843.2615674427943,966.4382837451994,989.7811482362449,953.1826786542078,658.9919171499787,904.1867841351777,912.0199457689887,1000.5292938196799
2025-12-12 18:01:51.931937,Right,717.958152754698,831.7846693407046,855.0406179759884,819.6801959559089,669.1465256813681,775.3069662204944,783.0405136250192,866.3822244876064
2025-12-12 18:01:51.934969,Right,890.1195596978068,1034.2231548122363,1059.6922072261805,1016.1602875941899,681.1367063525831,969.8235500117298,972.6867518359795,1070.7852585950168
2025-12-12 18:01:51.939961,Right,1114.7192710244562,1280.701092616655,1305.731664318475,1259.0239507694496,726.4118030024692,1209.3869944221806,1207.520677910652,1319.0683234683238
2025-12-12 18:01:51.943976,Right,1049.5610989868874,1195.7969489307143,1217.196169791394,1177.638994534267,777.0844340781914,1132.7582087267656,1129.7894316215534,1235.4643382702488
2025-12-12 18:01:51.947998,Right,793.8219681059709,909.3574633609969,928.6136481955182,895.0163433068665,722.2247246907791,862.5223878872348,858.139573047054,947.7059662356041
2025-12-12 18:01:51.951938,Right,725.9494348610751,841.4240032508969,861.802377580665,825.7140301894397,593.8747249291046,800.6719043493504,791.7895032973029,876.4907393418252
2025-12-12 18:01:51.956011,Right,908.9791073107626,1045.8278835522942,1067.1266527685802,1028.2294635137077,590.8381234704284,997.5848874670919,985.8796344136354,1081.3809308405034
2025-12-12 18:01:51.960030,Right,1025.6330779212294,1168.9142289087176,1188.9627166229766,1153.9378411581274,742.3660534947412,1114.014376973384,1104.6094891621033,1209.7840264572296
2025-12-12 18:01:51.963024,Right,901.9165732571855,1029.8696475385223,1048.9215168985538,1018.5395411998034,797.3167229269166,980.3764551196946,973.0112940481631,1071.8821532111615
2025-12-12 18:01:51.967048,Right,743.837312369491,856.7268161338288,876.4092425759882,845.5343668574933,627.7633110472234,818.6218899462838,807.8258115095086,890.0833090874366
2025-12-12 18:01:51.972032,Right,767.2710755849257,877.194445858011,896.8608831807505,865.1242440345231,483.86477494530845,843.0760345477611,827.8496700262185,901.5532706850208
2025-12-12 18:01:51.976072,Right,887.3894892070675,1000.1240085496102,1018.1845139248762,989.6404005126096,600.1742920783581,959.4439718859503,945.1346416820306,1026.4027745011263
2025-12-12 18:01:51.980089,Right,916.5094399612863,1032.1465480357874,1049.637728281552,1023.3444461668842,787.0681822369806,984.011801435845,972.9685014262795,1065.5273067755625
2025-12-12 18:01:51.984132,Right,845.8626839664066,961.4458842503373,980.3112993026152,951.9692145681474,730.9929012645734,914.6342613928718,902.50183012872,992.9715458615683
2025-12-12 18:01:51.988100,Right,777.4085876801983,883.9553504919168,902.8784754099324,874.763261921471,515.5667201266624,845.425079609151,829.6955647784052,905.7357035172172
2025-12-12 18:01:51.991122,Right,745.0232169908704,837.4489073420409,853.5341991609894,831.8595927152783,474.19526144186966,803.6459764546016,788.869810679229,856.6763200040441
2025-12-12 18:01:51.995133,Right,741.4156327545643,833.142742623575,847.0176014334429,829.7350990262348,634.2185218734667,794.6563953118166,784.8364851975348,861.4975007981993
2025-12-12 18:01:52.000143,Right,781.3423939250642,890.3023621961474,905.2673064356204,883.8271824002732,701.579162747832,843.844610781176,836.0079123752657,926.7743278839625
2025-12-12 18:01:52.004147,Right,823.8052950216224,942.2457185371313,958.7146269395016,932.7472006992903,572.0706112816697,894.7514454264892,885.3816948706517,977.6243336517364
2025-12-12 18:01:52.008102,Right,770.8754257640103,872.0795420478098,887.3575728265569,865.7637585520279,469.7114297581138,831.8028242383152,823.9560314276023,905.7481177356094
2025-12-12 18:01:52.011164,Right,645.3526699027279,725.3668364128098,739.0685999589041,724.2287749880925,527.4244450009428,691.5694822877413,689.5289405192016,765.7155793362763
2025-12-12 18:01:52.015160,Right,613.5713730034186,699.8250029440969,714.7549364450388,698.0731584616005,588.9291608256754,664.7992809219286,666.5556613020599,749.7677153537516
2025-12-12 18:01:52.019192,Right,719.729847466806,827.1355132253375,843.7676874503959,821.3915771262255,532.5002708497923,787.6600511556026,789.0622670341982,880.2825089765247
2025-12-12 18:01:52.023194,Right,774.2297993054381,880.1664715141524,894.8711686376482,875.5434487888124,473.2858316048514,841.9703480682801,844.1334227727493,931.5450491919182
2025-12-12 18:01:52.028211,Right,651.3139258804731,732.7729076691903,743.4408657476306,733.8105417720508,504.77497214009054,701.5390066751279,707.568885241868,783.5243764929473
2025-12-12 18:01:52.032218,Right,514.4260937238578,585.3425550134853,594.5723529430106,587.7527684664819,519.3993818974122,557.7684872776736,565.5375867150724,635.537123128539
2025-12-12 18:01:52.036256,Right,553.481270522112,640.2085437118076,650.4831275983015,637.8398143824888,443.87519884866197,608.4579221775057,613.5139873254811,686.0263101097662
2025-12-12 18:01:52.039245,Right,663.5757773192599,762.320354927564,772.0143771211151,756.690795049537,400.1229620806407,724.6712968678912,728.0259863850661,802.7100909112487
2025-12-12 18:01:52.043249,Right,624.5577518497594,712.015795680345,719.2101130867377,707.9571606416721,461.3973870018963,673.8002868954791,679.8891966463998,750.3877392373979
2025-12-12 18:01:52.047203,Right,475.30856871791184,548.9444836538751,555.5378268401837,545.3334872347768,485.06339413661044,513.7237185267732,522.1623245617375,585.8282833901467
2025-12-12 18:01:52.051260,Right,435.7045172067592,513.0840504358057,521.4436749466695,505.6218348524999,376.03415314562153,478.22501401917543,484.71914479567204,544.5274500921369
2025-12-12 18:01:52.055289,Right,526.6790848518722,611.3682585961651,619.8881473310757,601.4291962517891,291.0163627186557,573.6206294060685,578.2904373444617,637.4473876814591
2025-12-12 18:01:52.060292,Right,555.2199645659421,633.2721773302183,639.2575489367591,625.9991825828329,366.725353281945,594.1807048356859,601.658291131258,660.5466266260482
2025-12-12 18:01:52.064258,Right,462.2899088320555,531.0051518104738,535.5226364651462,526.3469116135966,455.60581075935625,494.0887005459517,505.08321073662955,562.5084258844145
2025-12-12 18:01:52.067287,Right,401.49066412087996,473.40474913211074,478.9925033125328,466.8617577106925,376.9671540077543,439.1741227218881,449.1567095873179,503.5428461363772
2025-12-12 18:01:52.071320,Right,439.20321357855573,515.6535448554205,521.214149123989,507.0637017915724,243.73541366367135,482.2513192513725,489.8977621913655,539.9320106032537
2025-12-12 18:01:52.075340,Right,448.0942972864723,515.4823736813851,518.0500404023333,509.1860511783743,263.1483919004677,481.91905219818,491.8868057464715,538.1782644375926
2025-12-12 18:01:52.079346,Right,369.8912256453186,426.5500719763804,426.745589312166,422.7885534756351,366.9487478354713,392.6313822035445,407.4705837222282,452.6391176452162
2025-12-12 18:01:52.083358,Right,329.87702916073613,390.93726502230857,392.0209936511237,385.05459021020215,343.15557131229434,355.9687633762369,371.9141734733712,417.0471514008241
2025-12-12 18:01:52.088365,Right,387.59219372307416,456.32898075168487,458.70311517314985,447.6378008184256,221.81279467628337,420.8578431835631,434.9393768805312,477.311814228422
2025-12-12 18:01:52.092392,Right,409.20458470622543,468.5915453644702,469.89654806500766,462.17159639368765,207.44298247259576,435.7508821361698,450.69957613549195,487.42131538223475
2025-12-12 18:01:52.095377,Right,316.2374653479783,358.7892304897541,359.09236442646943,356.3572701327503,296.5035931788152,330.7525567264529,348.8157240630826,381.29000720148906
2025-12-12 18:01:52.099406,Right,244.21138448652346,286.3201710303547,288.4060790918302,282.90932578069624,293.6410690820776,260.7822794151725,278.6663756434573,310.5335394083522
2025-12-12 18:01:52.103447,Right,300.6793921829667,354.28392604074907,358.3870260111289,347.01336984639056,185.02281010785373,327.38306281808764,342.2344298509415,374.0959327335004
2025-12-12 18:01:52.107429,Right,362.22702626662795,414.35949428519234,417.3014969744254,407.36404161527753,161.41915439680452,385.9501317040995,401.0577040758217,430.25899734615814
2025-12-12 18:01:52.111436,Right,291.65958015900105,328.10332503565587,328.72552225680556,324.8376380635891,250.13307417125907,301.3062674328685,320.24592772871256,345.0372195201926
2025-12-12 18:01:52.115465,Right,184.51936799648684,213.922763143084,214.91755001887213,211.06834641390014,256.37178003421286,190.18823515390977,209.7978227880085,230.95457047352102
2025-12-12 18:01:52.120456,Right,196.13986270071473,232.2667609079508,235.042566665099,226.01609107106924,133.12316731613828,209.7566546157468,225.1162038478069,244.12840998568572
2025-12-12 18:01:52.123474,Right,266.8632713899715,304.0691984948935,306.0286655899836,296.64997702860273,82.17462737881579,280.8923791392008,293.55970715137664,311.7092141287867
2025-12-12 18:01:52.127484,Right,239.75692841678392,266.0848551916424,265.0826598642161,260.65976348356344,180.96690078586107,242.6353125742171,257.18429414962884,275.58127992774826
2025-12-12 18:01:52.131489,Right,141.2313182905782,161.36062202171888,158.93224052677397,155.6674692942761,226.30053813563427,138.98748659691773,154.48475930141285,172.34726675588172
2025-12-12 18:01:52.135516,Right,115.45359810849186,139.61336256877985,137.30414622020908,130.70636929792818,101.22911964112427,118.84526616928633,131.24550129752606,145.19838729826733
2025-12-12 18:01:52.139459,Right,158.57487929059425,181.0583881092025,177.27630294614937,171.8142699173186,-2.2035622795228846,161.43567182938568,172.16879098117352,180.63464174990077
2025-12-12 18:01:52.143534,Right,148.333632599446,159.06523808382917,152.6356270009419,153.43211129005067,76.91045607207343,139.23328530939762,153.5281660972396,160.80249235022347
2025-12-12 18:01:52.148540,Right,84.888666746323,91.60364821075927,85.10930760600604,87.2203161114594,177.67139338341076,70.08841496583773,87.79146031034179,99.27621132147033
2025-12-12 18:01:52.151553,Right,74.43405342660844,90.01826149330009,85.9520490563009,82.35315980343148,104.71281983301742,67.33563555317232,83.17079409514554,97.01519715308677
2025-12-12 18:01:52.155539,Right,105.32744782819645,122.18019451934379,118.54984079656424,112.76839104271494,-27.91535632236628,100.84373351390241,113.9798593724845,123.02245974575635
2025-12-12 18:01:52.159516,Right,68.3246925091953,70.54445658880286,64.25355043762829,63.970842074311804,-11.733984595164657,51.512788432999514,67.08249913097825,69.68837033869931
2025-12-12 18:01:52.163574,Right,-12.699814064370003,-18.334397583501413,-26.158038178051356,-23.070885248074774,87.293940053205,-37.53313266823534,-17.68418762960937,-15.114071022544522
2025-12-12 18:01:52.167597,Right,-4.577748252486344,2.556305311387405,-3.743757333722897,-4.75015961646568,68.696191406867,-18.94457700906787,0.7695412132889032,7.07319405459566
2025-12-12 18:01:52.171604,Right,71.8482424794347,89.43571643880568,84.10700493858894,81.0922162925126,-37.80561635241611,68.36582630575867,85.62124972703168,89.84757955762325
2025-12-12 18:01:52.175616,Right,48.71810344210826,53.14590154431062,46.015152788255364,50.100761555775534,-51.540040897147264,37.752082383143716,56.07819022802869,51.07898937666323
2025-12-12 18:01:52.180573,Right,-81.4175546359038,-94.80677743180422,-103.25064896530239,-91.9074500745046,16.46305027982453,-103.92434636253165,-82.65981251816265,-94.73569176963065
2025-12-12 18:01:52.183641,Right,-123.03810411668383,-131.6206475358922,-138.4450503415428,-129.039626305399,5.435072469117586,-139.67590457445476,-119.56163444154663,-130.6936947114882
2025-12-12 18:01:52.187579,Right,-17.362848406424746,-10.43693225766765,-15.98825767141534,-10.970425326027907,-75.75756254789303,-20.774743677466176,-4.931171094009187,-12.931816268595867
2025-12-12 18:01:52.191652,Right,36.625130048953,39.70750631589908,31.896795574750286,40.323975132836495,-74.85083477557055,30.807164501631632,45.24330762447789,34.537537297583185
2025-12-12 18:01:52.195657,Right,-78.70611102454131,-94.8694918359979,-105.60438619123306,-90.7588770868606,-6.576574156060815,-97.14589718170464,-81.37740813288838,-99.27569741394836
2025-12-12 18:01:52.199680,Right,-190.07701613288373,-211.3106155982241,-221.72780634678202,-207.95042874023784,-32.84166773836478,-208.15049576209276,-193.83472425717628,-215.86515543982387
2025-12-12 18:01:52.203698,Right,-130.700983208837,-139.24137240438722,-148.05028653377667,-139.54253362113377,-139.42986435975763,-136.36540646638605,-126.233235511143,-146.631914241676
2025-12-12 18:01:52.207713,Right,-24.03603642937378,-27.897839852725156,-37.79385913081933,-27.968064342363505,-140.7670509533491,-27.342464536603075,-18.356178540328983,-36.01998914332944
2025-12-12 18:01:52.210716,Right,-61.382052794040646,-77.2455273012747,-89.6795845424349,-73.41203945464804,-32.20795587380417,-75.21345666630077,-64.05208158143796,-82.87890066797263
2025-12-12 18:01:52.215749,Right,-178.4974043937691,-203.0560955228575,-215.71470165648498,-198.2622132280958,-22.985430938540958,-196.18708103548852,-185.92117155509186,-209.8336821824778
2025-12-12 18:01:52.219748,Right,-191.35170487643336,-211.4552171448595,-222.97221528802766,-209.65524559654295,-155.42225723326555,-201.51565389175084,-196.6581491632096,-225.89886633318383
2025-12-12 18:01:52.223779,Right,-118.41724896832602,-135.77133221982513,-148.53034715159447,-135.35489149356727,-209.69282160684816,-126.74132817517966,-125.08326480476535,-156.34126264721272
2025-12-12 18:01:52.227767,Right,-117.2874836827832,-141.12260892125778,-156.86468589614378,-139.39162587026658,-95.65957258052367,-134.4916888988082,-130.36531642926275,-159.90182983207342
2025-12-12 18:01:52.230767,Right,-192.12779725225118,-218.54294890223537,-235.11440840641444,-217.84691339248093,-25.88572089086665,-213.04262169108551,-206.36469722306356,-233.92573862696008
2025-12-12 18:01:52.234800,Right,-213.77342708141077,-234.21582415606827,-249.46062408052967,-237.3483270364086,-139.91861553423223,-227.93695645723346,-223.122788973531,-252.39360642548127
2025-12-12 18:01:52.238737,Right,-175.00282476416032,-195.8204304200117,-211.12604898073187,-199.29683284241037,-252.15960771428217,-187.2246209438381,-184.61569716025406,-218.14645739505067
2025-12-12 18:01:52.242819,Right,-186.01061695524186,-217.5580054361344,-234.31070376251955,-216.24605574577436,-182.81689832192933,-206.1020231425282,-201.8358155907772,-236.54188022167
2025-12-12 18:01:52.247820,Right,-245.85029413245684,-280.4325944512839,-296.195107603633,-275.8052374370109,-75.21393044700017,-267.0231911615074,-260.88838114991086,-291.8679673482975
2025-12-12 18:01:52.251859,Right,-248.02271096305412,-271.71234268286844,-283.8473408185964,-268.6400157407452,-130.97385545792486,-257.28965642747244,-253.22226613286136,-281.50808808484544
2025-12-12 18:01:52.255912,Right,-202.48442350062396,-222.06364170173765,-232.5665790690109,-219.98565561259966,-252.63598613149588,-205.96922984016783,-204.18888735271685,-235.98174801643472
2025-12-12 18:01:52.258907,Right,-226.5488234043878,-259.8696466143083,-272.28797271548683,-254.52027067791641,-235.17441139366565,-241.51474048755335,-237.39872254835063,-274.695505572141
2025-12-12 18:01:52.262901,Right,-307.9612373946511,-351.8893699088803,-365.48413791095663,-344.00753993745457,-136.55328200736403,-333.54561834920605,-325.74362648405804,-362.9411931500654
2025-12-12 18:01:52.266891,Right,-305.19535423530033,-339.90656084210787,-351.4285348546691,-334.3088701901579,-151.8694603584736,-324.9727894474636,-317.6521251977247,-349.96909882017644
2025-12-12 18:01:52.270895,Right,-213.0585112800036,-237.35653478692984,-246.9792241292016,-233.94794530469517,-248.64608502518968,-225.44257121204282,-220.4213736650854,-250.92976401413034
2025-12-12 18:01:52.274907,Right,-195.1464249612036,-229.31277401368425,-239.94909916291363,-223.03418444585986,-243.38479944148276,-215.87882246020308,-209.61724828426668,-244.1183700004476
2025-12-12 18:01:52.279856,Right,-293.80569389218,-343.58742866906687,-355.3616244176228,-333.89318797233864,-154.90149815831683,-325.81309605008573,-317.0883735895768,-355.61860868133954
2025-12-12 18:01:52.283935,Right,-342.7448449874355,-388.7494863951579,-399.2109696925909,-381.33069145912305,-162.194578698618,-369.3855058027548,-362.98184537363704,-401.00967909698375
2025-12-12 18:01:52.286930,Right,-261.2744441962277,-292.8453165140818,-302.425102246576,-290.2395191337273,-257.7012494392693,-276.0791633485933,-275.1255633906403,-311.0462748068094
2025-12-12 18:01:52.290977,Right,-204.4436145227519,-237.22817290955572,-249.37808792316355,-235.20899798127357,-261.8951794322784,-222.96540709026158,-223.7477477522043,-260.31542732423986
2025-12-12 18:01:52.294957,Right,-287.2915839003399,-333.9657347139728,-349.3138441676565,-329.9600625541643,-170.8996146590216,-319.48860349162715,-317.8993012070132,-356.91960102439043
2025-12-12 18:01:52.298955,Right,-376.75044893930317,-424.8662831207621,-440.06124561067554,-422.6856050469796,-170.2322053455282,-410.29908492200775,-408.0361024934973,-448.0138410925574
2025-12-12 18:01:52.303961,Right,-329.47433897838346,-365.44992972380714,-378.7856936068274,-367.74643265240593,-280.0283191667986,-353.3888100901386,-353.2081619691162,-392.4700498833263
2025-12-12 18:01:52.307968,Right,-244.85547249912634,-278.53565529792104,-292.07160385826137,-281.2256780973403,-305.30456596179283,-268.99401048076106,-268.63707212990266,-307.27081037155585
2025-12-12 18:01:52.312018,Right,-278.80431576797855,-324.3612524308264,-339.07056018779986,-323.4340352039435,-198.96093717240728,-314.12045780711924,-310.5390045539825,-348.72948113642633
2025-12-12 18:01:52.314992,Right,-365.9203497673152,-416.3613457662286,-429.80227658577496,-414.447512598359,-159.26779627846554,-403.5928030645591,-399.32828235643683,-436.7993945190683
2025-12-12 18:01:52.319011,Right,-353.4832242435368,-395.6769162483979,-406.64495967241237,-396.4337837883504,-267.42091976702795,-381.74731559690554,-380.9443181681563,-418.67490495124366
2025-12-12 18:01:52.323040,Right,-284.79825309017906,-324.6405451000901,-335.8748396472656,-325.76370909262914,-334.09280296607176,-310.814549107512,-311.8325982756214,-351.42446426925017
2025-12-12 18:01:52.327053,Right,-305.62530906900065,-355.17048090550816,-368.6581167933764,-353.0725537169492,-245.39002535157488,-340.9160957848653,-339.2185286571039,-379.826198808616
2025-12-12 18:01:52.331000,Right,-383.2467573718168,-435.33708531263983,-448.63419404049637,-432.2841539773508,-171.35324486275204,-420.5451559876674,-416.76341385924025,-455.5855608812999
2025-12-12 18:01:52.336055,Right,-370.91303707816405,-411.0218877833686,-421.3923855898902,-410.9061710262904,-251.18804585380713,-396.6682127204258,-395.1632142486633,-431.86665536585497
2025-12-12 18:01:52.340074,Right,-289.60731123032747,-323.4272846139502,-332.4038680054364,-324.1247035942506,-337.9936400729348,-309.20850143843563,-309.9650248225662,-347.52058358717477
2025-12-12 18:01:52.343106,Right,-292.19510620005894,-336.4076647129259,-346.694928666926,-333.4363529133843,-274.2038147211133,-320.3854589587427,-319.34484955412336,-359.31507056445116
2025-12-12 18:01:52.347088,Right,-377.0537481312058,-429.2732580512529,-439.97607339691604,-424.2328073171084,-183.59225087056984,-410.8240595421521,-407.7236082634772,-448.04306017566705
2025-12-12 18:01:52.351110,Right,-389.72883923439076,-433.44812012295006,-442.4372860993026,-431.40241539891576,-238.14445980190067,-414.30327198602026,-413.07838458271,-452.0718526180717
2025-12-12 18:01:52.355104,Right,-312.37323580065276,-348.20617347210646,-356.85536441847216,-348.58928287861636,-338.0387853363063,-329.4277355063823,-330.5473980709212,-369.8126730971271
2025-12-12 18:01:52.359125,Right,-299.27843673562165,-344.382888132066,-355.5006412045914,-342.25999255437637,-301.45506865589414,-324.63841260568006,-324.056996170606,-365.34154361655237
2025-12-12 18:01:52.363152,Right,-387.6297288588248,-443.95065060287016,-456.73216751922155,-439.38561696733814,-205.2694467221736,-422.34943454590393,-419.371845004207,-461.5879388139583
2025-12-12 18:01:52.368147,Right,-422.6488615136477,-472.85766059567686,-484.4969390441547,-470.99580437509576,-237.8461902057752,-451.1507367133745,-450.48237440147204,-492.23286819068016
2025-12-12 18:01:52.372105,Right,-340.6678882029373,-379.5138678153162,-390.7020688157645,-381.0966523295501,-341.7568886068766,-359.33583502762485,-363.0733452523127,-405.49001499585574
2025-12-12 18:01:52.375119,Right,-285.357039868657,-328.69355519354576,-342.731910717499,-328.4211736789439,-318.497309661936,-308.46460177435074,-312.7118209959008,-356.9231131893466
2025-12-12 18:01:52.379153,Right,-342.31454498914536,-397.89779127622023,-414.803024628025,-393.5225524880807,-201.47362358338432,-374.7778848018497,-377.2061028140015,-421.2887288397178
2025-12-12 18:01:52.383173,Right,-386.4166233279393,-441.1370158736245,-457.4380920084659,-436.45668784034206,-198.16944167303154,-414.66332797909854,-418.89006844960386,-460.4871097508003
2025-12-12 18:01:52.387209,Right,-321.24973650375614,-367.56858837482287,-382.1036318677361,-364.2041212131735,-305.3127449322492,-339.22203964093933,-347.65810522949323,-387.7048394920421
2025-12-12 18:01:52.391214,Right,-260.0091861388646,-310.744844315981,-325.88241084542824,-304.62158264167374,-314.61890102463076,-281.26756372646196,-289.6953326924122,-330.393003256293
2025-12-12 18:01:52.396170,Right,-313.77290057676146,-377.0610111542046,-393.4581590859452,-366.40756546508055,-201.58833227824653,-346.4740886145155,-350.7989964428707,-391.6029078599531
2025-12-12 18:01:52.399226,Right,-386.8840401521302,-448.9320988819818,-463.94061068620067,-438.676004730165,-174.21925290493527,-418.29077080247225,-421.366133738833,-460.35441572463606
2025-12-12 18:01:52.402244,Right,-358.74437552993186,-407.8473096736125,-420.5767066301778,-401.8181561481906,-288.6143146348768,-378.6481514023617,-384.70797179517103,-422.4956208515214
2025-12-12 18:01:52.407258,Right,-304.96673509280663,-352.2764794775285,-365.54081660020165,-347.3826958012651,-343.7372641224065,-324.5140014071949,-331.4821022580727,-369.9212171563413
2025-12-12 18:01:52.411275,Right,-343.069799661811,-400.9053908990463,-416.12611194117926,-393.8239207128063,-249.54060032241978,-373.9361986062722,-377.49910288932733,-415.3861300541321
2025-12-12 18:01:52.415285,Right,-400.7412919527851,-458.95343913219403,-473.5129526760429,-452.6055945166154,-186.37464274361264,-433.74558922462165,-435.3170183086186,-469.69555915449746
2025-12-12 18:01:52.419285,Right,-351.70100112992804,-396.89633488003165,-408.9435307246167,-394.613872471964,-266.37230924447067,-374.7711911260849,-378.67470216634683,-410.3741594341118
2025-12-12 18:01:52.423237,Right,-265.2212291568285,-307.2234682694543,-319.03506609553006,-305.75242476467974,-330.81758671288844,-286.7960908515961,-292.2057778716553,-325.7453481517732
2025-12-12 18:01:52.426268,Right,-289.4298704805551,-344.63038658502046,-358.3635471892776,-339.3467795283068,-253.97424427233636,-322.88129392289557,-325.8300776319229,-362.955057551153
2025-12-12 18:01:52.431316,Right,-374.40285016427515,-435.54302015469875,-449.30224599142093,-428.3185027661966,-177.63613314728718,-411.8682230494451,-413.5996355339885,-450.96366575348657
2025-12-12 18:01:52.435341,Right,-356.3010142639396,-404.66513013548683,-416.10277606907766,-399.63797066162806,-240.22811837744666,-380.9874959918088,-386.4737863834016,-421.25614225980826
2025-12-12 18:01:52.439337,Right,-259.13077852805145,-297.8469590584282,-308.53660745639354,-292.8644922558451,-315.79974184633465,-274.43245365814073,-283.1886338047916,-317.17787589947693
2025-12-12 18:01:52.443339,Right,-255.0140769337304,-303.13220793555956,-315.65619105962105,-293.05071363283787,-254.04725387040526,-277.52270930761006,-283.88146663596854,-319.7895672910381
2025-12-12 18:01:52.447314,Right,-347.8144628510927,-406.2746239268454,-419.5918260104954,-392.5651592724025,-165.78649288689485,-377.627777469228,-380.53745759639423,-417.60605619102716
2025-12-12 18:01:52.451372,Right,-362.54421111708507,-413.85952693526633,-425.6039579102071,-403.03850052610505,-213.3645901203272,-385.38359115226194,-390.1332643397618,-426.1140204378171
2025-12-12 18:01:52.454394,Right,-263.99579980946146,-304.8752719287295,-316.11226144921966,-298.3498268327676,-300.9050049338839,-279.84233621659223,-288.7411920847371,-323.7223067979794
2025-12-12 18:01:52.458427,Right,-220.12466443359153,-266.5764018733753,-279.8798334978055,-259.75016943830997,-252.07354955771007,-244.0065564851975,-253.0442354773404,-288.44372178800404
2025-12-12 18:01:52.463426,Right,-295.9200448062038,-352.7243379765423,-367.00829112622887,-343.89720111200586,-145.39350546436617,-329.23104878119193,-336.2865380224539,-371.76373745838646
2025-12-12 18:01:52.467398,Right,-340.9122313547414,-392.8847655089339,-404.6687362828525,-385.08650889468845,-173.06835635361494,-367.0487434674287,-375.8225509125041,-409.9101438327925
2025-12-12 18:01:52.471429,Right,-269.58924519631546,-309.82723992562387,-318.7911886171205,-303.1183689041063,-280.04143853706773,-282.3016785563668,-294.7255834514508,-327.31715769006405
2025-12-12 18:01:52.477406,Right,-212.34599192149471,-253.7702247571433,-262.5733808556106,-243.78674649971072,-260.6495718523511,-224.77680892369244,-236.48253231542185,-268.1932580335997
2025-12-12 18:01:52.480474,Right,-266.96428849868244,-316.4932597937295,-325.5083702845732,-302.6566897816956,-141.18355835188413,-286.1157221008325,-293.664595817565,-323.8858750790823
2025-12-12 18:01:52.483477,Right,-320.93245614744956,-366.2728680126602,-373.1624729700852,-354.0289479830535,-136.09690243622754,-335.95516768912785,-342.55151854269207,-370.79576155077666
2025-12-12 18:01:52.486478,Right,-268.63642493635416,-302.6712111674715,-307.40533076331485,-294.8548126522219,-252.42186658008723,-273.7959648066899,-283.1512856580084,-311.0725157732377
2025-12-12 18:01:52.490504,Right,-207.82646840269445,-243.53706100815907,-249.1078250563005,-236.39879474660847,-274.4724348357995,-215.49970519088674,-225.47737834323198,-254.48494889307767
2025-12-12 18:01:52.495462,Right,-249.0699389919173,-295.67503917764407,-302.852011440089,-286.62961880431976,-159.44276817690115,-267.45253157708794,-275.0909773836611,-303.2003473342629
2025-12-12 18:01:52.499518,Right,-303.39506896492094,-348.50974557048175,-354.40876817901153,-340.98418395780027,-112.75544633960817,-321.10090524167754,-329.0185173449572,-353.64321636769455
2025-12-12 18:01:52.503538,Right,-251.0386278993683,-283.42484828841407,-286.76710207853466,-279.8228409002768,-206.60538913920755,-258.5887008695863,-270.2469368693419,-293.13795206625946
2025-12-12 18:01:52.506474,Right,-171.3796707491856,-202.23432873992715,-205.57320095342584,-198.4324228555197,-250.28860810853075,-179.5557218969334,-192.12261792703066,-217.39340519183315
2025-12-12 18:01:52.510481,Right,-196.85744401882403,-239.17241130734328,-243.90901728265453,-231.30855768430047,-148.49026653595502,-216.77829266688786,-225.33029030426405,-252.9277336411178
2025-12-12 18:01:52.514553,Right,-264.2008929573349,-308.1389471652219,-311.70192701742053,-299.5142357177101,-78.25127438735217,-285.8732428452349,-291.75963226275053,-317.4670398492599
2025-12-12 18:01:52.518584,Right,-233.14809300814522,-263.82663543277886,-264.4796815648442,-259.1504704611143,-158.65641685097944,-242.85875515826046,-251.30537816672586,-273.66684363468084
2025-12-12 18:01:52.523571,Right,-151.94872412632685,-177.2298975827871,-177.7325347349979,-174.71570081450045,-231.6938816109905,-156.91488027811283,-168.4838016825961,-190.98711099522188
2025-12-12 18:01:52.527593,Right,-168.50136624608422,-204.87279969942756,-208.13548010447994,-200.63200957665686,-159.19662862841506,-183.47072270466015,-194.61061516753398,-219.8077491504373
2025-12-12 18:01:52.531606,Right,-249.29508011398138,-291.38913817482535,-295.9690599987516,-287.5154068097472,-76.99149362742901,-269.75381257693516,-280.42518514947733,-306.5258398037404
2025-12-12 18:01:52.534629,Right,-235.88814300164813,-266.17292290448677,-269.6737454085378,-266.98258944263216,-134.67166211712174,-247.16177186369896,-260.50353590218583,-285.64747631165665
2025-12-12 18:01:52.538622,Right,-141.16445147671038,-162.31675410061143,-165.98990263219457,-165.59114919474814,-214.83280646277126,-146.14253918780014,-160.86262113699922,-186.4346624541795
2025-12-12 18:01:52.542655,Right,-131.29323200159706,-161.54428117384668,-167.35667133051902,-161.28838006424485,-157.84329211496515,-144.776315487572,-155.6419343172456,-182.77856317558326
2025-12-12 18:01:52.546661,Right,-219.77884571912,-259.765878823353,-265.65973911678884,-255.7446300726151,-65.31397616292816,-239.808816199773,-246.4163318745559,-272.80680156406015
2025-12-12 18:01:52.550648,Right,-240.32315824500984,-272.3467549436609,-275.00481194176245,-269.1652093391167,-109.17129802773707,-250.31566545245005,-258.00753467850154,-281.1213788941968
2025-12-12 18:01:52.555683,Right,-150.90519726159982,-171.24198674276704,-171.61298134370008,-169.06722623406677,-204.67653794091893,-149.13318454823457,-159.9425649024779,-180.67647147201933
2025-12-12 18:01:52.559702,Right,-108.20562375657028,-132.62810608366271,-134.11833914619638,-126.81060781143606,-164.99521736812312,-110.04377093428047,-119.94926593702985,-140.2171636801213
2025-12-12 18:01:52.562700,Right,-177.71172074601054,-211.1672893780633,-213.73303079576,-201.19034628669033,-52.10922476218548,-186.89934040477965,-194.0670779813663,-213.19916596997064
2025-12-12 18:01:52.566724,Right,-216.96445771859726,-244.64375725132413,-245.34028840175597,-235.56532374204835,-65.13222559948917,-219.71234007837484,-228.06256569596007,-244.53094320057426
2025-12-12 18:01:52.570671,Right,-143.35453653061995,-159.21319735178258,-157.7553878959152,-153.06475856847828,-169.64894977147924,-135.8310652480577,-147.1823826658656,-161.79763296537567
2025-12-12 18:01:52.574767,Right,-84.58136229257798,-103.05576072394615,-101.93791554757627,-96.39309444482205,-160.0420782281435,-81.84151621448109,-91.50620763830375,-105.7465379407513
2025-12-12 18:01:52.578774,Right,-135.55199129343964,-164.29688220500248,-163.5116263604723,-156.14511129405582,-41.83184175309725,-144.95503244461725,-149.43092964205425,-162.30383524222998
2025-12-12 18:01:52.582750,Right,-181.0416393398773,-206.08814069372602,-202.69886561325984,-200.7867066777544,-22.061509450664744,-189.5541816680343,-192.48011737311026,-202.3601962730172
2025-12-12 18:01:52.587720,Right,-114.98009046987863,-126.48501382925315,-120.03834358556196,-125.73078677104786,-124.48575273546157,-113.69077528081834,-119.34222022263566,-127.51538862346206
2025-12-12 18:01:52.590723,Right,-42.92021551565267,-53.36747079738416,-46.944203172810376,-52.492970397521276,-146.43501140270382,-42.714931183087174,-49.17078645725269,-58.12777632090729
2025-12-12 18:01:52.594773,Right,-87.29162772203563,-107.98228214401752,-102.75912014616188,-104.00848021061393,-37.76811667100992,-96.8517823216389,-101.0800637412467,-110.31123633490643
2025-12-12 18:01:52.598807,Right,-159.9802718377905,-179.86495982465567,-173.22974934830563,-176.84210697148228,4.857263014477212,-168.37084133992903,-173.0186649543466,-179.9742842465057
2025-12-12 18:01:52.602820,Right,-127.11256522207987,-133.7742535319412,-124.58014088345226,-135.49071926722536,-95.80550384655362,-124.33274131693179,-133.10090799146565,-137.838969841192
2025-12-12 18:01:52.606827,Right,-55.716692485439125,-59.27816183347022,-50.56631920253858,-62.52847595361527,-153.43457900674548,-52.712368610547855,-62.89373936597258,-68.12268725596368
2025-12-12 18:01:52.610884,Right,-81.13475948141422,-96.10493328259327,-90.12605161423562,-96.63291590369772,-63.61473529681098,-91.00062310660724,-97.46392071573064,-103.82317450578557
2025-12-12 18:01:52.615885,Right,-147.3649396620458,-166.12962764082476,-160.7244320771424,-166.0551715347683,5.734765364264604,-161.78788185218582,-165.65722364676185,-170.83341935405042
2025-12-12 18:01:52.618842,Right,-111.15888509637443,-118.69624812551774,-111.58670508809155,-121.87502741842763,-68.71952009404777,-115.71665909682633,-122.08722277038032,-125.31073793687392
2025-12-12 18:01:52.622890,Right,-16.866198333504144,-19.21640691149514,-12.091026642476209,-23.651059142663144,-136.65140292514116,-16.997754320967942,-25.979673526016995,-29.45643809385365
2025-12-12 18:01:52.626882,Right,-22.996132412401494,-36.0267424719641,-30.880652690015268,-37.69317360239802,-59.74653966605547,-32.596586772066075,-39.96853783848928,-44.67377450695494
2025-12-12 18:01:52.630902,Right,-109.72961439931532,-128.86065700929612,-123.64845829940168,-129.5635329480283,26.287187759764493,-123.84308806597255,-129.57743558177026,-133.41423788428074
2025-12-12 18:01:52.636899,Right,-112.2744739340269,-119.87135342415422,-111.83018609631108,-124.04924744379241,-34.23873697736417,-115.08418431808241,-123.41310366574908,-125.24847037094878
2025-12-12 18:01:52.639919,Right,-22.89332922169706,-20.09697368182242,-10.630631972453557,-26.274532674637157,-123.31425102360663,-16.418263276980724,-27.00475807976909,-28.956695934932213
2025-12-12 18:01:52.643937,Right,-1.7662556493887678,-5.88888211856829,2.198211514041759,-8.75878394593019,-67.79125878715422,-1.9786962393554859,-8.904929217183962,-12.392043358588126
2025-12-12 18:01:52.646944,Right,-78.06315588852158,-90.74476056656567,-82.94793564558495,-90.25441850110656,36.76782439133967,-85.73459346062737,-87.08500125928549,-89.95738641277421
2025-12-12 18:01:52.650952,Right,-98.32855079887668,-103.65191396482987,-93.21391229674919,-104.35107046272606,3.0129509242542554,-98.60982124949805,-99.64070352294948,-99.78059460950317
2025-12-12 18:01:52.654962,Right,-14.51081194379367,-9.813392036652658,2.5881349378614686,-11.87717369949678,-98.84973434181302,-5.489124184590764,-9.791993328602985,-8.440096301550511
2025-12-12 18:01:52.658957,Right,27.793664401804563,26.61658876267029,37.99887042026967,27.656492343521677,-71.26834623020841,31.176358235243242,26.490597839001566,27.771234940330032
2025-12-12 18:01:52.662930,Right,-37.05254105239874,-48.257892894675024,-37.75453476596158,-43.991874423692934,42.92281907610595,-43.00980581517797,-45.706201465567574,-42.876189665170386
2025-12-12 18:01:52.667012,Right,-73.1017630508286,-77.83443553821417,-65.60767122887773,-75.73172122775577,40.78894709754968,-73.47010858432623,-77.05444085341878,-70.66121731227031
2025-12-12 18:01:52.671007,Right,0.3133532089414075,9.360375428455882,22.957522931101266,7.602151544881053,-62.83855480753118,11.674276573001407,5.24436480528675,13.505058247945271
2025-12-12 18:01:52.674023,Right,56.501138034887845,64.11792855150998,75.91752522659954,63.1086841908982,-64.48859917678055,65.70281040566624,59.88073464878835,66.91282026196131
2025-12-12 18:01:52.678041,Right,-0.30611854285234585,-3.7943922980339266,5.934719152224716,-1.9806945340242237,47.99718720841338,-1.5531385075300932,-4.256121032696683,1.9087434274260886
2025-12-12 18:01:52.683045,Right,-54.23050219510333,-55.79504268837627,-44.708752376551274,-55.562876557931304,73.91794919141103,-54.09947635914432,-57.446711467258865,-49.578393010946456
2025-12-12 18:01:52.687041,Right,4.601333194266772,15.172198775224388,28.987155348353554,11.14610841459944,-25.65014885610435,14.662177798192715,6.9065390804898925,16.346021062810905
2025-12-12 18:01:52.691063,Right,71.85749164433219,81.83330107884831,95.690339651861,77.72116047760937,-57.53008602274349,80.13039092044346,71.12540223624092,79.68192632304272
2025-12-12 18:01:52.695135,Right,23.37403403429198,20.349747116299113,32.674338867509505,19.85029584847507,41.00292805841309,19.660396604595007,14.389868922065943,21.89590980586945
2025-12-12 18:01:52.699077,Right,-49.13628226987203,-53.7443943611579,-40.781940153450705,-53.53078216916765,87.08475798764266,-53.43487155245384,-56.22680388620938,-47.51344330076245
2025-12-12 18:01:52.702058,Right,-3.7728976622747723,5.002105877996655,19.781704315828392,2.585430571140023,-1.272584470716538,4.633200275042327,0.1210639683122281,10.262511424167315
2025-12-12 18:01:52.706112,Right,88.96204054317786,102.62811610114295,116.35859566775616,100.41818514105398,-49.080104128603125,101.54969887482002,96.21116324560717,105.19490481753019
2025-12-12 18:01:52.711128,Right,73.55191695873509,75.93122982713976,86.34391358713037,77.56637542141834,46.24100854102289,75.90805742310476,73.4861490514013,80.2142847647192
2025-12-12 18:01:52.715134,Right,-8.229711072228383,-11.88293374539353,-2.5114274765946902,-9.207917133899173,117.5959785321611,-10.357456485246075,-11.148151069210144,-4.710983417840907
2025-12-12 18:01:52.719146,Right,0.9532644306018483,7.059756390895927,18.25933768649702,6.227243956236634,37.40898754366208,8.8071109574812,5.121373873233097,12.607107404386625
2025-12-12 18:01:52.723159,Right,84.70800513451104,97.42931054308428,109.41812583550927,94.94355239410652,-41.88164971648075,99.10068299344857,93.09407144170837,100.5225677775743
2025-12-12 18:01:52.726175,Right,90.57293794647558,94.92705050128279,105.79948606182006,95.52589304963476,31.326349190829205,97.93569821497658,94.42397514634649,101.59437600694946
2025-12-12 18:01:52.730178,Right,16.39688643286354,15.029892934806412,26.40680724143749,17.649310210486874,125.81846431805752,19.63902714656433,18.963485207466874,28.27880782057764
2025-12-12 18:01:52.734192,Right,9.774106777680572,18.79360395486583,32.93705654423684,18.66110685779131,70.68558557503275,23.169261461880524,20.845643512555398,33.38146399174002
2025-12-12 18:01:52.739196,Right,87.18013275263365,106.04066904319916,121.11538521430339,103.35136661829893,-27.94404094105994,109.10872525913874,104.54598283674568,117.60020575695671
2025-12-12 18:01:52.743206,Right,102.11270926446014,114.35245404866873,127.14064305374632,113.30611966201104,13.873355378149427,117.151834479635,115.13226069250959,126.34534113216796
2025-12-12 18:01:52.747233,Right,22.677623043069616,26.506983727857005,37.88274061885022,26.744498662184924,115.30876238534984,29.442967346360092,31.61135894918698,42.46345059905434
2025-12-12 18:01:52.751242,Right,-3.264583889307687,8.171440226695267,21.191384895675583,4.947699424243183,84.05575819080696,9.372152457697666,11.521700451950892,23.954256219076342
2025-12-12 18:01:52.754244,Right,77.59717485660804,100.04813809966436,114.14408610085957,93.10945199464913,-22.512187307322165,98.413434193586,98.2971331038716,110.96684996156546
2025-12-12 18:01:52.758275,Right,122.26807776240457,139.56207097657898,151.60570274989004,134.21225001639687,-3.775371044903295,137.33527039196633,138.27443642263825,149.39080380662926
2025-12-12 18:01:52.762274,Right,55.514046028401935,61.728056200867286,72.02543388280901,59.8087570884818,109.35080713221396,61.64072223326366,65.41890230683202,76.57354549312731
2025-12-12 18:01:52.766229,Right,7.522278458520304,17.886123836564366,30.024849644396454,15.011805663685664,111.17257700208575,19.466033384233015,22.09392890750314,35.58260334546503
2025-12-12 18:01:52.771282,Right,68.64211813842121,90.94654852540407,105.76469832079601,84.81461234216113,3.250184044591151,91.99861409784353,90.57049867056776,104.95771184933255
2025-12-12 18:01:52.775319,Right,121.01644370143185,140.99358769145329,155.63472557853675,135.29161666896835,-10.734187489382748,140.91230165481102,138.92219000788464,151.16017039054714
2025-12-12 18:01:52.779321,Right,62.37396750708285,70.62163522788615,84.02405592252035,67.5723755494837,94.33867572225427,69.52952622327575,70.56036924342334,81.10646755703783
2025-12-12 18:01:52.783325,Right,2.383915340913518,12.498298861770309,26.948184696528187,8.400518207097775,120.83684315789287,8.715770600058022,10.055231244303286,21.915941278784885
2025-12-12 18:01:52.787294,Right,59.779651511780685,83.27681335331727,99.46728000562871,75.6057910423624,20.676899741658417,74.83487786394835,72.86888803815964,86.53366859939706
2025-12-12 18:01:52.790368,Right,137.10967229500238,161.52263566714828,176.78257168010168,154.08902318000037,-14.88903722466057,149.28711961034423,146.6151496822422,160.06539490021532
2025-12-12 18:01:52.794370,Right,99.18289914052002,110.52454562392086,123.6528496187384,106.52973239638231,85.32722120003746,96.74692718077858,97.78906187937537,111.05940197219752
2025-12-12 18:01:52.800409,Right,25.70979397152405,34.11940640120156,47.67853785992702,29.82934494734218,138.85635319121502,18.589073925330013,21.829997125110822,37.38982895276422
2025-12-12 18:01:52.803393,Right,64.44468794291242,85.63425655591709,101.22670364077567,76.69581111859225,51.85542118934973,66.46839687025931,67.55433552221803,85.94579405520926
2025-12-12 18:01:52.807428,Right,155.9793509514966,182.81687295883967,198.00948641380637,171.79187327402906,-4.896053149168438,160.7661035250312,160.38710863512824,179.29102492806123
2025-12-12 18:01:52.811431,Right,142.73880090648163,159.08172762266986,171.83198096551314,150.52661831127625,83.08780502274385,137.8926311282503,139.60708073252317,157.89053656237957
2025-12-12 18:01:52.814431,Right,60.71661502251118,70.9986779114588,83.56244700868638,63.57698078926114,157.5164874283937,53.17630094077413,55.49702147977405,74.69718707757238
2025-12-12 18:01:52.818387,Right,72.03871996928683,91.60654717168381,106.59893891790762,81.81845457931513,82.70607300910478,76.63836939182642,74.70340277811374,95.4588017175538
2025-12-12 18:01:52.822467,Right,163.94120803434578,189.07169743597586,204.80314280443054,179.18065299578348,1.109070449164335,176.4878282295531,170.5040533420979,190.84366937811592
2025-12-12 18:01:52.826500,Right,173.56076305315128,187.92374358131383,201.5731636605051,182.91446591511703,68.99545058027797,179.0602208914479,173.91921889982268,192.67096085542653
2025-12-12 18:01:52.831482,Right,90.22699592291974,95.78710490950289,108.45883585318006,94.74531734696029,164.20907046881257,91.09390960234305,88.01046394011428,106.78412281495184
2025-12-12 18:01:52.835512,Right,71.12341875698075,85.2042930176176,99.53463963366812,83.02931313647787,112.3394948121877,82.65667493376532,78.0635138432499,97.8423021554081
2025-12-12 18:01:52.838527,Right,145.29329662460805,168.85259752962156,183.8405783189155,165.19328813633183,10.609206410295883,166.88298507958098,160.1113462934809,178.7951961140061
2025-12-12 18:01:52.842510,Right,163.07900239429,179.5460660667486,192.35384669983614,178.55846257225494,46.41008577893081,179.12599053073063,174.3150360257241,190.01668459317443
2025-12-12 18:01:52.846463,Right,81.85704218655519,88.77908888807724,100.04980899171642,90.56646600027307,149.2412974034305,90.9437757069827,89.30589815533313,103.523513930224
2025-12-12 18:01:52.850526,Right,47.64839759455208,61.7480110640754,74.37259306875058,61.910768829991866,124.03807879618762,65.50971971898252,62.20924167837802,77.13027573005093
2025-12-12 18:01:52.854575,Right,120.52043553664407,146.44120475035743,160.05999816906115,144.7176930788046,15.786540749584674,150.9996273703946,142.82532737868314,157.665865465744
2025-12-12 18:01:52.859504,Right,161.169016945576,182.21502850989054,193.83275612991565,183.74697687994194,25.07428399640048,188.9707516283088,178.95030592808325,191.80593768982362
2025-12-12 18:01:52.862561,Right,92.25975419702445,100.65045098010887,110.22718199546216,106.99257224250323,133.57534722374112,110.7120241266166,101.4274304493083,112.87889583926881
2025-12-12 18:01:52.866520,Right,45.27036484343989,55.937431370970444,66.37224741079262,62.30962461891613,139.72852985064674,67.52043394390057,55.843017755265464,67.41179516889679
2025-12-12 18:01:52.870602,Right,116.62949457580544,139.1393936465538,150.61163002584362,143.13423689370393,37.11157155836554,149.99747385455703,133.00432350867777,143.51212584823952
2025-12-12 18:01:52.874615,Right,186.80394057164085,207.64475430331368,216.9511373143032,213.37075163715053,26.772797254256147,218.48243093631754,199.17089755402412,206.42936233518412
2025-12-12 18:01:52.878645,Right,139.95301553004538,147.73019250937796,153.91960682622448,157.75796264142264,139.6353844995392,160.63643795091775,142.399120046015,147.59696663140494
2025-12-12 18:01:52.882620,Right,76.53400833652995,82.68823666297249,88.52437414431188,92.71586651001417,175.77757389162434,97.38135721402068,77.6408369030105,84.21820189023856
2025-12-12 18:01:52.887652,Right,124.13416265619162,140.76732490303402,147.40526774431055,146.85120842108154,75.68156124551751,154.99870210739027,130.48053378421173,139.1390869263123
2025-12-12 18:01:52.890656,Right,198.598591125221,215.48042440797144,220.3848824814777,220.49254891689634,29.838538221651106,228.3978030191647,202.6379309911572,211.2573503577878
2025-12-12 18:01:52.893662,Right,159.9551742906915,164.04535525775282,166.047801208304,171.69060759690183,121.61614854873915,176.28134675546607,155.24109842763573,163.6209912916238
2025-12-12 18:01:52.898689,Right,72.61376035331341,73.38767778599868,75.41291153541533,81.3523533869884,171.32245733943273,84.24098969595798,67.56257453397848,78.25732567820523
2025-12-12 18:01:52.902690,Right,86.19590431571123,98.90683445133618,103.11838295658526,104.01334719274018,73.8065709171351,106.69839421624783,89.93137035051768,103.83280169736827
2025-12-12 18:01:52.906704,Right,161.20833415302332,179.04744104148995,183.25644433900015,184.34138831710152,-1.2173925244715065,184.41887308414152,167.55328652326716,182.45854245353257
2025-12-12 18:01:52.910729,Right,149.43670829877374,156.6642135057191,158.6525186955114,166.51080263131007,77.77794028757489,162.35684568152647,149.16994070600776,163.79453416739125
2025-12-12 18:01:52.915710,Right,73.72026534400356,75.4195946809632,77.1565777415235,87.34630165151611,160.42758720293932,82.19810036069248,72.349524796271,88.3438858337031
2025-12-12 18:01:52.918739,Right,81.67139757733094,94.62848292014678,98.5196976645966,103.26664021829492,94.38409393510665,100.32811611967918,89.5113778468949,108.02761481745983
2025-12-12 18:01:52.921719,Right,162.59141663271294,184.28357807427528,188.44950108751073,190.48781619950023,6.469190066534793,187.5508178320306,175.65151396743022,195.06700079495204
2025-12-12 18:01:52.925759,Right,163.29278302296007,176.71760285836353,178.12970288234646,185.22831034766568,62.45197815231222,178.64948013761023,170.34895234332362,189.4221723927476
2025-12-12 18:01:52.930704,Right,76.69587773976673,81.76726953600883,81.46833381117904,92.06588734702382,156.8772605075501,83.08101578147034,79.26057531037077,99.57953556341818
2025-12-12 18:01:52.934773,Right,59.89031943582813,72.74503578693839,73.57583206363779,80.19902645949333,111.92908164410619,72.44303504000709,68.26414958560781,91.05400165222818
2025-12-12 18:01:52.938804,Right,142.1083863759559,164.0347876201704,165.25398655784375,168.84647116914857,10.924763513641665,161.9150302647904,155.2629980576021,178.5159334441705
2025-12-12 18:01:52.942800,Right,168.13107877790753,182.73127068894973,181.58001812756993,189.6744062973885,41.96421762859973,180.4711533804075,175.1387036380329,196.64234703281545
2025-12-12 18:01:52.946790,Right,87.1289202861808,91.23753489830415,88.32526586719905,100.6916693476669,145.54541370650986,89.50791937341273,87.465344430384,108.08611602403107
2025-12-12 18:01:52.949826,Right,49.69335100642638,60.0009850897477,58.15466633831966,67.17634695841116,126.72235210391227,56.702977601322345,54.29071477803518,75.26718236599118
2025-12-12 18:01:52.953872,Right,130.48226186419197,152.94915877014864,151.5345080300176,156.81235201837262,22.0096995831409,146.23513539222768,141.42345999844838,160.74547937093303
2025-12-12 18:01:52.958880,Right,190.64007597375894,209.3829497907427,204.83194884180557,214.52306338390918,33.03363546298351,200.62694437618484,197.31351799762342,212.22586685791612
2025-12-12 18:01:52.962880,Right,132.86987835998298,139.1144894596946,131.06265049238573,146.91405698182643,148.6149994937732,130.6795951063541,131.45755392617139,142.93635076016653
2025-12-12 18:01:52.966877,Right,74.31579566524306,81.63982103663147,73.63523988725501,87.16321067215176,161.7083884299791,73.22197270307515,73.9792952191201,85.28325792288524
2025-12-12 18:01:52.970889,Right,121.57947546710784,139.68985278680339,133.2816752215731,140.2069653341605,52.26867278687132,129.24872790745576,126.04828485884354,138.027881692542
2025-12-12 18:01:52.974924,Right,172.35323628911283,188.8963599760027,181.99128559607198,188.50395472257514,22.85591375702643,176.02980322197254,172.04501561715733,183.406869081693
2025-12-12 18:01:52.977899,Right,112.72412228187022,117.08844679198228,109.32894968282199,119.19612476695329,120.87307599841733,102.93698677478824,102.9925555276277,114.22291025696904
2025-12-12 18:01:52.981936,Right,37.90990255457291,42.22927864282974,36.90433510564617,43.91661895575817,153.00402756962285,26.760616580257192,29.59498225536663,42.60862332661054
2025-12-12 18:01:52.986926,Right,79.56314083722827,97.11813953341334,95.67537745993468,95.46827787376242,50.333453458122676,79.2555308562587,81.21888408568338,95.33737504438614
2025-12-12 18:01:52.992969,Right,159.65499429567717,180.5306704158429,179.8686634588521,178.59138741102652,-0.5128422422130825,160.65934596466832,163.29307246569078,175.61710861424217
2025-12-12 18:01:52.995953,Right,132.44146963195817,141.94379936205223,139.69686960513354,142.85111246767337,93.6314669430576,121.4071967068885,128.6957266034733,138.86262612321298
2025-12-12 18:01:52.999955,Right,52.0747860231786,57.78415468989988,55.982649077894166,58.158499687502626,156.25103016554203,36.00534914547461,46.714424556092126,57.44776749884477
2025-12-12 18:01:53.002975,Right,67.36888459083275,84.601312112296,85.14808038956835,80.0833523098554,68.39945835027902,59.64891211997019,69.44952489130083,81.89127648455906
2025-12-12 18:01:53.006989,Right,142.36683366040234,165.61049427822581,166.174749301048,158.6644793493324,-10.525548016041284,137.82230282056844,147.38446790989838,159.80760795529932
2025-12-12 18:01:53.010938,Right,126.4731322373409,140.29862250134465,138.2464118929347,135.87959978423896,60.09734652900079,112.7007140359201,126.25718429347035,138.20948222352308
2025-12-12 18:01:53.013959,Right,40.894215137464926,49.459955825761426,46.37177233869443,46.58569225925021,141.88533283204015,24.139269019273343,40.88362373542623,54.59409732781933
2025-12-12 18:01:53.018028,Right,41.50616255290515,60.80941665294813,59.172812583710765,55.520630944432924,78.30618711342686,37.19826120516518,51.91590848893975,67.95993790405919
2025-12-12 18:01:53.022033,Right,125.93625944502128,153.07991723020677,151.50154992833268,146.82652835757472,-12.78048511252564,130.3584369002201,142.6616471792222,157.86039011506364
2025-12-12 18:01:53.026041,Right,134.7383758283977,152.02851501034456,147.95653730045888,149.43566131280386,38.74357718383544,130.60787216183962,145.71732074921601,157.56179951358354
2025-12-12 18:01:53.030996,Right,47.355015155422734,54.081604444625555,48.750452247215435,54.18196117901243,135.5885628337419,33.543943459226284,52.91773588719661,62.824780684517464
2025-12-12 18:01:53.035020,Right,21.407874542986974,34.28647577227093,30.396817117434694,31.869218057545368,94.90244627243374,12.508723178441869,31.31622045725817,41.005087246361654
2025-12-12 18:01:53.039062,Right,102.12051764124772,123.68760010553524,119.99546062853187,118.72034891191288,-8.090560923446901,99.95411255610816,115.73276666097809,123.4964128054271
2025-12-12 18:01:53.042071,Right,141.88832159567391,155.74739090850926,148.78347622745787,153.62048558905371,21.59557629840856,132.64903037040494,149.07478422680288,152.7130976525077
2025-12-12 18:01:53.046090,Right,75.53002539923182,77.20992688188562,67.38431887334445,79.27225923191872,134.853979706706,57.41717853087175,76.56813921633875,77.56899782569963
2025-12-12 18:01:53.050105,Right,36.03540228390193,41.94744024676038,32.999698755389545,43.532792213663924,128.17882397813082,24.812882120415452,42.74996453008498,44.28752393941977
2025-12-12 18:01:53.054121,Right,99.00455498104566,116.91899754625047,109.70433123793919,116.04760495078517,20.180785456032027,100.0636609718349,114.17350222522509,116.82775263255462
2025-12-12 18:01:53.058128,Right,138.30821983177157,154.3405965413258,146.2641601980431,154.72841808974044,13.335531340373564,136.84535424299247,151.14042959007202,153.93435264658183
2025-12-12 18:01:53.063139,Right,64.47758310846984,70.39419912808808,61.106299254111946,73.5052994757134,114.56209964655864,52.35647055125446,70.54992783261696,74.62182282085996
2025-12-12 18:01:53.067136,Right,-1.3470275795989437,7.952506650675787,0.2922213234414812,9.5004660692357,124.6288179577241,-11.650276205065893,7.485218606656417,14.881885225826409
2025-12-12 18:01:53.070172,Right,51.961886898003286,74.40379076317186,68.78470811113948,72.16025686686044,14.578320162356249,52.047007147746626,68.44594873095048,78.07575250699301
2025-12-12 18:01:53.074169,Right,118.16621393115201,140.51276731467806,133.48673006976605,138.67266608570935,-17.531565869649057,116.35001142062538,132.59880318734213,141.2381892534322
2025-12-12 18:01:53.078187,Right,68.49798258728697,78.04433003242593,68.10200414533028,79.60164526599692,82.97082111953932,53.899259895450086,73.89195788127836,80.92348221459542
2025-12-12 18:01:53.082198,Right,-11.229970640342799,-3.8461114025267307,-13.712509840683197,-2.705375266261399,123.31112651363946,-28.028616365947528,-6.644430074724369,0.816638288757531
2025-12-12 18:01:53.086157,Right,17.777451997535536,36.580607432173565,28.9774903212965,33.55748730865889,21.8104050388647,11.623539421532769,29.706837019330123,37.829292987298686
2025-12-12 18:01:53.091210,Right,89.85381717182463,111.10974223239464,103.6950028402789,106.86241357479594,-39.9123932919465,86.97584402940993,102.8245487207023,109.47918765438953
2025-12-12 18:01:53.095291,Right,61.743369675197755,70.76586365213734,61.58851062909525,68.99395172779623,44.5847326774674,50.105949452656205,67.90790306312556,72.8160330785322
2025-12-12 18:01:53.098191,Right,-16.71929937765526,-12.957475909119239,-22.09070053094183,-15.21827499990468,109.13855216492084,-30.496971698943526,-11.55586000457697,-6.049400969117414
2025-12-12 18:01:53.102257,Right,3.911536284518661,17.71772441052599,10.240014596303809,10.299867526337039,26.729856904305052,-0.010108228321769275,15.991880521425628,22.72322457941482
2025-12-12 18:01:53.106253,Right,90.21756888649543,108.72083350589674,100.49806646595243,98.1510545349156,-52.81100283887645,89.0053596629732,102.85638141406525,108.39272480137879
2025-12-12 18:01:53.110277,Right,84.29601164623455,91.25551414508664,79.82773535003071,82.86067519412609,16.585421506897546,71.39627054010634,87.61775231210049,90.69424582473584
2025-12-12 18:01:53.114236,Right,-3.294957082136534,-4.563544830918545,-17.07628258356999,-10.77786351328541,103.77455067573464,-22.002362536091823,-3.7712940131605137,-1.3795113404339645
2025-12-12 18:01:53.118324,Right,-12.549995249544736,-5.001476353529142,-15.33629079363891,-12.491372369186138,45.728299213631544,-19.521651933784597,-4.423389093979495,-1.6868245076329913
2025-12-12 18:01:53.123334,Right,68.835297219528,84.52167824648495,75.2867660253687,77.07446864247322,-47.82291571119276,72.56076610734453,83.71025458321674,84.89784066262655
2025-12-12 18:01:53.126357,Right,83.91724945495662,90.88360046161688,79.63052293907094,88.14298940263689,-0.43050661507004406,81.8918765756971,94.150555455024,92.50983295272454
2025-12-12 18:01:53.130356,Right,0.08270647183235269,-3.0627602181921247,-15.83669972869393,-1.7373830804863246,100.13817051285878,-9.185553021292435,6.204905286664143,3.5748624427214963
2025-12-12 18:01:53.134365,Right,-30.788490046499646,-27.240923732926603,-38.807713502814295,-27.173140793122002,65.50134415729553,-31.986938823814853,-17.70826184032194,-19.79872472365969
2025-12-12 18:01:53.138322,Right,43.533106316943304,57.6213554313581,46.65134910658526,55.64920800937398,-40.51600599978701,53.605751442475594,64.18493572961597,60.76770179577579
2025-12-12 18:01:53.142377,Right,78.50808889023028,87.08902300758928,73.68956489063567,87.70706132501073,-19.918912280074437,85.34822713928588,95.45860894289217,88.6697066687484
2025-12-12 18:01:53.147351,Right,2.8217840529978275,-0.02866272679239046,-15.429738569509936,4.138814951147651,89.73403157453868,1.5181068896636134,13.201041826978326,4.825978629291058
2025-12-12 18:01:53.150407,Right,-48.58505896796123,-47.73794194673246,-61.38757865852676,-44.90354863129323,84.6922299710277,-44.78767979684926,-35.25685389881255,-42.04756921264925
2025-12-12 18:01:53.153418,Right,14.761415077111451,27.187355439571547,16.387845056058723,26.614103515908937,-25.114563750088564,29.073358440757147,33.707244559787796,28.348812272277428
2025-12-12 18:01:53.158417,Right,72.01441567477013,82.17406931384176,71.73721495755308,82.21442496938107,-35.13906781979313,83.00825429140241,86.53391318682407,80.38433142116992
2025-12-12 18:01:53.162435,Right,17.454836181321298,16.09209632128477,5.345616707098088,18.835252871343982,71.25514149466471,16.903066024708096,23.584703774773516,16.972815246117534
2025-12-12 18:01:53.166458,Right,-43.480860307390685,-43.41818743912154,-52.059976217118674,-42.019838367035845,91.73727652106754,-43.61823636361805,-35.514155072844005,-40.19150049051677
2025-12-12 18:01:53.170451,Right,5.051417476541246,17.27920262578118,10.998219946981408,14.564304292900488,-17.05839259284403,14.178265316018951,20.94667736669362,18.350241982450825
2025-12-12 18:01:53.174499,Right,68.899861849437,80.9899267443252,73.59089203232725,77.7446997109073,-59.338291041545745,75.43007173802471,83.757015088544,81.25832592304505
2025-12-12 18:01:53.178494,Right,20.0333172371611,18.76363692728046,8.579134786254144,18.159374617171125,33.873140585063084,13.099092135380488,26.71864661258587,24.24416391106206
2025-12-12 18:01:53.181497,Right,-60.16480909628444,-64.78408592868072,-74.97116339027707,-65.83433843459352,77.71780975058209,-69.326763413148,-53.60253514848591,-54.35402098650229
2025-12-12 18:01:53.185522,Right,-29.753586966122384,-23.231485779077047,-31.30828551921877,-27.945684412130504,-18.470454505113594,-26.904743393039098,-15.053230065837852,-14.787921979979728
2025-12-12 18:01:53.190461,Right,48.776750887875096,58.85368191663292,50.84971103466523,53.744156665343326,-80.48533256435621,56.36760011124716,64.68872515340627,62.94389801057696
2025-12-12 18:01:53.195540,Right,23.376258058837266,22.42183047554863,12.618130453120102,21.179213411392993,4.306783310654282,21.7905700726551,31.19058763087378,26.949310733310995
2025-12-12 18:01:53.199519,Right,-66.1107289736683,-71.57935538059974,-81.14358500581875,-71.21084892713407,74.25082185035717,-71.50494893409632,-60.77971131406957,-64.53871093745693
2025-12-12 18:01:53.202548,Right,-63.112557373598975,-57.25755896362534,-64.52910440434789,-59.53636110125808,-6.053012589021819,-58.6669547903075,-49.95303377852542,-51.69722638743406
2025-12-12 18:01:53.205548,Right,16.590947937918827,29.173413862416055,22.10129968124238,26.046134093296132,-92.17867223449866,26.352912193338852,33.76540979150741,31.883610950812
2025-12-12 18:01:53.209585,Right,19.778343066158413,22.10399571430753,12.515834632140468,22.39119966539147,-27.75892894809658,20.090409730531974,30.317731403454673,26.397177847014973
2025-12-12 18:01:53.213582,Right,-55.36561965988221,-61.54472784460813,-72.13912943038304,-59.694781150712515,65.02126145537477,-62.36213752125332,-49.59448907780461,-54.405262749656686
2025-12-12 18:01:53.218536,Right,-58.22236218787293,-56.14487370362622,-64.68038211108797,-57.99263048598368,14.045951360043546,-58.22509687606362,-47.63785943215771,-51.96999152711942
2025-12-12 18:01:53.222643,Right,27.2524309544242,37.81467519832222,30.82680010389595,33.07607481400191,-82.38400401040417,33.22675062438066,40.79174787880038,35.952872322232
2025-12-12 18:01:53.226632,Right,47.609984224138316,49.96119488162367,42.26009955292102,48.091919181162666,-41.29619392151653,45.08420324484905,54.238353346874646,48.087924718813156
2025-12-12 18:01:53.230628,Right,-34.396600009036774,-42.52513897679455,-49.87852466293407,-40.71410486988316,61.87074149270484,-45.41329199678876,-32.87698830651061,-38.43114698339923
2025-12-12 18:01:53.233635,Right,-67.81727004591812,-69.98988664169156,-74.12818821948167,-69.56605794097413,34.68156747725152,-71.42048420166975,-59.89202897626819,-63.065177775490156
2025-12-12 18:01:53.237645,Right,7.249719606392318,15.396159915340832,13.54618219690019,12.592820646765176,-71.7976558931914,14.392786253119993,21.70483342587977,19.242987447178166
2025-12-12 18:01:53.241665,Right,48.733079300007375,51.275032349833054,47.77210262625886,48.778275469565415,-58.46526669195737,51.448985850853205,57.18738830435177,52.85144789698097
2025-12-12 18:01:53.245677,Right,-22.435288673739706,-31.95051938141114,-37.91904642665759,-33.296228116276325,49.0128905313868,-30.363494476958294,-23.674279490493063,-29.283614048392337
2025-12-12 18:01:53.250699,Right,-74.77265535326296,-81.11565400825202,-86.62492466312688,-85.52914374287502,48.04867567903784,-80.65732918122376,-75.30857204292988,-79.9511471649239
2025-12-12 18:01:53.254700,Right,-11.747756126409513,-6.181823604863894,-10.236449425719911,-14.865541158113047,-61.625800832938694,-9.559752922868938,-7.123257389663195,-10.853072186793725
2025-12-12 18:01:53.260712,Right,47.80362729926128,51.53402901851223,46.643402613015496,43.48545644523256,-76.98052884065692,44.950389270503365,48.17081926220271,44.08770869699947
2025-12-12 18:01:53.263718,Right,-7.985619490114914,-16.233032864627603,-22.4388795739942,-20.961906714110228,28.895546651448967,-23.450352107589424,-16.645715139653475,-19.926035826276348
2025-12-12 18:01:53.266735,Right,-74.9893555439703,-82.3936388646689,-87.06575323905417,-87.81728989350086,56.25545658548435,-89.30570097346572,-82.7882960746283,-83.02758291452483
2025-12-12 18:01:53.270742,Right,-28.39407500514426,-22.86754363300861,-25.044319887278107,-31.754743081488414,-48.110033584263874,-29.79256174897091,-27.980537718693085,-26.239155729257618
2025-12-12 18:01:53.273703,Right,43.57762164951055,50.72379119932884,47.990196305239806,42.64172903045983,-91.0914279079334,44.92780255550315,44.90267527005926,45.05239476659335
2025-12-12 18:01:53.278778,Right,3.6946611072744417,-1.6755173918718356,-6.79289812859497,-4.9576173275199835,5.8677190354173945,-4.6642986952501815,-0.9337314427830279,-3.2662420348642627
2025-12-12 18:01:53.282787,Right,-78.70641265444647,-87.98961820490149,-93.11192867779755,-90.04513315505756,59.34473696004352,-89.39378915423731,-82.63014515261602,-84.95045996193585
2025-12-12 18:01:53.286796,Right,-56.290353764332394,-54.88885627552372,-58.220866317493346,-60.88697216070432,-33.5541538099078,-58.27826488354913,-53.04833820616477,-54.359137343974
2025-12-12 18:01:53.289873,Right,23.49123102369049,28.746784609527822,24.89249718305655,20.31723577599405,-102.4418119672846,21.882216806032375,25.885644946323737,23.42120193627852
2025-12-12 18:01:53.293818,Right,9.514119335337455,3.51158289020168,-2.9698910360348236,-3.32168084667137,-21.054042311856392,-4.816760780337063,1.6126579370065883,-3.1445586695808743
2025-12-12 18:01:53.297863,Right,-69.58400043030997,-81.45805699706034,-88.42785966904921,-88.0953439127552,58.14087087221924,-88.98782599604601,-81.52812956342677,-86.80584313969666
2025-12-12 18:01:53.301825,Right,-59.28379402976498,-60.92628651111954,-65.74113978177411,-70.73448035910042,-10.006776252277632,-67.16524748330812,-63.817737161851255,-68.74337315457524
2025-12-12 18:01:53.305867,Right,30.491172749199905,35.69408935813408,31.62817571663072,25.266536840570552,-92.31376205570996,31.36654544886369,30.700713083941082,24.1429263541213
2025-12-12 18:01:53.310911,Right,40.72234195985402,35.874635124229826,30.049445808390374,29.973659578456136,-28.497445232683276,35.254600656993716,35.71279199484343,26.47781482333812
2025-12-12 18:01:53.314875,Right,-42.84581137932037,-56.84894973811424,-63.14033033475425,-59.40892496599736,66.33255779717001,-53.13596324015816,-50.592954237228696,-60.232252658021025
2025-12-12 18:01:53.317897,Right,-65.40636887132496,-71.64960030627662,-75.39484825510408,-76.31027160658414,15.027816098328913,-65.17026463763068,-65.07383407116322,-73.20330862877745
2025-12-12 18:01:53.321893,Right,6.775267715585869,9.610321208641835,8.083799418956914,2.6276958152329826,-90.95843605533128,17.70787014326197,14.04831495020153,5.978718508449674
2025-12-12 18:01:53.325852,Right,26.243226530936226,21.434881767570914,19.74889894611715,16.80295320822006,-61.3343109470361,31.73312657560291,28.626387916167005,19.003949953013944
2025-12-12 18:01:53.329919,Right,-53.92479026188448,-69.88987170646942,-71.27157577886965,-71.65229794979223,40.124910637830226,-57.6255530957942,-58.541982609162005,-68.06703132623807
2025-12-12 18:01:53.333965,Right,-87.36626975291892,-98.15803433225756,-96.99233637294265,-101.45919429848573,17.801156297160162,-86.55974583768875,-89.69149601003846,-96.80756742924041
2025-12-12 18:01:53.338941,Right,-7.963209087454743,-7.598389257826057,-4.928966643129115,-13.078711088488717,-88.6511773457512,1.1283532909533278,-6.5864860672818395,-12.085993506585964
2025-12-12 18:01:53.342968,Right,41.55832361247394,38.19474761053334,38.91520319683292,35.18583954550394,-79.44580500268785,44.9203483302972,37.10795497611343,31.062384541785832
2025-12-12 18:01:53.345958,Right,-29.15313690281664,-43.372485867717614,-44.748827186820336,-42.79123460802248,29.495980609777234,-36.92576023011793,-40.70436677901898,-47.06532720865772
2025-12-12 18:01:53.349976,Right,-91.79143775791954,-102.49940469817281,-102.72015634102263,-103.27704679687758,34.29361842524304,-96.72658577676782,-98.7692354593155,-103.80407498836075
2025-12-12 18:01:53.353922,Right,-37.8656244579695,-36.411537742858854,-34.635054014478555,-40.436919564410346,-76.52351734046806,-31.979151649173673,-35.44716705036876,-39.64094273256342
2025-12-12 18:01:53.360002,Right,23.857373908951786,23.38021635500172,24.4373454851293,21.415652275862158,-99.48411310393658,28.447177120450306,25.7189237226803,20.446056756241887
2025-12-12 18:01:53.362997,Right,-24.63596419327996,-38.405307216311485,-38.95188008711739,-34.69186910940152,5.417843045004702,-30.21885726772871,-29.294727611312737,-35.426146144237464
2025-12-12 18:01:53.367035,Right,-90.34271739674614,-105.34981001935012,-104.87260682746819,-100.05554807532098,40.81829503705194,-94.85715962797894,-92.8235662459706,-98.00388587984526
2025-12-12 18:01:53.370031,Right,-46.23283812976206,-49.6682918713168,-47.26775618059946,-47.148776540176186,-59.40526817283899,-39.672325915764304,-40.332608922589316,-45.02372015656147
2025-12-12 18:01:53.373032,Right,27.947942579602568,25.841122131394513,27.142211054588188,27.935857312917506,-107.51696967790849,34.682615962396994,33.10113017845106,26.5527968308852
2025-12-12 18:01:53.378021,Right,-7.0893810895531715,-21.72618630229954,-23.160928951716414,-16.824190182942402,-13.958606753696586,-12.720176742885087,-11.35710522718,-19.613558805200228
2025-12-12 18:01:53.382047,Right,-88.08021975280099,-106.31371067321561,-107.63568326299173,-101.44335113274246,45.35452137840548,-97.43744170143327,-94.66714142444107,-101.77146194023771
2025-12-12 18:01:53.386117,Right,-64.52669637073996,-70.71832450742659,-69.56923552439184,-69.66895650043261,-40.80043365430356,-63.85119302461317,-64.20565849035302,-69.2630105785538
2025-12-12 18:01:53.390094,Right,20.82685467758165,20.243136355169554,21.695343250303267,20.15294641237051,-110.08472077955958,25.287643406905772,22.269324507296915,16.855522850099078
2025-12-12 18:01:53.395096,Right,11.66298169208676,0.26696627102501225,-0.5934996439973474,3.738708934550232,-29.799491023784867,5.843289780004852,4.652575608652114,-2.7216831558253034
2025-12-12 18:01:53.398103,Right,-69.60753620864853,-87.94685479829786,-89.81952757626277,-82.50404463619634,55.285545166858356,-81.47851966399321,-80.48133601864902,-88.62735242597773
2025-12-12 18:01:53.401141,Right,-63.95517817146538,-72.99692664653412,-73.98789682556162,-70.3434709084031,-6.51099890779733,-68.21938739989491,-69.3713827943393,-77.60616875649066
2025-12-12 18:01:53.406122,Right,26.348032696816517,24.309829333007656,22.409236333711306,24.834475473937346,-91.12187185273433,25.975980194656586,21.512360007403913,11.56232297162569
2025-12-12 18:01:53.410081,Right,40.786487469027634,29.11405940534678,24.123036747198057,31.566056215044227,-32.4088337363537,29.250081503003457,25.073141904376826,12.960757438511791
2025-12-12 18:01:53.414153,Right,-41.86715117210588,-62.615721652608045,-68.32314270833012,-59.45306093833278,64.91548992567914,-62.889483948270936,-65.75587373676171,-77.2056448565927
2025-12-12 18:01:53.418174,Right,-66.32251961218935,-78.64578503581288,-81.09942619097274,-79.97998777430257,19.349306050735322,-80.81264708046001,-85.74019264568415,-94.32278286102155
2025-12-12 18:01:53.422173,Right,9.263165544514777,7.843989571774728,8.074513000661682,2.0071264884281845,-87.62034066049819,2.77154204082035,-4.6427501457619655,-11.961803530455654
2025-12-12 18:01:53.426199,Right,37.82918230847281,30.460493437811238,29.74512049099576,25.49001780161052,-61.46767944925159,24.466330568346166,19.210254222380172,11.118681460542575
2025-12-12 18:01:53.429183,Right,-39.41003744936097,-57.63191792472571,-59.64592776369682,-60.06924665476254,44.056618862650794,-62.18084268338134,-63.49512223250349,-70.95816615500007
2025-12-12 18:01:53.433226,Right,-82.35954354525165,-95.74572415019065,-96.27574084165099,-99.35894939439822,28.16888584201297,-99.11521872076992,-101.01826857834749,-105.6449042905806
2025-12-12 18:01:53.438214,Right,-13.833615025407198,-15.849500426487793,-14.779766518862743,-21.399939182021626,-82.35945878169878,-19.076204127479286,-24.624632164148352,-27.493017456294183
2025-12-12 18:01:53.442172,Right,36.102250284384354,30.568306459721498,30.39810265916458,27.6730704751717,-84.38505326661834,28.93458989553983,23.010618303396768,19.560402789695218
2025-12-12 18:01:53.446245,Right,-26.68322975319461,-43.97223718748501,-45.51726321159731,-42.42983226610522,21.649371093175432,-41.44056578400341,-44.9733048997623,-48.451930318784434
2025-12-12 18:01:53.450248,Right,-84.30029462218226,-99.33800143128246,-99.07050815122057,-97.76603020203402,33.66381181827455,-92.67177329891274,-96.99302749795606,-98.61782925786247
2025-12-12 18:01:53.454266,Right,-27.78010946280847,-30.657490830089955,-27.962591500025155,-31.68358514145075,-72.82609729644537,-22.0898620076332,-30.13616046315292,-30.913491762104968
2025-12-12 18:01:53.457271,Right,37.71903081895289,33.818666518654936,35.52380759101652,33.91880193626639,-98.53588248097003,43.19896759430412,34.916234598877054,32.39094300314173
2025-12-12 18:01:53.461297,Right,-11.669918956820766,-28.572844093618187,-29.44740433658444,-24.498675585466117,6.102581921066303,-18.072152323064074,-22.284026100362098,-26.109568413092347
2025-12-12 18:01:53.466290,Right,-87.02662825538573,-105.04218872179626,-105.70017703785561,-100.38277291006307,46.921425407930656,-94.02095422459388,-96.44602322162609,-98.70189330969151
2025-12-12 18:01:53.470306,Right,-51.995399943276425,-56.54438095079968,-55.07897168647105,-54.47448063825868,-51.703263884548505,-46.23377436259034,-51.48353669514472,-51.864337402068486
2025-12-12 18:01:53.474342,Right,24.968937027959328,25.316755752515746,26.571836449656985,27.736980291265354,-104.76320064063475,35.393483735242626,28.344379257519904,26.99003758875915
2025-12-12 18:01:53.478324,Right,1.1248558935549227,-8.44145351741463,-9.484155021087645,-2.5664683360009803,-11.037904346485448,2.982649045145081,-2.2035134640027536,-5.831970636463666
2025-12-12 18:01:53.481347,Right,-74.96475632748479,-88.05501756119338,-89.51467126675561,-82.15391308671678,57.91369962502722,-75.75689177681488,-80.75172734803346,-84.80627344879758
2025-12-12 18:01:53.485367,Right,-57.98556472650671,-60.075703279755544,-59.989455775212264,-58.697653806433664,-22.89472525628298,-49.41501309192972,-58.97037329473824,-62.3413805738528
2025-12-12 18:01:53.489376,Right,19.342410041695985,22.479759637615643,22.210700848139822,21.58893466581503,-100.06543438207154,30.733740126470366,17.035593687127403,12.913346296663804
2025-12-12 18:01:53.493328,Right,6.9319493296898145,-0.6897972610386205,-3.495673573885142,1.064720144502644,-29.6702917229959,7.228994404515106,-6.043941800991888,-11.647422065376304
2025-12-12 18:01:53.498406,Right,-78.53102495460553,-93.03032333484589,-96.40840902629134,-89.7462029535236,54.537401300200145,-84.27852572441407,-96.46713835758419,-101.94412660855596
2025-12-12 18:01:53.502407,Right,-80.11681324279562,-84.31312608654844,-85.35919114619173,-84.02216946436238,-6.658065441304643,-76.52874851130764,-91.01388917648728,-95.5565602079223
2025-12-12 18:01:53.506422,Right,7.098724665404006,12.021813509367348,12.060838558398245,10.102016365868622,-99.18950147124269,17.169643586723396,0.7201718885626178,-4.642261489643715
2025-12-12 18:01:53.509437,Right,24.557752540651563,21.214296827369253,19.417135062281886,21.48118421444815,-49.784477452565625,24.51985482008604,10.937961954725324,3.91004275346495
2025-12-12 18:01:53.513471,Right,-55.54670874917065,-68.57965686043462,-71.34372524798164,-67.01391643124953,48.90266837326271,-66.33852050756468,-75.87538746649807,-81.84387753258488
2025-12-12 18:01:53.517462,Right,-78.23251556089963,-84.14838779226557,-84.93175028608312,-86.57368358625536,11.629242064693244,-84.16858337641679,-94.14394623006956,-96.19721490393567
2025-12-12 18:01:53.523491,Right,6.014659758253401,10.43399247747584,11.107737288071803,3.915141297286027,-91.62235045884518,7.809001698693464,-4.591094532668649,-3.624309079867089
2025-12-12 18:01:53.526503,Right,49.158220753859496,47.13097531552921,46.3453032176767,42.45135546383972,-64.96804722008892,44.867949113417126,33.88988803858956,35.586516125069465
2025-12-12 18:01:53.530492,Right,-20.20636051931797,-34.48808023157471,-36.504108515156986,-34.85273827671335,46.98604568461815,-32.993829359409574,-40.469436680708895,-37.797126176294114
2025-12-12 18:01:53.534526,Right,-68.85011613903771,-79.70546060233028,-80.11171341588488,-79.39377485579462,39.913367240547814,-74.22635781838471,-82.13580687232752,-77.38163218914997
2025-12-12 18:01:53.537456,Right,-12.927767034067074,-12.493899053930363,-11.468511959930765,-12.887300187714573,-71.95429602414151,-4.516161065446795,-15.712230118268053,-10.433749071984494
2025-12-12 18:01:53.541513,Right,25.63147152645979,23.316036082353094,22.421678835929924,26.232045873286552,-84.3638530237804,33.58690500472221,22.598195540362212,25.952779139377526
2025-12-12 18:01:53.545471,Right,-46.113201394851785,-59.85587574959209,-63.430431777684134,-52.37088879098883,16.846638028164307,-47.566617763470276,-54.678805689211,-52.71145654301654
2025-12-12 18:01:53.549485,Right,-109.34259556751931,-120.70551484490716,-123.96594739269858,-114.03613920820499,33.773826829688915,-109.35520575909322,-114.79597678235586,-111.99506407854642
2025-12-12 18:01:53.553551,Right,-49.52312795831676,-47.623424092111236,-49.32208847620859,-45.550626870652195,-69.01822959833589,-40.4511026406617,-47.56483534505969,-44.09691119995114
2025-12-12 18:01:53.558588,Right,30.321562828394235,32.89388160893577,30.2567357124899,33.7926561524946,-96.10319827202329,36.61855480637314,29.32981964017381,31.541866634499456
2025-12-12 18:01:53.562587,Right,-2.1407612596885883,-12.112067653652048,-16.941635187511565,-8.765745089353004,12.144596364229074,-8.523506487417762,-13.619357873103581,-12.366204760372057
2025-12-12 18:01:53.565584,Right,-68.61944346725795,-81.09238855910371,-85.67459922843773,-77.7787568674321,64.20208267684939,-76.47000524417672,-82.23611780528154,-79.71351243912795
2025-12-12 18:01:53.569547,Right,-33.95181209619477,-34.90179019622883,-37.80958058591932,-34.329408947240154,-28.964532136447815,-30.327058940591087,-40.95700669774669,-37.30119023728912
2025-12-12 18:01:53.573624,Right,36.98523733983893,39.47342992740596,35.77934872440528,40.70371403800527,-90.50000810504207,44.14084512929185,30.69872069293342,32.60277309821686
2025-12-12 18:01:53.577625,Right,2.1971699960631668,-6.1894661622282,-12.35425748295529,-0.5047080639778869,-8.480484484141925,-0.21852524943460594,-10.904606290459924,-11.750818341395643
2025-12-12 18:01:53.581643,Right,-84.33408959009103,-96.29568851125805,-102.25086015456327,-89.26731275977363,57.75083158336929,-89.94950382451498,-97.56727766841504,-98.83055643619446
2025-12-12 18:01:53.586649,Right,-63.606026178997126,-62.95334071920661,-66.10672428783073,-59.62426689883432,-19.871648714964977,-58.852319735051424,-67.54684205818194,-67.81492845177854
2025-12-12 18:01:53.589676,Right,36.966846669252845,45.442344201183005,43.16236681339433,46.52604609650734,-94.8766114827522,46.84434023140784,36.93019480590738,36.34577511984389
2025-12-12 18:01:53.593673,Right,51.11518185631576,50.332788964908104,46.21614987108114,53.76831142800802,-20.02263468307865,51.256224628443306,44.086523465848586,43.12762391837168
2025-12-12 18:01:53.597684,Right,-27.20616826472542,-35.504526409102255,-40.02651221922497,-30.476617883214203,73.1688743767736,-33.65014079399771,-38.18430152330984,-36.64354545131937
2025-12-12 18:01:53.601679,Right,-45.08115714471205,-44.65750651303824,-46.931500299993786,-41.93807604862377,14.458846234236262,-42.398518106543634,-49.078077736827254,-43.7797324270432
2025-12-12 18:01:53.607700,Right,18.323436206930637,26.96701324559399,25.62009963142191,28.601541446565534,-90.54976731319039,29.65818117422168,19.939192337478744,26.041931490552088
2025-12-12 18:01:53.610739,Right,19.154360503518546,19.342964132672932,15.798128197482583,24.505286318741128,-56.827897371946165,23.70055511901228,15.707672048498353,19.881239207265025
2025-12-12 18:01:53.614724,Right,-68.90264300099443,-78.75089887795184,-84.0340714067388,-70.79830859292997,39.36995872744228,-72.76184335957441,-77.30282575877936,-73.8070454896806
2025-12-12 18:01:53.617731,Right,-93.89462531524623,-96.98415317179024,-101.3964644284788,-91.62005293463517,9.096213545126375,-91.2537854834627,-97.02944452837255,-92.23756128885725
2025-12-12 18:01:53.620751,Right,-5.333488486299757,2.496527480550867,-1.6009850360496785,4.560591463279707,-92.42596372567641,7.361759576768236,-2.7055407623156498,2.233687391075364
2025-12-12 18:01:53.625738,Right,47.143967566615174,49.92924325426429,43.48542210432424,53.71452738711014,-69.46179859037875,56.344982813690876,45.27529689635412,48.684522777755774
2025-12-12 18:01:53.629703,Right,-16.24781412340235,-24.67965043262302,-32.76640190426224,-17.421293162173242,44.36549204741459,-14.291980651272752,-23.440773125897977,-20.10531781667669
2025-12-12 18:01:53.633775,Right,-65.1947104004721,-69.83564497547923,-76.19914585609695,-63.066985589492106,44.149497021044226,-56.067588295620226,-65.86595273249986,-60.66176827884192
2025-12-12 18:01:53.637782,Right,-6.649341599051695,0.25595023063215194,-4.378967539218138,5.197364583775197,-66.30636654647242,15.61332481678619,2.8884485906492046,8.159688211191678
2025-12-12 18:01:53.641881,Right,43.20113684935859,47.09529770534937,40.536694849430205,54.64869285850364,-81.9913628731556,63.99075816767436,51.545621057659446,53.61938973231372
2025-12-12 18:01:53.645857,Right,-18.085948430853023,-27.317550420819316,-36.92949520489128,-15.195067467844638,22.09704474474711,-8.520994307480578,-17.64131555073982,-18.487058090227947
2025-12-12 18:01:53.648872,Right,-81.50603203000355,-90.55074970814894,-100.21408872046595,-78.7615585433523,47.37862219150702,-71.75541109488768,-80.6964754087494,-81.68731015643425
2025-12-12 18:01:53.653803,Right,-27.192880106656958,-23.479222031859535,-31.497339090161404,-15.93148647885755,-54.534601170231326,-7.243907284715533,-20.125923892552237,-20.8468102964398
2025-12-12 18:01:53.657852,Right,49.795803836390405,55.53530453960775,47.33757950283325,61.74975715063556,-90.88451824289587,69.44430584599831,54.945268046834826,52.52760127780493
2025-12-12 18:01:53.661853,Right,11.988690680907894,6.328334828122024,-2.673682580485547,14.25440964306108,10.080792233085958,19.87544114508637,8.729600886184926,4.359358657238772
2025-12-12 18:01:53.665855,Right,-67.9688640545246,-76.27501088865392,-83.1933232027086,-69.86156377931911,62.467337457015674,-63.259806559723074,-71.64055950401962,-76.41119560457446
2025-12-12 18:01:53.669868,Right,-43.281491136775,-40.53594499216342,-43.69178242428188,-39.14992963993791,-30.782637151311064,-29.977360345903435,-39.692523321224144,-45.48615630120912
2025-12-12 18:01:53.673824,Right,36.702728979948006,42.685344209432515,40.82056464620837,42.291611486740294,-95.32992477932567,50.859247388383665,40.171125393015245,30.750357793545845
2025-12-12 18:01:53.676908,Right,23.30686107244037,17.672882912462228,15.058819631437473,20.13242970784995,-9.320053751111118,25.499185704171396,17.625063789619162,4.969050139799947
2025-12-12 18:01:53.681893,Right,-53.13138381107274,-63.79390774538115,-64.97819827797593,-60.50355303539982,69.80430699478893,-55.95993289427861,-61.4395737089726,-73.15175702838314
2025-12-12 18:01:53.685909,Right,-43.92737281482914,-42.74648535554661,-40.17775070050902,-43.17107170393501,-1.2478648661563057,-36.73832421503539,-43.74382419389076,-51.9507732930615
2025-12-12 18:01:53.689926,Right,35.979600522656256,45.60709999893152,49.897514025376836,42.976465651408944,-85.53631514530207,49.11471434934538,41.11360634513039,34.676760928865406
2025-12-12 18:01:53.693943,Right,35.34178249123943,36.47714879457999,39.5303573894555,36.43098493448997,-23.002091090580507,39.03963498084158,34.903338560623524,28.27432705276442
2025-12-12 18:01:53.697948,Right,-47.46893302916578,-53.85063602880109,-50.73149712241138,-51.962209138833714,70.94733269612516,-51.33869958277501,-50.92991168047229,-56.73034414600261
2025-12-12 18:01:53.702032,Right,-57.26849281268369,-54.59846378010843,-48.247595551018094,-55.17689533160592,22.964040907343588,-53.12301614050557,-52.82171746265885,-56.599483280315326
2025-12-12 18:01:53.704924,Right,28.964994609930727,41.32680494357919,50.57922750226953,39.07233838918182,-73.11786580272383,41.83872768175388,40.44380343051307,37.30990756496976
2025-12-12 18:01:53.708979,Right,57.069894233482046,62.13865055752831,71.96537583385907,63.57334310740043,-32.018560564993095,64.32862953350195,65.06265284271649,61.18324699562072
2025-12-12 18:01:53.713989,Right,-18.40248816247913,-23.952124594914494,-12.79940914602048,-18.18997985285023,75.87083597502715,-18.265982165406967,-14.069066087475221,-17.480141453446777
2025-12-12 18:01:53.718088,Right,-50.374887057543674,-50.381272163467656,-35.39228335833286,-45.37251229078538,55.75718421062993,-42.918828554827996,-39.66985754657799,-41.47921488845532
2025-12-12 18:01:53.722019,Right,25.889470980520855,36.79448895094902,54.48866493845708,39.00571823446808,-47.38152798721785,43.36874022407574,43.0858508544934,40.90792504811361
2025-12-12 18:01:53.725980,Right,72.36769798307068,79.0453001572696,95.57801767911224,81.48384167655786,-33.206231848716925,84.21053974551614,84.01449125486579,79.0963633896099
2025-12-12 18:01:53.728989,Right,5.866653801869688,1.2920907227580756,16.124053461391668,4.154715526439759,78.19887250688771,5.2992675763980515,7.997425670711891,1.45815605858661
2025-12-12 18:01:53.733039,Right,-48.56919235074383,-50.30841958402925,-33.98466395635842,-51.65922679859432,81.842373352918,-48.44061024170878,-46.34264939242166,-51.933143646663666
2025-12-12 18:01:53.739065,Right,6.755681915292371,16.124763723566502,35.080995723210435,9.47270897427552,-30.497819658403387,15.515882116626017,13.333955035228428,8.332537819454956
2025-12-12 18:01:53.742083,Right,60.639230774297175,67.5273207972823,86.8059020385972,61.0936540323255,-54.40703773213227,66.92342761334294,62.79088106592826,56.28220392821822
2025-12-12 18:01:53.746089,Right,4.850671742813574,-0.8563280777307227,18.04118206307976,-3.5602108311759366,47.896952427857286,1.610726757780867,-1.4549725543583918,-8.87683875645962
2025-12-12 18:01:53.750053,Right,-58.936077454676706,-64.40386353209215,-43.41383046563351,-66.83290739721815,80.84359027316623,-58.59771581070163,-63.58299584708766,-69.20633225230267
2025-12-12 18:01:53.754105,Right,-7.016376724714064,0.36420173637634434,24.06595563738665,-4.825805020118423,-16.250244307725552,7.859043866446882,-3.1660797652148176,-6.614875628930349
2025-12-12 18:01:53.757117,Right,73.03139601679504,82.60863632489963,105.85501253700568,77.86739528888211,-56.126051232662576,91.30832769668814,76.66885637376436,73.3078055913611
2025-12-12 18:01:53.761138,Right,41.151806473624674,39.04609931760933,60.27129466956103,37.986931919887866,43.27630139499706,49.49202059757954,36.463407652816386,32.89265949592209
2025-12-12 18:01:53.765143,Right,-38.69750523746188,-43.68961670666249,-21.350852552575816,-43.90356348123896,101.35946979177243,-32.289636956930735,-43.86933570398651,-45.47709872663745
2025-12-12 18:01:53.769176,Right,-21.381980279416894,-14.26354393845213,12.077716012052406,-16.7654938247706,9.414720134990148,-3.4274130260537277,-16.673091891770127,-15.773496256052567
2025-12-12 18:01:53.774146,Right,49.372884134427295,61.72891847813298,90.51527794204594,60.28760234895162,-66.54577673446465,72.4908706016995,59.437436600516776,60.63629520748282
2025-12-12 18:01:53.778165,Right,27.810574112610993,29.349453841397008,58.24047164442891,33.38438615495579,6.173867538119339,41.760811032127094,33.672806003191,34.38504686794158
2025-12-12 18:01:53.781208,Right,-55.57879988852983,-60.49424380593791,-30.40617149160971,-53.60970992041075,82.38192235902898,-47.06920965005702,-51.03710908980611,-48.49888194685673
2025-12-12 18:01:53.785204,Right,-47.48742904959181,-42.766107083390125,-9.956131383205502,-38.565348666976206,13.437337289871266,-31.25578493488956,-36.52460267753122,-31.053859837788423
2025-12-12 18:01:53.789192,Right,40.77422648275751,52.61786083811785,85.96740706562923,54.697530417911366,-73.80241671973613,61.10860479022631,53.58743450973088,59.39629355386066
2025-12-12 18:01:53.793199,Right,49.87224345021241,52.60433642066437,83.56612887576193,56.95554038990849,-15.480400789891291,60.333190304135314,54.6124560213716,58.46500764813845
2025-12-12 18:01:53.797260,Right,-34.27267408109219,-39.939267309675415,-10.26217827090295,-33.8316111544118,80.55096641962973,-30.655890502381226,-34.17156371724559,-31.076848183902484
2025-12-12 18:01:53.802229,Right,-55.162769694994495,-52.82258467800784,-21.778109089969803,-49.22230914290958,35.01333670454375,-42.32347194572685,-48.20210224175162,-44.40124030618949
2025-12-12 18:01:53.806258,Right,24.558893562736557,36.03185283628227,67.28011651859924,37.582643968104094,-67.23323696521989,46.32274265584783,37.2651216740328,40.314203864403225
2025-12-12 18:01:53.809258,Right,56.33839869376425,60.1485168858153,88.34765828639502,64.3030994890969,-34.70309890478097,69.89646274746428,62.99394904754445,63.90603601164048
2025-12-12 18:01:53.813285,Right,-15.936804873339497,-23.4170361946276,2.1389290939587227,-16.614856450519255,73.46152340476146,-14.401844220862586,-16.48648750486882,-15.668390339978941
2025-12-12 18:01:53.817269,Right,-52.056882787579525,-54.146275789541505,-27.962735533783416,-49.81704293706298,58.239371188726636,-47.07239430093341,-48.509685981043276,-45.3507263846368
2025-12-12 18:01:53.821289,Right,20.265061231440995,30.300583019655278,57.42833927114407,30.959324509968155,-47.70945149128329,34.98527863009713,31.046361482609598,35.25265973245405
2025-12-12 18:01:53.825249,Right,68.00748505068987,75.33379886688158,100.61636232785168,77.04610816761624,-42.357316482129136,79.33425509508652,76.02166936986856,78.70087179921666
2025-12-12 18:01:53.829305,Right,2.002702089586819,-1.4571063215271352,21.574152403605694,3.0569583606634296,67.15370764360023,3.319829901499361,3.345036252475893,5.31946940790931
2025-12-12 18:01:53.834372,Right,-53.891170386551494,-54.23068611372565,-30.7703659272629,-51.430123445857134,78.05118832327162,-49.856435288700595,-49.702140751485786,-45.63581551074185
2025-12-12 18:01:53.837343,Right,6.303190828684819,18.793946940129615,43.20767621367122,17.626333706066816,-28.738775859302223,21.04154057690539,18.53963370894985,24.94534638337427
2025-12-12 18:01:53.841346,Right,71.52430095619184,84.0072240869739,106.64727194439911,83.39999081758924,-52.81360318231009,85.0789875983246,83.6174977092819,90.84825318834737
2025-12-12 18:01:53.845328,Right,20.97790843252278,21.985989913894855,42.10809702268671,25.30166321799652,51.8296268935992,24.298945909971735,27.788217964597152,36.84070822577269
2025-12-12 18:01:53.849375,Right,-49.47046180174675,-48.67892120495958,-28.152390483457566,-45.06448032633057,91.90067403831472,-44.97213985419876,-39.665505675379336,-25.83762225322971
2025-12-12 18:01:53.853390,Right,-5.321227175521017,7.982404898839832,30.291837050390313,8.14695717336167,-3.1789407021606166,10.817799075439325,13.30313354677719,32.11389794200113
2025-12-12 18:01:53.857406,Right,75.57473371167453,91.44674385442704,112.83371920280479,90.98282708761656,-49.76066907603945,92.2549385622624,94.10049190793416,114.83331268578877
2025-12-12 18:01:53.862435,Right,45.59772124830033,49.57581359792266,68.08699858842374,52.149785068252925,44.366323495261895,49.4710864003855,55.44390767246114,76.20648643721142
2025-12-12 18:01:53.865439,Right,-41.88741964563542,-42.14151866286602,-24.382214504978037,-39.216066716195826,104.06531493745024,-42.4941578847629,-33.87234834348965,-12.4375793547988
2025-12-12 18:01:53.868448,Right,-34.25683442384798,-23.433756160048688,-4.453401056867733,-24.287992544397206,12.320963823265629,-24.859398244344447,-18.271949218279588,3.3064203047179035
2025-12-12 18:01:53.873393,Right,39.74915275004878,56.153426311437215,74.35466966960666,53.699005854809286,-69.41669152772556,53.69190745020387,59.565776836197074,78.47982498113925
2025-12-12 18:01:53.877463,Right,32.11672023685469,38.35249023863253,53.488840986690775,38.63036159224458,1.1461151956063986,36.244073357136585,46.789348317812255,62.202589615048055
2025-12-12 18:01:53.881467,Right,-41.64886891281412,-42.11304831734742,-28.46869145434175,-41.02017008150301,85.30808719393553,-44.03165899124542,-29.054142823101756,-14.276020823805084
2025-12-12 18:01:53.885511,Right,-31.87995909338224,-23.325168537598984,-9.006740461121808,-26.34492025096381,24.39159121269222,-27.49737757210187,-13.634263717311114,2.448112390455208
2025-12-12 18:01:53.889514,Right,57.98149171701243,73.22103061170128,86.55058827125322,67.16392307443857,-65.52400497237977,65.49666143520244,76.92891380694437,92.30229311422409
2025-12-12 18:01:53.893510,Right,68.39383294532945,73.45209561228057,83.26159381841717,69.38533268724404,-14.767965102985727,63.61475899880861,76.90223696692192,89.46143398082131
2025-12-12 18:01:53.896506,Right,-21.68610868965061,-26.9388304657723,-19.127801265647577,-29.33064422217967,79.86898510272113,-37.67958279686172,-21.37663390682701,-10.308130749315751
2025-12-12 18:01:53.901518,Right,-51.65090382351127,-49.98827666211491,-41.035881562645955,-55.45233513913445,36.69748021093801,-62.226813378891165,-47.39123157843005,-36.15727117371898
2025-12-12 18:01:53.905543,Right,26.73304272170776,38.44888447511585,47.754591542667185,30.074102368351078,-68.35468374336142,25.0000422710973,36.1686995977625,46.10012539975469
2025-12-12 18:01:53.909564,Right,63.27696948928542,69.01927236179017,75.32954848420923,62.84204715981218,-41.01368478294262,56.65846543168209,67.47466850492674,74.34778258865299
2025-12-12 18:01:53.913557,Right,-9.601603154655777,-14.563491317157059,-11.473288147117273,-17.969539326340964,69.02331301209142,-24.88965116068175,-12.872181216305762,-7.490722704989821
2025-12-12 18:01:53.917614,Right,-54.52572404584248,-54.65546473080394,-52.13297736650202,-60.53684249487583,59.27361214273151,-65.47209504644161,-55.844932161016914,-49.61239731436581
2025-12-12 18:01:53.921590,Right,9.85472856324418,21.172460918705838,23.436992276849196,11.172440430429333,-50.022420413447435,7.1802627637916885,13.11130361026062,19.352934259824906
2025-12-12 18:01:53.924589,Right,57.434094220058,65.2588856827515,65.09144024994384,56.02919371077178,-55.29609253851322,49.005032949228735,56.41641879831786,60.70433012844296
2025-12-12 18:01:53.929621,Right,-6.177806083764722,-10.591645105381758,-12.706359273783164,-16.276179388559285,50.315500478429385,-26.332566083903657,-13.44818192004368,-9.82698348433405
2025-12-12 18:01:53.933610,Right,-64.97106582520394,-67.78870109018408,-68.28315459511578,-73.3893393255953,65.49076491653705,-82.1991676683665,-67.36769373828247,-61.380362263258576
2025-12-12 18:01:53.937644,Right,-8.110278406581955,1.4689496728751692,3.6980106993723894,-6.020312661574735,-41.17773936328376,-12.229393962895301,-0.292679956437496,7.950528406943704
2025-12-12 18:01:53.941658,Right,63.266611637818016,73.25878073736021,75.45595393767144,68.12410733053139,-70.8208915746336,60.924404903696086,71.51945272043395,79.27341125881685
2025-12-12 18:01:53.945648,Right,23.323114889990848,21.86699892757315,22.812556198696257,22.13305533845687,34.28133852964311,11.929428611890216,25.084515179070877,31.761669962743326
2025-12-12 18:01:53.949608,Right,-47.15081209170046,-49.322036760944684,-47.02352847257134,-47.682507882035225,81.28047683919613,-58.16184244028773,-43.620513451889565,-36.09537007567633
2025-12-12 18:01:53.952677,Right,-16.317962573170462,-6.003996484347226,-0.921579097470385,-7.478456405468478,-15.597381853706793,-16.340487371016025,-3.5235066168552294,5.08236973854946
2025-12-12 18:01:53.956639,Right,50.08662922346946,63.57170329287874,68.65735235109241,60.98144586391027,-77.32145806664357,51.22826989955138,64.31794799744603,72.00494803394213
2025-12-12 18:01:53.961692,Right,14.775312531740155,16.712258971519987,19.36865400206443,16.219422174887768,5.185586865300138,3.6804731089832785,20.881554644511198,27.473928036266443
2025-12-12 18:01:53.965702,Right,-66.38838783667688,-68.72565411411051,-66.7938365927439,-69.85148380497185,70.73901332884998,-82.64470265725231,-63.50076519783761,-55.73863785833055
2025-12-12 18:01:53.969674,Right,-41.07606144374199,-31.978492721915245,-28.758235016914114,-37.69547393903258,-5.386432150611654,-48.52534817840478,-33.01455041717418,-23.82029590548882
2025-12-12 18:01:53.973770,Right,55.598531694068015,70.85381229296217,73.61333721415576,63.2405849929155,-75.20070428285908,52.13572021604796,63.79150310010482,71.42492105115161
2025-12-12 18:01:53.977690,Right,59.77642532339178,64.40419219834257,64.56178843274029,60.12697716715411,3.5088921620626934,46.62497561739292,58.68658627059722,63.20512823289755
2025-12-12 18:01:53.980698,Right,-24.38587934130328,-27.985287160377993,-28.632970227277838,-30.294754790018942,95.67423808075546,-43.43667285971787,-30.71947502918556,-26.99536948172681
2025-12-12 18:01:53.984791,Right,-38.35300343904373,-33.70259112346321,-32.541254418640165,-39.52700653668353,35.60085008524493,-48.871631081830856,-39.497922009381,-34.49637407487717
2025-12-12 18:01:53.988791,Right,35.96900177689531,48.465958955897804,49.90382810036317,38.99931816118578,-65.78995840016069,31.85650897612868,37.84855595807585,42.76317880644456
2025-12-12 18:01:53.993849,Right,49.38063248529261,53.59152154106778,52.078707712988034,44.84774809180635,-26.349127856045016,36.4476122881897,44.009037890530635,47.23843194902838
2025-12-12 18:01:53.997845,Right,-29.601467601145487,-34.63801962703474,-38.55476075030856,-42.7722372805365,71.21656061708745,-51.59099531230095,-40.665585185465716,-37.828384198161075
2025-12-12 18:01:54.000875,Right,-54.63290830962296,-52.110587085941006,-55.51549783736846,-64.11738186365892,37.57423279287286,-70.37760266203804,-59.712114982887215,-55.83623619241371
2025-12-12 18:01:54.004850,Right,22.273475391926695,36.10691773522012,33.22458683524201,20.408543043718964,-68.2517677562928,15.535642710781758,24.396457735920194,27.924097718936537
2025-12-12 18:01:54.008804,Right,57.59311140835234,66.65343518954796,62.263128985476214,53.06080684545668,-50.301978151845105,45.65379016528641,56.42410943544019,58.10380616152361
2025-12-12 18:01:54.012849,Right,-16.967330967002,-18.67037102670656,-23.5839442393426,-27.868685770404227,56.564252787838086,-37.87176617314253,-23.347502056227313,-21.921798880723145
2025-12-12 18:01:54.016868,Right,-66.10321640335496,-63.65144318244165,-65.90675210625886,-72.18987215349716,51.44567259045198,-81.30611445391514,-67.2024337964076,-63.967072292298326
2025-12-12 18:01:54.021813,Right,-3.1453755438597,10.944241413151758,11.114157817712112,1.6511443246072304,-56.974870702855696,-6.104208695776833,4.417307088169764,8.076410287309045
2025-12-12 18:01:54.025888,Right,48.4031588503949,59.86690123323751,58.89924455188702,53.946618546307036,-66.97427583870922,44.45028581970928,54.73717261303591,56.01203951889693
2025-12-12 18:01:54.028887,Right,-12.36668312358961,-12.926794496828734,-15.908458398987932,-13.820794218939227,39.09180031457072,-25.390197200410512,-11.84322042551321,-12.571272679579124
2025-12-12 18:01:54.032894,Right,-72.64204665419311,-71.98236022876154,-74.01421736933662,-72.66470531096911,62.651955566302604,-82.78651120516588,-68.82686002344508,-68.81710842379744
2025-12-12 18:01:54.036906,Right,-15.034343372655712,-1.658689332265567,-1.6515618865741999,-5.437070218136796,-38.4405748620502,-13.272924401114324,-2.69774045615668,-1.4803546523899058
2025-12-12 18:01:54.040921,Right,62.277425748901805,76.91157831802047,76.01973010433721,73.67673233556161,-70.28286325881527,64.30774493436547,73.78585189704609,74.16770373776035
2025-12-12 18:01:54.044956,Right,24.82870194349016,27.649591055062047,23.960159465672405,28.36104544985028,33.47860604150992,15.539084000585717,27.788504341277985,26.902848447331053
2025-12-12 18:01:54.048965,Right,-51.23849244579833,-50.948621294794066,-55.533246701064854,-49.6414854210052,85.19898666153676,-62.797782072892005,-49.81573404441224,-50.148194187057925
2025-12-12 18:01:54.053979,Right,-22.588578249063175,-11.270501959346802,-15.370533146817252,-13.211698512541261,-7.6616611004483275,-24.503855093665152,-15.060102373487098,-14.552212139885341
2025-12-12 18:01:54.056971,Right,56.010078104400236,70.02663308776027,64.40139626319615,67.7303649573887,-69.30215346864134,55.78081306857439,63.26764943005128,62.637422604505446
2025-12-12 18:01:54.060999,Right,38.135510881965274,39.49402177947559,31.006141414734884,41.01461676298095,17.51166621506127,26.773019545336865,37.003197577099854,34.74151741371679
2025-12-12 18:01:54.064997,Right,-38.6202450587416,-44.074260436153054,-52.982441570454284,-41.19070420636399,93.78759700618866,-53.806734229440735,-41.8732667165923,-43.890897269894595
2025-12-12 18:01:54.069034,Right,-24.27144826021413,-20.673880064407058,-27.9130244225762,-21.04396916594851,21.416288212134532,-27.877764442384432,-19.646827655443303,-21.05899166481322
2025-12-12 18:01:54.073010,Right,59.895862330899945,68.68548701562577,60.89244366355706,66.68138315846772,-60.37578136107004,63.91868835083096,67.92621909273112,64.75415190003241
2025-12-12 18:01:54.078030,Right,58.733732096933636,56.520612862737835,45.367293074651116,57.3360173873416,2.7234917482892342,54.93170075893613,59.32455980118448,53.527306231283546
2025-12-12 18:01:54.082067,Right,-26.12224798969237,-37.05554624067008,-50.099168350145646,-34.97116643512618,91.12444592393149,-36.54455701215102,-30.618775487473613,-36.19799218786375
2025-12-12 18:01:54.085060,Right,-38.340523483911966,-40.78979202478149,-52.75662074535876,-42.729906778728036,35.65799215547668,-41.75817027476933,-37.659995457963305,-40.54157117416344
2025-12-12 18:01:54.089070,Right,39.79905875836994,46.49299731958672,34.84765085259369,40.71469717992568,-65.65588359507092,41.4512413590337,43.787347519571085,42.259493754075265
2025-12-12 18:01:54.093018,Right,54.024691079872355,53.413926739440285,39.55247595974629,48.66007701584749,-30.667648768637264,44.9580594435638,50.268474687891285,47.92125327375834
2025-12-12 18:01:54.098121,Right,-30.931333253811317,-41.142980596025154,-56.246896158662366,-44.31003211668303,67.21558978140911,-51.472656822778845,-42.07944030206272,-44.510972613039485
2025-12-12 18:01:54.102315,Right,-61.52276644748417,-64.95550867574639,-78.19980688711203,-70.5363594447399,38.03829698587833,-77.09551965774244,-68.45060438302426,-69.47335673701582
2025-12-12 18:01:54.105074,Right,20.446119489070043,28.245154308526253,16.57906303769056,20.316036414150403,-67.66231178443013,14.450328831828301,20.075223177774205,19.29613491010059
2025-12-12 18:01:54.110127,Right,68.88676358553676,71.9236688158544,58.789938942113395,66.6339770101622,-52.60581803999776,58.38921080467844,65.20886245205475,62.89805361578965
2025-12-12 18:01:54.113154,Right,3.362228030031474,-5.374024240518338,-20.240819950762216,-7.076359653835425,57.38278245974652,-17.119202779315856,-6.306130296729862,-9.074456170329995
2025-12-12 18:01:54.116099,Right,-44.63251337042857,-50.747319676238476,-64.64875909849798,-54.01670071330864,59.62902065602066,-61.71649293552491,-50.79613564177453,-52.12665264307179
2025-12-12 18:01:54.121149,Right,19.213982807676075,23.897069182312407,11.325331427106903,16.95271027659419,-48.350914151771576,12.362953850138183,19.768553778826572,18.740822660838603
2025-12-12 18:01:54.125160,Right,74.03054808262459,75.72528668243103,61.89068856827771,69.87859284835577,-65.21386520148098,64.83457158385227,71.7010394054314,68.49812195375785
2025-12-12 18:01:54.129196,Right,9.551711525269639,-1.664427644916941,-17.058547661109515,-3.188957168767047,37.541092621214375,-9.744183912936933,0.36560388750694983,-4.5879482553195885
2025-12-12 18:01:54.133200,Right,-66.35620895972716,-77.42934777833398,-91.35989966903162,-78.18018352107629,62.37981364456846,-82.7647143952936,-71.83727275563615,-76.28014694487922
2025-12-12 18:01:54.138146,Right,-25.51641865536658,-24.063397686681128,-35.69285571778619,-27.073379893750825,-44.252343779785406,-28.09847955119767,-20.42276128652793,-24.7473874883554
2025-12-12 18:01:54.141200,Right,46.24983234109823,49.34127166431608,36.71458303026793,47.564818341402315,-89.98448887282393,46.85777406164107,52.727783259742864,45.790788791438075
2025-12-12 18:01:54.144223,Right,13.216861923607212,4.2536201332150085,-11.420321907644393,7.32832236091599,6.2708544413853815,4.541518714920585,11.948081970019302,1.8754738512855056
2025-12-12 18:01:54.149230,Right,-56.66284933713723,-68.86235764477533,-85.29663098540277,-63.992337138187395,64.50200164722446,-66.9537615188965,-59.8978916168262,-70.98440941246747
2025-12-12 18:01:54.153243,Right,-22.46906938054417,-23.45627029973548,-38.50139530512752,-21.140169937143583,-19.878668132158964,-22.965290280863883,-20.270280475872823,-31.90918784706423
2025-12-12 18:01:54.157254,Right,60.96186267586745,63.97852085708837,48.90791923211145,65.42304988685464,-82.79267427141986,61.95650759111095,61.80417092946482,47.662874947897535
2025-12-12 18:01:54.161261,Right,41.927283428960436,33.50543506480062,17.180634542169173,37.362196856533046,-1.7441274866550884,30.341520956221302,32.06271032896257,15.550606358424147
2025-12-12 18:01:54.165289,Right,-43.39934429827372,-57.824671370592114,-73.18321383185776,-54.18251416996645,73.25106801497896,-61.66492546960899,-58.47967161993802,-73.79833477291027
2025-12-12 18:01:54.169239,Right,-33.763881828950616,-37.597276415626766,-50.259036950992595,-38.55451984812953,1.5402267366007436,-43.43615878184937,-43.18817965083326,-55.141314978010996
2025-12-12 18:01:54.172307,Right,59.45685098263675,63.435183286143,50.70710299838356,60.16968634192108,-81.93598293532978,55.49196465881255,53.157787425920105,42.61506159848295
