timestamp,label,FC3,C3,CP3,Cz,FCz,FC4,C4,CP4
2025-12-12 17:52:50.533836,Right,711.7935093567027,1105.3922472952142,1022.6973155949789,1095.1544084964046,328.7810798797999,817.1115200668878,858.1677574006981,1089.9079998197933
2025-12-12 17:52:50.550890,Right,3812.9777279365053,5932.939119208533,5486.950578048915,5877.4038550363475,1795.9978641795253,4379.384249992538,4600.5968714012015,5850.5489599795565
2025-12-12 17:52:50.554878,Right,8676.680303190315,13536.540532096305,12511.552138986995,13407.520428092334,4174.226435915411,9972.50385896716,10479.43914245619,13348.315121953516
2025-12-12 17:52:50.557898,Right,10768.703041135046,16854.81856369014,15563.801365944437,16689.001196008838,5253.746436705468,12386.027689774859,13019.35205106603,16612.75099755493
2025-12-12 17:52:50.561902,Right,7269.369372328845,11409.449768356513,10515.363401407023,11289.830655336576,3452.021988863082,8358.644140925058,8785.588320929852,11223.998839805085
2025-12-12 17:52:50.565939,Right,903.6873596376536,1402.506059556763,1263.8075760471038,1378.880801177067,122.8012879939779,1009.9998228612603,1055.0912558894343,1345.344630003041
2025-12-12 17:52:50.568919,Right,-3924.953632266581,-6186.704225212568,-5747.463062007475,-6132.007753256024,-2168.7141683331793,-4567.051458787711,-4807.507117569301,-6119.233353807096
2025-12-12 17:52:50.572932,Right,-5296.025440602025,-8265.400873658655,-7672.307618853258,-8187.4788866518065,-2427.3888571117714,-6130.5677922728355,-6440.872462932966,-8139.0334231402085
2025-12-12 17:52:50.577947,Right,-3919.817940316192,-6041.927766105189,-5620.035440008825,-5986.733046254551,-1561.8220924684792,-4518.9039851885755,-4740.417751118599,-5943.931061430019
2025-12-12 17:52:50.581894,Right,-1689.2370670472446,-2595.2739702336257,-2425.5225649162603,-2573.872529307351,-751.4200889638887,-1952.0844625478494,-2049.202068344166,-2566.4967274840456
2025-12-12 17:52:50.585965,Right,-400.271731330693,-654.4762444468215,-621.9717345020326,-649.4741956506041,-357.6640613725176,-488.5273684321728,-518.1970180819626,-660.2707548904582
2025-12-12 17:52:50.589979,Right,-710.1182572330872,-1112.647309787746,-1050.1301231105463,-1102.5047131946194,-323.0683716933272,-844.7747318593028,-888.102221155772,-1099.5693104923703
2025-12-12 17:52:50.594021,Right,-1801.602036850556,-2748.087951475347,-2571.6447578455554,-2724.6614680468338,-653.1779479173128,-2082.210050536407,-2182.083637658041,-2710.064173024497
2025-12-12 17:52:50.596993,Right,-2365.2698701868067,-3650.864590816316,-3402.673195622454,-3619.4802762082545,-1106.327089539962,-2730.3605338819034,-2867.1855584942386,-3614.9363807879854
2025-12-12 17:52:50.601011,Right,-1989.9731442502525,-3137.598824575485,-2916.62800210336,-3108.129233201267,-1131.1387988164497,-2316.0389022831223,-2437.3457242363365,-3110.9843294945895
2025-12-12 17:52:50.605965,Right,-1339.4811143777915,-2104.3875479587005,-1960.6227829312556,-2083.4708649011445,-637.2595297238004,-1565.869365128281,-1643.0787788428715,-2074.503039539617
2025-12-12 17:52:50.609985,Right,-1108.0252970528672,-1664.4308063772623,-1561.4656843838166,-1650.9936238044756,-292.6894478902832,-1275.8595624646987,-1329.582536508562,-1634.4007142416085
2025-12-12 17:52:50.613982,Right,-1279.811314687482,-1944.7583296739613,-1817.8297890242538,-1930.8431909393403,-553.770292322457,-1467.4085807437077,-1535.2133342279703,-1927.2073105281452
2025-12-12 17:52:50.618058,Right,-1443.4390013699885,-2293.0899648101768,-2127.005161788198,-2272.355847710278,-924.3940005001496,-1675.5249837039155,-1765.0195977688418,-2277.2613972340478
2025-12-12 17:52:50.622070,Right,-1377.2208296417375,-2201.1765317080426,-2038.9617690641317,-2177.107677427761,-762.9619803303212,-1604.7221225065296,-1690.3458179954323,-2166.1566614756593
2025-12-12 17:52:50.626121,Right,-1153.8858013458666,-1764.5837851350661,-1645.1045234767953,-1745.8218119148514,-331.0409269434458,-1324.1455969833187,-1385.7393887133803,-1720.0473317628494
2025-12-12 17:52:50.630025,Right,-966.4820923229563,-1446.1909465520876,-1353.706309729314,-1433.6091635852354,-313.30034783444717,-1095.891641350172,-1143.7927872723667,-1419.914855685318
2025-12-12 17:52:50.633103,Right,-982.998251801997,-1551.9894474055618,-1441.3405701973825,-1537.3084883170668,-660.6934533751628,-1134.7148597273044,-1190.685223964043,-1540.1631717252312
2025-12-12 17:52:50.637122,Right,-1162.6767525245086,-1864.221350651409,-1724.953786775237,-1843.5693613408366,-734.1291188809264,-1356.6364883815986,-1422.1020885662874,-1837.0348290183465
2025-12-12 17:52:50.641065,Right,-1202.765495855012,-1845.5133845437667,-1716.0652808655286,-1826.3113105084049,-414.81942524857004,-1385.5496109393425,-1441.5478648240096,-1802.6465485969675
2025-12-12 17:52:50.645074,Right,-916.5401377005619,-1350.7237292138161,-1263.1741355087142,-1339.9191919440054,-233.96941342687933,-1038.556695868203,-1074.3054003890138,-1325.3926431032014
2025-12-12 17:52:50.650165,Right,-603.7854198499699,-935.4840937636327,-869.503162343055,-927.9885890746955,-409.3521427749947,-692.5408266836312,-721.0640796263469,-935.7195846310933
2025-12-12 17:52:50.654163,Right,-686.0382409089943,-1125.198979996785,-1037.1325014429167,-1111.6171040838235,-543.8796336367959,-805.5800652896287,-845.8770092781051,-1117.4619285788503
2025-12-12 17:52:50.658160,Right,-1015.9121369100758,-1580.673627988901,-1465.6540143431048,-1561.6558696234133,-402.0286484088574,-1171.950560570287,-1224.1549744037911,-1547.6438559061498
2025-12-12 17:52:50.661177,Right,-1022.8033509369707,-1522.645051700063,-1420.180856139108,-1506.7295930981636,-269.8440477438562,-1155.4770008350024,-1202.366376193997,-1492.9033822967322
2025-12-12 17:52:50.665211,Right,-604.6839329457725,-914.7895887323539,-851.2404602249153,-904.4620300910901,-339.0676722358912,-677.4782009906485,-707.9209839407704,-911.5335634000367
2025-12-12 17:52:50.669191,Right,-333.54845384386135,-561.629795302928,-513.7494565221132,-550.5606048881891,-374.9711020623654,-383.45616479049204,-406.0400885693962,-562.469364395598
2025-12-12 17:52:50.673160,Right,-560.7052504193271,-883.3229633652954,-813.1131742916768,-867.3277203270118,-247.68773166321625,-640.1597813909175,-670.9471818069578,-861.508889740915
2025-12-12 17:52:50.678244,Right,-852.0721278903657,-1272.7034687353298,-1180.0644728630432,-1255.3509605348227,-206.76976698897488,-956.3667028141208,-997.9354184911354,-1243.5058099643793
2025-12-12 17:52:50.682176,Right,-690.870042562572,-1054.8060494003585,-974.0088101346046,-1040.5212772761006,-346.3332404637622,-774.2626092595747,-812.8196684292634,-1045.160845892795
2025-12-12 17:52:50.686260,Right,-292.8960287900409,-509.44997865287587,-460.10900656174636,-497.6465934209409,-356.26346731261583,-336.7533127613715,-360.6426290801028,-509.56126099050744
2025-12-12 17:52:50.689260,Right,-215.2291545032058,-368.0920417928137,-331.6929110122728,-356.6579364268109,-121.05911393419956,-246.93805184963276,-262.06072587287053,-352.32792697194964
2025-12-12 17:52:50.693268,Right,-463.2153456227679,-681.9936941712513,-630.9896064939676,-671.2614321953151,-16.473245738787227,-512.7511344114027,-534.2058807170833,-656.5130691245431
2025-12-12 17:52:50.697222,Right,-559.3980198191712,-851.5571618098184,-785.1116261513671,-842.0588200563798,-239.8362555399799,-623.9407031342853,-655.4710607859015,-840.4172004741849
2025-12-12 17:52:50.701303,Right,-346.2241871773731,-604.6054602764198,-544.9772597847623,-595.3456017005374,-386.5111857215961,-401.4177705348993,-431.09821143877343,-604.0515540860943
2025-12-12 17:52:50.705295,Right,-152.1013189284422,-301.03621324396227,-262.5092130834237,-292.411490044673,-142.0907225906849,-182.21058860505582,-199.72749601016403,-288.99948894185945
2025-12-12 17:52:50.710269,Right,-182.1755940496514,-266.10098181379726,-238.83549553793273,-260.39628287631785,119.06929005180427,-194.2609215429111,-204.7084905943775,-246.49092605046462
2025-12-12 17:52:50.714334,Right,-257.19608329233597,-374.17467614013003,-339.0642779325717,-371.2094199245912,-31.870449968759203,-272.29257653284003,-287.24709122261265,-369.8288079533377
2025-12-12 17:52:50.717344,Right,-220.92509666417027,-397.02541720925365,-349.5653832331591,-393.74467619974166,-306.7485154334863,-251.4969978070585,-271.39513006131165,-404.7977615876298
2025-12-12 17:52:50.721351,Right,-166.52521579849417,-327.3320862565888,-282.1128538378107,-323.79991104014334,-198.47864250515704,-200.4003125683521,-214.14222801537835,-322.53867072975845
2025-12-12 17:52:50.725407,Right,-156.61966399321682,-227.26387920285924,-199.12865850536036,-228.0745106152899,121.37889770814945,-170.32056972096325,-171.76873994866037,-211.08756530613755
2025-12-12 17:52:50.729304,Right,-98.77779420021398,-103.35939563153079,-88.3887870463368,-109.9523459590273,115.74929215963493,-90.59578983375104,-87.13376519511803,-102.96041574736591
2025-12-12 17:52:50.733386,Right,-6.267554123915033,-35.597958397032926,-16.155502158944728,-42.226844391057966,-163.6561602606962,-2.7660062736540567,-4.10692566576472,-53.75876526106731
2025-12-12 17:52:50.738340,Right,-32.57132778908999,-121.60163155896589,-89.98954967173631,-123.3700424876588,-194.9509148106299,-51.93267994809139,-56.64308989196434,-129.478674582846
2025-12-12 17:52:50.742410,Right,-142.59052940507536,-225.95113662877702,-195.08232307030994,-226.17079622260644,70.32269905177964,-166.63488333043642,-165.32321425780538,-214.87400861407514
2025-12-12 17:52:50.745405,Right,-99.55292121921957,-107.77019545814255,-93.13046217663214,-111.87377663081861,156.01093116196716,-100.14734023281198,-88.59427453107492,-105.23009135860775
2025-12-12 17:52:50.749378,Right,105.21466033782053,148.08744527555245,150.15981432548142,141.72673085922725,-51.64014207726359,124.14772700233152,140.79700902260083,128.99018166266615
2025-12-12 17:52:50.753436,Right,175.39903453245643,192.61049080283556,198.97203607032134,189.31303404805658,-126.04111867894972,186.32409646199812,201.4337178871283,177.85516556758375
2025-12-12 17:52:50.758450,Right,13.30627335855388,-12.406828473802307,4.06359765167872,-12.906517484632786,84.49527203992511,9.500006549755199,22.180068651367037,-4.504741263051983
2025-12-12 17:52:50.762480,Right,-79.60264547499537,-89.88478505386593,-74.74306973633793,-92.23897975091677,191.05705576425134,-75.7228764301799,-61.976648678864876,-80.98675037513749
2025-12-12 17:52:50.766475,Right,83.52350840061627,130.30555690505935,134.6986776985632,125.6224206901934,15.03602716880323,108.31975112217287,125.86754561938324,119.43690352706108
2025-12-12 17:52:50.769472,Right,238.11384416583928,313.2621544358062,313.05785024632405,310.0808179393807,-80.74374865992877,268.4933122166349,289.412717843903,300.4977592483747
2025-12-12 17:52:50.772490,Right,129.93315479310877,188.9492909063938,194.4412737702769,187.61323029984305,105.8726432271651,150.36197660198013,171.84496863614186,196.1528897889184
2025-12-12 17:52:50.777494,Right,-34.206965090743324,11.254930551480356,21.369362877652748,7.802395515042008,224.87030868973306,-15.596272317852709,3.7337271847136435,22.951551647871383
2025-12-12 17:52:50.781514,Right,45.79616596114647,107.87060896145704,114.25436221287964,101.52511635319388,40.94425276694892,75.96290282910923,93.2404245348298,100.45888427809405
2025-12-12 17:52:50.785470,Right,238.77150949457427,325.08622095273313,325.30901631814777,319.7995403743844,-103.70249568405416,276.4196285116486,294.526912098896,311.5574976578646
2025-12-12 17:52:50.789523,Right,236.4921432616029,333.2255745566654,331.2218144778017,330.31790740472206,79.29089339721395,272.0972012964776,292.93007578481047,339.58319524722174
2025-12-12 17:52:50.793548,Right,102.82780646263564,204.7604667936539,202.13344077640795,200.40817764277745,273.1112955840217,140.20652023646107,161.80336993809033,221.99464177017217
2025-12-12 17:52:50.796551,Right,123.56569471747207,232.62275172464433,227.97833440899558,224.70703394239536,130.72778197730804,169.04561564787582,187.98049689301115,233.3560637854098
2025-12-12 17:52:50.800538,Right,269.15649570169626,377.35256923231645,372.0460019579623,368.7730136559694,-80.69200744276895,314.8856902536354,330.8376650458813,365.7779441133898
2025-12-12 17:52:50.805561,Right,271.07242240122287,373.1146522424242,369.76059742626967,365.87052353515173,31.16840949957259,307.850018217694,323.9638922980812,375.77301570633426
2025-12-12 17:52:50.809535,Right,142.45066575982491,254.42034517039428,250.78514167381218,246.27074926209752,261.75897143871407,178.97494155331515,197.72674279278726,270.1315588011348
2025-12-12 17:52:50.813605,Right,152.46419362101005,290.49007074686233,282.2025530883693,280.5816493664461,192.05823492125637,202.3344253830146,222.91588841137127,293.1431302288547
2025-12-12 17:52:50.817556,Right,307.05124957248336,455.9406631938182,444.79225029516965,448.2515751758474,-37.762563576194225,364.62262794867274,384.8767185243778,444.127083645144
2025-12-12 17:52:50.821606,Right,324.9635967006907,456.52922495492385,448.70098520760075,453.7309081108251,2.1820831302611623,374.3706923905993,393.3178095962503,456.20275660810876
2025-12-12 17:52:50.824651,Right,169.65332629648037,287.1659176199464,282.7372830554086,285.6283724014065,231.3670470663783,211.89824024375412,229.69625340829953,301.860845248244
2025-12-12 17:52:50.828591,Right,139.5475235210033,274.27803717157803,266.0665923829074,269.5796380825923,220.9382824406639,189.474195211631,206.87829703639727,276.56626311148284
2025-12-12 17:52:50.834654,Right,323.9860489020357,487.0526355517213,471.78578202665085,480.5583279725397,3.196971903947997,383.2540770904743,401.6760642475565,468.66418965515913
2025-12-12 17:52:50.838609,Right,423.53818330317154,589.6829377725953,573.2066840687767,584.9144205386983,6.416409535959247,477.71498648487614,497.76396078654216,577.528032165952
2025-12-12 17:52:50.841699,Right,283.26602073182585,428.8650111366878,417.0674090006505,424.86999196966644,241.4348755869869,326.589831207908,345.97320585374837,436.4642928665271
2025-12-12 17:52:50.845712,Right,172.35847097728401,305.4892107802443,296.0462595645222,299.2542091071955,274.89716423772916,215.99812053373898,231.17700669312035,309.32140083244303
2025-12-12 17:52:50.849640,Right,298.8090579683776,442.01345062738983,429.0605114590144,434.7501699842978,46.796607575626695,351.15843109349953,362.03408438758925,426.2368804165744
2025-12-12 17:52:50.853690,Right,443.5970621595334,605.302034151624,587.7282458219561,600.4471477289335,-5.84930221272225,499.6556744411937,510.21419520676136,591.4313321147347
2025-12-12 17:52:50.856785,Right,366.8544735975447,538.9562564337393,520.1328639193671,535.6382926874794,232.87631416902877,421.57849930558586,434.48275445133913,545.6583925609593
2025-12-12 17:52:50.860841,Right,227.70757060480537,397.23150461603655,379.74266807967797,391.56965241156286,326.16359033172193,283.86734088364756,296.8187702150317,405.5419567315839
2025-12-12 17:52:50.865786,Right,269.74542244215263,427.29797041404527,411.10951061482774,419.06683802284533,91.47484221642662,327.2988980169757,336.9570303655928,415.68211219034856
2025-12-12 17:52:50.869765,Right,384.9901746385731,534.9300725723733,518.1360135687282,527.1383352412959,-47.614390793212806,438.11252012464684,445.41852930776076,518.3265337509802
2025-12-12 17:52:50.873714,Right,349.67169225402176,512.6898183475714,491.89407729922095,505.2430914468132,165.54514983044646,400.23682026407914,408.5343234290485,513.0458728704834
2025-12-12 17:52:50.877780,Right,250.96392333199037,439.2513142875978,412.3731931048678,429.03538276971085,343.44711365584226,309.050584790064,318.24501738115214,443.3248755739769
2025-12-12 17:52:50.880728,Right,299.67493668053066,491.11273113352945,461.71881080936873,478.439230442571,162.6567360078334,363.90988963405835,370.7233293465688,475.0600766707794
2025-12-12 17:52:50.884790,Right,412.7713732687407,574.845001404814,549.4730338794761,563.6359928768943,-42.54505810374394,467.45514873659704,471.7188309385092,550.0378225911409
2025-12-12 17:52:50.888821,Right,375.7074859791319,516.9264715137542,495.6185508367489,507.5219698311412,105.45133268312202,416.7165959055419,423.0416011128109,510.8827575900359
2025-12-12 17:52:50.892840,Right,266.38708004378714,431.7188877800945,406.80310693144565,419.95745835389243,338.3836037601577,312.2251224994543,323.8009691358893,439.0137687018723
2025-12-12 17:52:50.897826,Right,310.5784981803736,514.63544358738,483.1771479540621,500.1863601714722,240.7864714844909,375.0127199458075,389.1655676217051,509.41552788065746
2025-12-12 17:52:50.901849,Right,432.87660619453527,632.6921588596888,603.7042446783162,621.8110557891196,5.248649457120337,503.5595422828919,515.350645548664,619.113060651056
2025-12-12 17:52:50.905884,Right,379.2770680784597,537.2514565896126,519.4281389064272,533.9214014481986,60.20029873235035,439.821718022984,447.78338043030817,542.4043506445014
2025-12-12 17:52:50.908855,Right,211.9076849531848,354.269747270504,341.90620842634235,354.4315398837789,282.95953718188684,269.74113645090256,276.39466230006656,375.7148146814434
2025-12-12 17:52:50.912817,Right,229.87718314753147,406.51448520232225,386.856378638593,404.98223274957854,251.92887213215,301.3421088308678,309.54622935381485,412.72637528239284
2025-12-12 17:52:50.916893,Right,416.64680628094357,624.2647952351253,595.9105867816252,622.0299690153915,37.95956052595284,495.53971586568514,505.96184676594567,609.2820085081621
2025-12-12 17:52:50.920918,Right,435.99602223193506,625.1516811752808,598.8754134587944,625.2241719490848,52.46730887560989,501.0257212127908,512.5424690710497,617.9540615395526
2025-12-12 17:52:50.925916,Right,228.18910822086036,379.6622281954624,361.0171993113472,380.2209290039027,261.03827706264565,277.15546802140307,288.59110733983107,391.2521059937426
2025-12-12 17:52:50.929870,Right,135.76476545311743,285.40847883943934,267.0369825998205,282.6482390969177,252.96156124395202,188.4657799890265,200.15283604658907,290.3995624973322
2025-12-12 17:52:50.932925,Right,307.7766168199014,488.46962177718524,462.8931565451785,483.2101064337767,28.388523605943192,374.3548866013298,388.00944633979816,473.32596117502544
2025-12-12 17:52:50.936928,Right,440.3398330232012,637.5541898510419,608.4262659629458,633.2456373751047,7.205272762599634,508.89430343924323,525.0395035959082,624.919323917653
2025-12-12 17:52:50.940904,Right,315.7689581621089,497.2726684109657,472.3833454111591,493.4698625669116,233.59685473813443,375.43002109701047,391.65030894667143,502.4605081200716
2025-12-12 17:52:50.944969,Right,169.6803894470795,330.7759182433365,310.5403454932384,324.4227132765809,279.11099869414466,225.6671249087085,239.32007803209126,333.3092240880942
2025-12-12 17:52:50.948936,Right,246.16636175761232,405.49500427074963,384.53429932298604,397.25998614530545,44.56889272906119,305.110363567248,317.2355646874639,388.6341087978217
2025-12-12 17:52:50.953988,Right,369.720780566975,538.9129116724362,514.6916135621141,532.2588182656327,-41.311887480231235,427.69470270513557,442.0097402969259,522.0734678448644
2025-12-12 17:52:50.958037,Right,293.7973513593897,468.95514155656565,443.18374317494454,463.7724535361631,181.7912380505004,347.1478768546367,364.886737121793,471.9126635029097
2025-12-12 17:52:50.960968,Right,153.62200025789207,324.7623652939801,299.1047451940249,317.994249601732,294.95713728351984,206.57494569022674,224.39004770072643,330.94040579663124
2025-12-12 17:52:50.964965,Right,197.7222505848622,354.7735760216019,329.8639817632502,346.8098965793615,71.87116143255844,250.94000719720498,265.3292954773642,342.670161146787
2025-12-12 17:52:50.969023,Right,327.84410240483703,468.3761125714518,444.87210319162114,462.55546980397776,-91.6488792032469,373.55099212238565,385.65237721800804,452.28645660419716
2025-12-12 17:52:50.973062,Right,300.10424134432105,438.05386697815266,415.2012299071066,433.91683580027893,100.26889017451322,337.14203703647945,350.72707708732923,441.7823192627402
2025-12-12 17:52:50.977071,Right,180.5872775677708,333.0277159748366,308.9312402221258,326.4416478993953,296.70704387529986,220.24062017386314,236.15079511102522,345.99009795236634
2025-12-12 17:52:50.981069,Right,195.9102629229892,355.85771375359036,332.0909642088809,346.6004992182134,142.42400092995376,243.48658626811812,259.14216477354057,354.04753266705666
2025-12-12 17:52:50.986088,Right,286.42420673865126,428.32828940666514,410.36143945658114,421.31355036457535,-73.81945191149134,331.710036250588,345.6993795898161,420.5614809213439
2025-12-12 17:52:50.989104,Right,226.72422693052795,347.0381973767071,336.3277999989223,344.2773719546967,41.55495367539697,263.7675466740038,277.5082398066297,358.6733314614394
2025-12-12 17:52:50.993162,Right,80.88874091382604,208.8725958079449,198.70047710853396,206.20985916693462,263.7693226933188,121.97834674204933,136.07165510958293,232.39258030382916
2025-12-12 17:52:50.997113,Right,105.30160586995771,258.16390393755864,242.2446606741869,252.64168193598744,176.3011661338969,160.60650065442314,172.56321998126805,263.59806000522804
2025-12-12 17:52:51.001116,Right,259.70648048841394,411.8875409865868,393.31742487457814,406.6543445918942,-56.591177246620646,316.75353589555016,324.16289661522023,399.8934344956069
2025-12-12 17:52:51.005086,Right,258.03661589161493,378.67015969660133,364.1941988465842,377.03180882823654,-4.774591546447482,299.48696729756193,303.3424664378399,378.88477387081366
2025-12-12 17:52:51.009209,Right,95.7351171709015,195.40798580890987,183.92941386421444,195.30951488862047,225.13163568629534,126.80211093788967,129.59207190561574,212.51169417082565
2025-12-12 17:52:51.013168,Right,72.94209490471985,183.07690608786652,167.56395764433546,181.85463349719066,197.3372067552118,110.96672983816825,113.01175109221367,189.41423767863307
2025-12-12 17:52:51.017196,Right,244.8440704747918,365.81678408628795,345.1716564160306,365.76845307205804,-34.06366288638674,289.59197521890746,289.14618020283524,353.2138625002699
2025-12-12 17:52:51.020188,Right,307.5066352246795,411.92512245179387,392.4538721172139,416.14395357639296,-30.11084256565664,343.9963616944151,339.70949171693064,406.19249444123125
2025-12-12 17:52:51.025193,Right,144.417475938797,225.00114991574083,209.53465053945547,231.37703867309028,205.5764029113925,170.78531029308215,162.68181759346044,237.06029348442098
2025-12-12 17:52:51.029249,Right,38.17649025574792,116.91578438796569,100.78597537893802,121.60137999174185,230.50827560888138,67.54702320054639,56.68460128293373,122.27912142535206
2025-12-12 17:52:51.033218,Right,158.79062990209786,247.3793064711499,227.37942280241987,251.332984656794,-7.012303461553529,194.06345919327578,182.0955889202305,231.95933530351613
2025-12-12 17:52:51.037237,Right,264.9050499201403,348.9947445745929,328.80467134865467,355.5020857063355,-66.90966586195282,294.348501464061,282.28104634874035,335.63039787561866
2025-12-12 17:52:51.040260,Right,156.0526067156461,225.48354423046112,208.8497698972351,233.4709806208848,161.01225028716726,176.49131051287986,163.16333823127206,231.99704080150696
2025-12-12 17:52:51.044252,Right,33.73524533677846,98.54020568577107,83.49725919682533,104.4277233806788,247.7312936745584,56.65549557976192,39.517218840599526,105.72967766778311
2025-12-12 17:52:51.048280,Right,113.22029377229046,179.26740848988993,163.12505191285163,184.0983343088883,23.628313759574667,142.6782834578189,120.95303330832394,168.43308465805603
2025-12-12 17:52:51.052256,Right,222.43233966152184,278.4092344272067,262.8442820821074,286.7896472660359,-103.39991622632078,246.8562203933252,223.1051651161397,267.6932653548429
2025-12-12 17:52:51.057235,Right,134.4291802716034,176.2676442451193,162.87235758278985,188.5962533314596,94.0785696683306,148.0036625211942,125.39599791972432,186.93879583419766
2025-12-12 17:52:51.061332,Right,0.007285575586138293,43.47078629065072,29.278641143348068,55.584540644835215,240.69874554536364,13.771810650941916,-7.464911454124376,59.03052853659028
2025-12-12 17:52:51.065332,Right,65.81753236713121,119.19389059080277,101.809865987394,130.00186041661073,58.59205042071699,87.40824108454399,65.41625413147267,114.55316743353615
2025-12-12 17:52:51.068328,Right,209.20136984388228,256.11124313191976,238.92938117816811,269.0599942734116,-115.34162254451076,228.61196507693967,204.68875170947285,243.1152434766991
2025-12-12 17:52:51.074347,Right,165.19050862430595,192.38189838151447,179.15454332751688,208.34687140298774,41.72582257539034,173.24941285257228,148.14148069551447,197.1348524769419
2025-12-12 17:52:51.077306,Right,22.391037493100157,43.8296997884172,31.748863655957393,59.09442111704266,237.64987634003046,27.888369831314776,2.558487895410508,58.28635005187243
2025-12-12 17:52:51.080340,Right,57.150080310035264,90.03535248298431,74.14030626812018,103.22654894174775,111.71516856750532,70.84979205337004,45.77312388288556,87.81997791281901
2025-12-12 17:52:51.085377,Right,212.58541062517907,247.72403725708136,229.21655494137667,262.57614525198005,-93.6934651559568,227.8198722389061,203.80184278503293,234.11249922338175
2025-12-12 17:52:51.089380,Right,196.54757738873013,215.53569568088278,199.29595865611918,234.11757749458775,10.344369731436018,202.27388247373165,179.79871109948726,218.13211418513674
2025-12-12 17:52:51.093340,Right,21.052939715533284,28.303254081867635,14.14453147049062,47.11563147889683,229.42847328468633,22.970073227450484,0.3739617267274298,45.651322685414925
2025-12-12 17:52:51.096339,Right,-16.21595568736666,-2.9376384162460454,-19.790432678651996,13.106709828716703,148.26266157309874,-5.583415446832078,-31.051577003207058,0.6022276333533227
2025-12-12 17:52:51.100426,Right,126.1053451380285,145.67092446325114,125.05717858995195,161.43193038314348,-90.9266679619468,142.2721789132629,113.77601124870125,131.26800405234098
2025-12-12 17:52:51.104417,Right,166.94166193288402,178.71577072003856,158.14332321300753,197.31284668977605,-50.52872868157283,175.83574380810023,147.32546706448193,172.40437266527442
2025-12-12 17:52:51.108432,Right,26.781505989201833,29.289880815776996,10.39243622563663,48.99235291662626,186.1360005424649,28.531460435508052,2.4322930112248287,37.59245122579159
2025-12-12 17:52:51.113388,Right,-31.430590590287466,-27.66635455348296,-47.17376741790213,-9.693872337404173,169.53784122025536,-26.417806919576833,-50.293086751247756,-29.441021178441588
2025-12-12 17:52:51.117454,Right,101.45662957421155,105.89427589517436,85.33845877033309,123.53748318325961,-76.13689786092436,109.02374352858169,87.0270192392054,86.06491492828354
2025-12-12 17:52:51.121473,Right,177.85264020852628,173.15308831108268,154.18015669754823,192.53424793688464,-95.97835625719745,177.04005090036662,158.1437265732675,160.7938027670607
2025-12-12 17:52:51.125485,Right,58.49809625677881,48.051191571808886,30.701017012732336,66.44059541734168,146.80334551814303,49.231326080538565,33.82189874627511,55.38299528422067
2025-12-12 17:52:51.128503,Right,-31.518252019770443,-35.40490267108544,-54.56341002488625,-21.523954875621712,198.6602235211467,-38.049527439812664,-52.20121080405079,-32.20890504005365
2025-12-12 17:52:51.132469,Right,67.56828706047963,65.63291060208576,44.23740560939768,77.57735882754787,-42.33526347394218,64.13688780952361,49.48331293059164,49.58076133776922
2025-12-12 17:52:51.138571,Right,148.58709154900862,131.59879888236173,112.06007044401485,147.0443166338955,-136.59472967300098,135.03880008179112,122.01012845692458,119.10822812121478
2025-12-12 17:52:51.141561,Right,31.990519632134237,2.2727183114620857,-13.9602284191933,21.149955652217614,80.79870385407412,4.79333517588384,-2.900748200772796,12.740485806454672
2025-12-12 17:52:51.145563,Right,-88.33037841602345,-109.80141356037348,-126.53235884127207,-92.1222395208606,195.3044783073492,-116.22872513114999,-118.37321686836367,-95.8242066296807
2025-12-12 17:52:51.149586,Right,-4.2258812255604425,-14.933902968215989,-33.571969517041,0.527375426114304,-15.673693948279833,-25.981033142961678,-25.929591512700426,-19.094052420405205
2025-12-12 17:52:51.152591,Right,113.77342659895658,91.05427132130717,75.42773679993115,107.60500937717734,-171.2186528220991,88.7302609494509,88.81876598477538,85.93659671937348
2025-12-12 17:52:51.157604,Right,32.14096120535396,-10.594804698775988,-20.086237830779282,7.4504822515300475,3.1039909710161737,-0.6054701530229067,0.3184570728626568,8.425997632875806
2025-12-12 17:52:51.160650,Right,-106.63251524181396,-145.442460733786,-153.6624827410269,-129.6658622682735,168.74253553724702,-134.32762056798674,-131.78795755720057,-115.33178697279072
2025-12-12 17:52:51.164626,Right,-47.575707046940806,-65.51447082140658,-77.81227784382645,-52.9999396057392,9.638341192592634,-62.22765229124343,-58.6888110145519,-51.945574468860286
2025-12-12 17:52:51.168630,Right,95.01237779663643,78.84942519181641,65.37032723688753,91.79161575964827,-181.2406493739254,79.8050079948298,84.40926249830227,82.69295021569997
2025-12-12 17:52:51.173665,Right,41.253612970380345,3.3588221253594384,-5.415526095268433,18.301389068117714,-55.33547187205113,10.927523761129123,17.955887545773294,22.93833907417138
2025-12-12 17:52:51.176631,Right,-133.81996663338214,-183.30297139738104,-188.60678573900077,-169.62675177122583,139.12418201421679,-171.67036994131195,-161.82158471967705,-153.30573797506804
2025-12-12 17:52:51.180662,Right,-131.53761434547778,-168.24024004858802,-176.0069235897172,-157.47421293864318,25.63002578070882,-161.46642399746634,-150.22279275730398,-154.13403558039863
2025-12-12 17:52:51.184620,Right,22.492795473212027,-3.1322675117698964,-13.96507856649987,8.048231065346044,-192.16273967184316,-1.534755681095703,9.711475717951544,-2.4693329867586726
2025-12-12 17:52:51.188694,Right,26.76345279578527,-8.185568729662918,-17.452014945811243,5.336678172534448,-110.77910831188274,-3.5993104918998142,7.237667838744528,5.6413912361022085
2025-12-12 17:52:51.192717,Right,-137.97931475156656,-184.87890641440754,-191.91538003212918,-172.9942697026272,115.954477514053,-173.89312513772893,-164.13666091434425,-158.3401311141497
2025-12-12 17:52:51.196710,Right,-172.1517791614824,-215.17917070090334,-224.83800845153382,-208.96418158155575,62.96419054255966,-203.34651679933086,-195.75105918811096,-205.33245393998368
2025-12-12 17:52:51.201772,Right,-9.219844098610338,-44.0828726228865,-58.53099941328219,-41.545067825049045,-169.4225035395957,-36.9589896164498,-30.899910574236856,-56.74749362934381
2025-12-12 17:52:51.204700,Right,63.88674679800897,26.23026296932221,10.453361426454194,28.979707914793835,-140.70151435503521,29.209954481308216,36.36341932036612,19.422908722208376
2025-12-12 17:52:51.207784,Right,-66.75633626318631,-109.32744093316796,-123.75620717312904,-106.94381712155155,104.16450576092052,-107.13204310535548,-97.50931668970333,-98.35606021132844
2025-12-12 17:52:51.212755,Right,-145.55280475362906,-183.55867095058966,-197.74610650755858,-183.89762253703884,112.55258795813393,-180.0824742610912,-169.45152884207164,-177.87657875520017
2025-12-12 17:52:51.216769,Right,-30.772713506189803,-64.28761663449222,-78.10268660775546,-65.79306770284256,-133.2133450883066,-58.9159277595063,-48.65978065233503,-75.84019839684333
2025-12-12 17:52:51.220741,Right,50.49705822038595,11.595217626630074,1.4249067505552375,11.789954593099537,-178.95460757519413,17.77317418549137,28.30451552777231,5.240923886349265
2025-12-12 17:52:51.224792,Right,-60.62748617082616,-102.8760684646204,-108.47552357987297,-102.6442814660968,58.6704946626287,-99.12632187054987,-88.06218020466622,-90.13595430351779
2025-12-12 17:52:51.228810,Right,-156.07474804627054,-189.40953968566464,-193.76438816698646,-192.66189309221954,136.98732364100397,-189.58009579421196,-179.92398926079477,-179.7472111323732
2025-12-12 17:52:51.233831,Right,-57.834638648535474,-85.18235886911134,-89.84765074804454,-90.5534813797276,-89.98859220386657,-84.98572044319735,-78.11190879545757,-96.13932369466056
2025-12-12 17:52:51.236831,Right,42.58124539221171,4.20276863588515,1.8905115130110062,0.889065715673496,-201.17670158235705,9.766359045424906,15.89917163825885,-7.164437088409613
2025-12-12 17:52:51.241816,Right,-56.31470035564416,-106.0411752624641,-105.36904723192856,-107.90227240591048,7.050609089619684,-98.0803631617091,-89.4691689054307,-96.95521419993747
2025-12-12 17:52:51.244861,Right,-182.8729108086627,-223.85466821853333,-224.56876761076273,-228.80126610231673,142.4279712817297,-221.22341773132212,-209.863331917928,-211.6336685549977
2025-12-12 17:52:51.249903,Right,-109.10733452650311,-135.7228064375231,-140.3043641893455,-144.3455746441614,-51.98260095110891,-138.39296002783522,-126.78617509185278,-144.2644283988484
2025-12-12 17:52:51.254873,Right,21.97643013333436,-11.274920986848883,-15.801932331582066,-19.615085644400096,-219.89496962163685,-10.037418769978103,0.06495871125662234,-27.81039935827721
2025-12-12 17:52:51.257922,Right,-39.09042934398167,-91.48906683450332,-92.49475327975233,-98.52589140266355,-55.890546727860055,-81.46340128552401,-72.73179152340163,-91.81013455006178
2025-12-12 17:52:51.260965,Right,-182.1321104092931,-235.8196425831411,-236.7331881938735,-244.99078226542042,127.93474899257126,-223.2656300811068,-215.75029937508225,-230.08040640222316
2025-12-12 17:52:51.263861,Right,-143.0201818433561,-180.24195893941214,-185.45958822780813,-192.15204909649037,-13.696853527522762,-171.4315185809537,-165.3968145775725,-193.15435280416568
2025-12-12 17:52:51.267932,Right,-1.4840681687783217,-33.983388863300206,-40.81092455999169,-43.994362412326154,-217.76962244279275,-24.967596920832875,-19.68374554014008,-56.541071878848015
2025-12-12 17:52:51.272922,Right,-36.45183395280037,-82.67268326674821,-85.76536779597518,-88.17588671631529,-108.76323993229744,-66.4049957532261,-60.85657224881288,-86.786032979624
2025-12-12 17:52:51.276939,Right,-200.42406870880222,-252.857066702476,-253.49935658747563,-257.1917488838808,99.85432086735818,-230.17245807788277,-225.3905514858052,-242.9469588938955
2025-12-12 17:52:51.280942,Right,-195.1719731496123,-235.85742039962497,-239.62996105698403,-242.18299771213788,9.442237184113765,-212.22973454052408,-210.41594578581862,-241.6235879061569
2025-12-12 17:52:51.284930,Right,-17.75627771031577,-51.45959344715811,-58.60035226630862,-58.21216087669018,-213.032524049333,-27.36761787335854,-28.64105366251897,-74.73055692316848
2025-12-12 17:52:51.287973,Right,30.610049810275086,-14.068233229219913,-19.56266300144489,-19.853974855999695,-144.47561675177712,13.890787933283718,11.468442191311624,-27.452961268427316
2025-12-12 17:52:51.291997,Right,-110.91264841922384,-165.24753492089803,-167.74453178112162,-172.91661190855666,100.43083932808804,-134.4348388336657,-136.75090644092415,-163.7127659493126
2025-12-12 17:52:51.298033,Right,-167.16968233128136,-215.19458579676575,-218.42149589170003,-226.71225960520678,76.22409917418554,-186.67949034043704,-188.5445093845192,-224.0247885720164
2025-12-12 17:52:51.301052,Right,-46.3901425942895,-88.06584395133541,-93.16569024021737,-99.90956408248167,-166.97064836703066,-63.20309163321508,-63.34655598050449,-113.33993304808973
2025-12-12 17:52:51.305054,Right,-4.838667985299253,-54.17533551476663,-57.897610275802435,-62.68889029871207,-178.21552908373997,-29.646899606799707,-26.403055815637344,-69.54502137462259
2025-12-12 17:52:51.309103,Right,-156.36689436255256,-212.14286441964214,-213.7409968766733,-219.6334038792702,54.25817917866516,-186.7952443898539,-180.70213980891276,-207.415078189224
2025-12-12 17:52:51.313000,Right,-249.05977428265032,-295.3742660472635,-298.4088077842898,-305.75086443827604,84.24613719824993,-271.22569812531583,-265.00852032663533,-296.3486777326325
2025-12-12 17:52:51.317062,Right,-129.35311746571097,-165.8939461625414,-171.2887663883157,-177.61144724924816,-155.84779309525038,-142.21170832341886,-137.28219504121807,-187.59325680500478
2025-12-12 17:52:51.321058,Right,-28.24435371326399,-72.63153479300672,-76.37694574065972,-81.73554877261631,-225.51018539832148,-45.967048298887676,-40.671464486949844,-91.85829152414226
2025-12-12 17:52:51.325090,Right,-133.6618922476191,-189.84163764925324,-190.21874869862222,-197.43573750110227,3.3941777655127225,-161.07440103392582,-153.45001073813182,-187.86905741749797
2025-12-12 17:52:51.328092,Right,-244.55569749578717,-295.70835056496435,-296.73602025269065,-306.1093499448616,106.82799689617241,-270.3425857926777,-260.7073206665809,-292.10569794810726
2025-12-12 17:52:51.333105,Right,-151.1326482979057,-191.09674258998712,-195.36159449326806,-204.09675649061683,-102.95820287099923,-170.56547282426618,-159.91936000058195,-206.2453960548446
2025-12-12 17:52:51.337125,Right,-28.43275403045118,-73.7495654503582,-77.44564728692058,-85.10843928676331,-230.8799985802325,-52.9722921482753,-40.5618350605655,-90.35296970384661
2025-12-12 17:52:51.340140,Right,-107.08478622496477,-166.92903410695726,-166.31658463104395,-176.04935210366966,-38.63765650775167,-143.16721789955045,-127.61938084702706,-162.3266323118587
2025-12-12 17:52:51.344143,Right,-240.5122900811839,-299.6698861003679,-297.3649680839444,-310.3913479546318,110.92812617147865,-277.1146909435629,-259.022483499808,-288.3633776793722
2025-12-12 17:52:51.348147,Right,-178.69006440145313,-224.7250353518466,-224.4973435313441,-238.052651349979,-66.99871908148634,-206.61476435288205,-188.06837011518655,-231.64527292939601
2025-12-12 17:52:51.352094,Right,-35.31430356315104,-79.71709939689026,-79.42279086326016,-92.09406651003519,-245.45625920256134,-62.04969011119101,-44.244020401645685,-94.10457800157019
2025-12-12 17:52:51.356168,Right,-76.73210059988196,-131.84936236645444,-127.26271881861612,-142.0280903200328,-94.72280140849762,-109.55846760177519,-92.81718290297431,-127.74530762055656
2025-12-12 17:52:51.361173,Right,-226.84834425119334,-282.5094017017982,-274.7740342284669,-294.0670859350939,102.0638833050325,-256.9251251210808,-242.3583858149941,-267.8738958633621
2025-12-12 17:52:51.365203,Right,-209.47310581241618,-252.56603165357956,-245.78199631729512,-267.336177024059,-23.43780252688157,-227.79256110650022,-216.06325251946691,-255.7003186766524
2025-12-12 17:52:51.368186,Right,-61.74610304669477,-100.9757040432014,-94.94787120865658,-115.75195689857355,-237.75692781324324,-77.33489539672155,-65.81017894682009,-119.26247037231224
2025-12-12 17:52:51.372207,Right,-62.89952677563997,-111.92882327258121,-103.61111868795706,-124.77513802191243,-141.6093855685467,-88.47714289094438,-72.939153534855,-117.88094649105915
2025-12-12 17:52:51.376243,Right,-212.59368408619775,-263.9246962936595,-254.1286925059103,-278.0961001638789,84.65370380553941,-243.2111492777476,-223.00084572969354,-256.726661758672
2025-12-12 17:52:51.380171,Right,-231.56314635070157,-270.9962372149457,-263.04630257969256,-288.6538243261748,17.802168633890687,-255.06393162996392,-233.62735710607376,-277.17591491603525
2025-12-12 17:52:51.384235,Right,-83.0821422173758,-117.50897919898853,-110.37394872168079,-134.89577900932636,-217.77483452919114,-102.66559974942356,-82.74362805121928,-140.23440918890992
2025-12-12 17:52:51.389255,Right,-41.856706032849615,-87.20914606610313,-76.61891572148306,-100.64762088627322,-181.89861863973783,-69.17990625661332,-50.36278501100605,-99.88352972408757
2025-12-12 17:52:51.393318,Right,-180.60875856640632,-231.67709987860871,-217.71578640135704,-243.7028271452291,59.30269206016965,-213.1502944242966,-194.47061998493155,-227.87349304830423
2025-12-12 17:52:51.396266,Right,-233.97833697177703,-273.2019309287425,-260.25071990984725,-287.8582353325328,55.450979807123076,-259.5504899031075,-241.5151066352846,-278.9835589095601
2025-12-12 17:52:51.400281,Right,-96.02565789507935,-126.15752879012143,-114.97553531336598,-142.2107562822639,-188.84736537162098,-115.67373997811228,-98.8128258396464,-151.06160280457698
2025-12-12 17:52:51.404302,Right,-20.274706875585252,-59.85590482753469,-46.36045342864236,-74.09275047050323,-222.3806445569644,-45.912057860114146,-29.536805233423365,-77.81176092009991
2025-12-12 17:52:51.409276,Right,-146.874075434549,-195.581998581707,-178.71229695359943,-209.54738822666695,12.612242560935556,-177.7295772889338,-161.31637759998557,-191.8079971272964
2025-12-12 17:52:51.413325,Right,-241.1905015455559,-279.17993129766546,-263.2961820497876,-296.5471618492156,74.37369418247545,-263.58767413784517,-248.00161412273883,-276.4939396029222
2025-12-12 17:52:51.416288,Right,-132.32338015071582,-156.0767815549625,-143.223418925656,-175.55542786821024,-154.58033667423297,-144.42616428429028,-130.41573310748208,-172.26192469953094
2025-12-12 17:52:51.421370,Right,-31.71392177810776,-61.16997712536249,-47.38063540059375,-78.21485084766755,-250.72405695456837,-47.74453566537704,-34.177069422847126,-76.76532941905316
2025-12-12 17:52:51.424349,Right,-135.5945419939526,-179.14887827727944,-161.78453453228576,-193.37591649376554,-41.407699583345675,-160.8489419630787,-146.11575926060323,-174.89167423994513
2025-12-12 17:52:51.428372,Right,-253.55337808834156,-294.25523316458566,-277.0144204474054,-309.0917614852078,74.75180171380634,-275.4342580498778,-259.94525222692755,-287.5216645518085
2025-12-12 17:52:51.432382,Right,-160.14889317314373,-187.28638045821572,-173.70634810772026,-202.92378995899344,-124.5290556463151,-171.3615261222294,-156.7738196325081,-199.37375214818167
2025-12-12 17:52:51.436384,Right,-17.158588113321457,-44.97040919656865,-32.38041744969087,-57.99253200326348,-268.2267025983165,-28.51805946737295,-15.212232304824283,-60.86285144428257
2025-12-12 17:52:51.440398,Right,-77.78661710815504,-118.30389211146394,-103.14635771379108,-128.57231115718605,-85.3588601595111,-97.8251372295199,-85.33236844275962,-114.81086542655248
2025-12-12 17:52:51.444410,Right,-219.54938377806684,-260.8987279945286,-245.33328684797743,-272.32742368383333,86.85704391766922,-239.1216320231615,-228.14144029468298,-250.82203684473643
2025-12-12 17:52:51.448364,Right,-172.9479063814506,-202.34571430366486,-190.03885626490228,-215.67052152531687,-68.89906281583535,-182.9032814266102,-174.2765554265061,-211.7488556233584
2025-12-12 17:52:51.451527,Right,-20.754408457229147,-48.20576706476277,-37.34904645924689,-59.2975413062959,-257.24041916796705,-29.316290026385104,-21.636900217155926,-68.64605539740296
2025-12-12 17:52:51.456439,Right,-41.183461188018555,-80.30557912343647,-66.83802297210786,-87.54159786226228,-120.77115445285744,-58.76838887896156,-49.79925761933555,-84.92342145321891
2025-12-12 17:52:51.460467,Right,-188.90207075775834,-231.73016909195576,-216.69743610010482,-239.00916327623418,92.32522202748805,-208.6572884192865,-199.04839275742415,-225.10641606879653
2025-12-12 17:52:51.464406,Right,-180.24404504013364,-212.72521755762864,-200.1579041936784,-222.64638349221786,-9.184002022549976,-190.20893712039106,-183.0949622814078,-221.3554830258945
2025-12-12 17:52:51.468470,Right,-22.779776932671666,-50.64370596187655,-40.1880303871003,-60.477835021796636,-229.24708279663173,-26.834532342705643,-23.397149212047225,-72.00293144473108
2025-12-12 17:52:51.472487,Right,-1.5635816747089848,-37.56551273405785,-25.674976319249254,-45.264299629081506,-150.20172974567686,-10.563222292461433,-8.559818746958626,-43.52430202130927
2025-12-12 17:52:51.477521,Right,-148.91165570993326,-186.36719006480416,-173.37587785808137,-195.1155472525279,86.8872456662939,-159.58092437294545,-156.7226620912552,-175.1657273270539
2025-12-12 17:52:51.480452,Right,-188.25486137231928,-212.25465735181933,-201.642879015184,-224.89243419119157,43.66172970239131,-189.95894990619854,-186.1915139675839,-212.02176164177945
2025-12-12 17:52:51.484509,Right,-53.09028329473222,-69.05720678303624,-60.40758415812161,-82.6844135892461,-198.75610321664135,-49.37914441723842,-45.134782010514755,-85.90595416841097
2025-12-12 17:52:51.488514,Right,-7.864326541690389,-32.83036562119378,-22.285286133992486,-43.65602139773546,-190.67666442629707,-11.30714967631502,-6.115581456484506,-39.85252510744613
2025-12-12 17:52:51.492545,Right,-148.91484269543434,-180.5475846355548,-168.43166059919167,-190.19857550319284,48.3505552742281,-158.1485683566425,-152.27325704402756,-167.93096521915868
2025-12-12 17:52:51.496568,Right,-222.10431721364148,-243.62233915977413,-234.79927203815896,-255.5391380985384,66.61500048723246,-224.39852949159103,-219.49947680343757,-236.71791921858676
2025-12-12 17:52:51.500576,Right,-95.97651560246595,-108.76140262983972,-104.19181627972284,-121.52586249401793,-176.6828564072057,-91.35537494911114,-87.90540278091794,-120.8594510506955
2025-12-12 17:52:51.503579,Right,-4.565446592081571,-27.409686066268478,-21.98565578222042,-37.40634892042726,-233.76181038829964,-6.727775632345583,-2.8162721633561887,-35.28142878669314
2025-12-12 17:52:51.507633,Right,-106.59064654394751,-141.59685123094823,-132.55546960333595,-149.9065548311919,-0.2224023266171571,-118.057359825616,-112.6036857679137,-129.14558844972635
2025-12-12 17:52:51.511606,Right,-187.31333384252503,-215.33343753626104,-206.32391943215043,-225.64710960624507,94.11884352652123,-193.7756572337239,-189.23152370069874,-203.6729428973631
2025-12-12 17:52:51.516584,Right,-65.69396914192475,-80.75204732554266,-74.44485878536943,-92.07116327778203,-111.87189745191426,-60.155804587120656,-59.779943088273285,-88.50747889233753
2025-12-12 17:52:51.520625,Right,54.40098372369539,34.47956159140449,41.467160088475794,26.460732889536303,-214.26320519107685,61.11883335490711,57.47145561254001,26.22067149990471
2025-12-12 17:52:51.524641,Right,-43.84721597941825,-77.47310001635924,-66.76912835161784,-82.34515207016375,-4.475839895603713,-43.40366478366195,-48.242200818203855,-65.30535365833202
2025-12-12 17:52:51.528652,Right,-181.58486567231012,-212.6279736639699,-201.2716638581478,-218.8282997449278,137.55608401556674,-178.95963922794908,-183.23085978324525,-196.94217389030382
2025-12-12 17:52:51.531662,Right,-106.42074765756843,-123.09055215746048,-114.73892338995938,-131.68923231057124,-47.05368586667464,-95.99144458971568,-99.89671522993012,-128.15970947235473
2025-12-12 17:52:51.535668,Right,45.43576101740473,29.922276378667448,37.43965735236998,22.41394911162206,-210.2498563282279,53.326744708261685,49.40339484985452,16.61063451130758
2025-12-12 17:52:51.539624,Right,3.7488863619219046,-23.423916238127276,-13.258935026911786,-28.988480725995032,-44.178840299355215,0.6608143413031939,-3.486785244254861,-20.025462891208008
2025-12-12 17:52:51.543708,Right,-136.6714098827215,-164.77975727026933,-154.01252355871839,-172.05431187723298,145.69658726365014,-142.12485784327146,-147.45710138615686,-154.328135314252
2025-12-12 17:52:51.547759,Right,-97.15151466874522,-113.42698237125296,-105.97583425088669,-123.76848295208765,11.473362701479346,-95.560136988468,-103.02242498946725,-121.99003564339364
2025-12-12 17:52:51.552751,Right,64.99198978961795,50.60689849438495,56.17811753693968,40.49116585418233,-187.70521639403887,66.31020775690558,57.476668552233605,29.878017411538167
2025-12-12 17:52:51.556750,Right,64.27997942335787,37.637914519844344,45.48919823378674,29.18303330487106,-69.8959747532499,55.43504732687143,47.0049516344734,33.01443361083511
2025-12-12 17:52:51.559847,Right,-83.20283540015225,-113.77715214871569,-104.24867962877033,-123.81044413420022,155.56964332979987,-94.70230754703516,-102.33034281185246,-103.4214821428759
2025-12-12 17:52:51.563748,Right,-93.24910502508283,-112.43359945280827,-105.16346729418729,-125.52761028087116,77.77196742821252,-94.25115401204675,-102.09551623725565,-113.59598403106793
2025-12-12 17:52:51.567766,Right,56.213148862705566,41.880722453293856,47.04032545856899,29.846496945712715,-149.05142474037712,61.74001771392068,53.777728790504625,28.08503268592176
2025-12-12 17:52:51.571730,Right,86.57891267447849,60.45081217211555,67.15705058840103,53.12264114385471,-93.48747388953052,85.44017052120762,78.98306046245852,61.018216924596345
2025-12-12 17:52:51.576738,Right,-58.17159599394654,-92.26748513369239,-84.29640723124612,-97.07188088161638,147.16812396768364,-64.65803041501204,-69.36367438832531,-72.65036801737733
2025-12-12 17:52:51.580794,Right,-106.2215277646319,-131.54860239374102,-126.63187040973571,-137.07681136587053,127.47507158039662,-106.43779996407102,-111.69141055052751,-119.99466195475543
2025-12-12 17:52:51.584821,Right,31.627702972473344,13.318994308297988,14.625978694471996,8.805653077171883,-115.53760004877404,36.83500882307999,28.8697004832502,7.307955641037552
2025-12-12 17:52:51.587801,Right,91.99798009227379,64.26822806693963,66.38406159094302,63.87841681658756,-131.16854381201847,91.80886045633815,81.09456808393588,65.06415066414047
2025-12-12 17:52:51.591831,Right,-49.562288387009175,-85.70455689146183,-81.2409305133333,-83.7764915106236,105.4434282949951,-53.24521135582472,-66.10864460631274,-66.98811608497635
2025-12-12 17:52:51.595846,Right,-141.80726660904475,-167.87240461731562,-164.87246425595367,-167.34039225257584,149.3628207330039,-135.23480172711425,-150.48176940935082,-155.3501461474807
2025-12-12 17:52:51.599857,Right,-20.48311374153127,-33.5429973093851,-33.75486057277885,-33.37248031824129,-81.82259098262875,-2.3280142974690534,-19.67544057528721,-41.78253230440896
2025-12-12 17:52:51.603877,Right,88.42063651408534,70.70896661790903,70.98102439142531,73.90727650388726,-153.93525815699832,103.90081477694912,86.3099559310067,64.35123013149132
2025-12-12 17:52:51.608893,Right,-11.507985066360561,-39.606419844174525,-36.61468895385042,-34.61913831115817,72.35872101393761,-4.13890411160537,-20.72075560092344,-26.067564203578513
2025-12-12 17:52:51.611883,Right,-126.34340815746691,-148.66173738215002,-146.29422191774938,-145.98910649196478,179.89351483843348,-115.8898430937843,-132.84286605982925,-135.6202934641624
2025-12-12 17:52:51.615835,Right,-38.88130428302975,-47.91127996330033,-48.699099461344304,-47.02369563875254,-27.94392382467049,-19.84499927322031,-39.01565481279977,-56.80242085779901
2025-12-12 17:52:51.619900,Right,85.61240425279539,74.92877164116362,74.08075155655388,78.48260950131225,-160.94482389951008,102.51120747911045,81.94918761579902,60.87620266343583
2025-12-12 17:52:51.623919,Right,11.666911202541087,-9.554786821594462,-7.5977098485745955,-2.770365005475469,30.243391339587106,20.13886271827505,0.361488279158948,-5.484102528949734
2025-12-12 17:52:51.627964,Right,-122.98838885199802,-140.6544151076523,-138.73352056427393,-134.66205386727233,189.96617220985354,-112.16774082118354,-131.11834860101226,-131.88281555197318
2025-12-12 17:52:51.631935,Right,-62.25604770593054,-66.13052835673443,-67.49452363842283,-62.24089912101044,22.29981391779438,-41.060316845658235,-60.845684952742886,-77.01414196341648
2025-12-12 17:52:51.636952,Right,92.27092636759335,88.29125075100455,86.18014259627671,93.00894961421727,-156.1030928508335,113.35168570120004,92.61588094275794,68.59792205499252
2025-12-12 17:52:51.639969,Right,71.76791250112001,54.60912926957826,55.502103054575855,60.62266489901231,-6.5780633627509815,81.86197259399341,61.73904340763693,52.40100686723599
2025-12-12 17:52:51.642982,Right,-61.139157165715005,-79.60665394412354,-77.67360879652551,-76.08612003046437,199.63101703554275,-54.38090062273841,-73.47730817386764,-71.13463354596752
2025-12-12 17:52:51.648932,Right,-35.63182599423453,-40.56929806951666,-41.674554705183255,-40.58432712033391,87.05163379562873,-21.18973149517842,-40.38669982209103,-47.92298780399142
2025-12-12 17:52:51.653016,Right,115.81284039058664,114.52397116908105,111.75209932032158,115.55932909841067,-124.62694304772594,131.86109121596382,112.27803322563705,95.61322663543979
2025-12-12 17:52:51.656000,Right,115.7291122291208,101.45054642483592,101.37839702688507,106.59984758339124,-32.18295200157445,122.43890726700192,103.4974728183588,99.1815471915179
2025-12-12 17:52:51.660045,Right,-38.412319160517654,-58.725684146396816,-56.70062486710958,-52.602387000311865,197.65774483202404,-35.659984814716154,-53.71222385717556,-44.21284472919069
2025-12-12 17:52:51.665048,Right,-67.04006818887137,-76.21052606965532,-76.36660879733972,-72.45061756143696,138.9674149603452,-56.398703227736405,-74.64351051552512,-73.35536271493766
2025-12-12 17:52:51.668044,Right,69.51218800678907,67.25716806351556,65.06331368420797,70.69493191977381,-99.53037292630324,83.84619003337866,65.312557888421,53.32396581035573
2025-12-12 17:52:51.671049,Right,96.60774856008356,84.88624747373979,84.96042183622194,90.8968590489385,-78.888105821512,101.34231773398642,84.84900182977435,80.38168933513225
2025-12-12 17:52:51.676083,Right,-59.2478466128523,-76.63462118589086,-74.0527209432621,-69.75392655484029,150.63495801947283,-62.51053330168361,-74.51209163226304,-64.12676004116656
2025-12-12 17:52:51.680075,Right,-126.35131979566358,-131.2429096228443,-130.8432597869978,-126.00645543342398,145.6284816956395,-124.10662268027954,-132.06862112700765,-127.35316081429482
2025-12-12 17:52:51.684024,Right,12.320423918325105,18.491542302435846,15.498487859251327,24.189253185744747,-99.1054148310468,21.013969688036013,14.771758389833849,2.794186294093379
2025-12-12 17:52:51.688083,Right,103.09494172873383,100.42638552565768,98.84475460016984,109.78652898337168,-137.79445908260823,105.70712955555064,100.27102361041761,89.96409954654519
2025-12-12 17:52:51.692127,Right,-7.449127558138571,-22.36400299561501,-19.477148133999435,-11.090275296126492,95.74213169277937,-12.92593102932733,-17.089991714732605,-11.991092088617734
2025-12-12 17:52:51.696072,Right,-91.52685417539033,-100.6944784609077,-96.0054757061589,-91.32476019032765,165.13045429131307,-92.76245418125472,-96.04573020353564,-90.54452769515046
2025-12-12 17:52:51.701128,Right,28.833559056714876,31.396185842051636,35.710560678940965,39.63547438860405,-54.243935570095346,34.848210024720174,31.814132741026697,24.20626991968311
2025-12-12 17:52:51.705089,Right,147.20123141135264,145.7149612956564,151.94979494591826,156.25826432144095,-143.80783020676972,147.48600910224195,145.88261942152167,139.85325969694532
2025-12-12 17:52:51.708092,Right,59.0248030892908,46.72525620239321,55.985405699088005,58.76252966960601,74.75323708522046,48.13476017858193,49.53775222063996,60.03733232965169
2025-12-12 17:52:51.712165,Right,-55.5234973709521,-63.29754142575257,-55.11917487172468,-53.64148662345542,203.97572913216936,-64.93357139325963,-61.505394718027674,-49.65961490671907
2025-12-12 17:52:51.716125,Right,31.650343657514895,37.146277505889884,41.00828037528845,44.80922143073985,10.808617175793188,32.52888021770923,35.429494957628776,28.904007184915827
2025-12-12 17:52:51.720191,Right,167.2105423146204,171.90018760116072,174.5560169735836,182.08715195079276,-138.49688063354188,169.37074421250145,171.02134965952428,157.88326077227248
2025-12-12 17:52:51.723185,Right,95.98414888472325,89.76494593206735,95.23170165764168,103.36627633111493,37.45464303005065,91.36102484365983,92.97993827935716,96.44697632202588
2025-12-12 17:52:51.727173,Right,-66.5106876723803,-70.41198544274084,-63.88052701235574,-57.64129680237966,207.47112160583492,-70.01638607167115,-67.9178206756842,-53.20084433715965
2025-12-12 17:52:51.731220,Right,-45.45475467133656,-35.182740925156395,-30.956132512365002,-25.201362149964552,43.651992978684575,-40.40800299892726,-38.183939091541106,-33.94361165379814
2025-12-12 17:52:51.736226,Right,90.10416702806106,102.65103343232477,106.55936969660979,113.1101205326122,-165.39722969436843,95.25236757662788,98.48020651497063,94.36568374936178
2025-12-12 17:52:51.740251,Right,66.2098353797337,67.6929523757426,75.46139323941316,80.60188688947528,-48.74868494252769,62.69183242035797,68.54928204965108,75.92778331684531
2025-12-12 17:52:51.744259,Right,-78.76879980514786,-77.72546521660115,-66.90193949965033,-65.25016398672597,159.1674713052107,-82.53284799842368,-74.40065055083687,-57.08636456457316
2025-12-12 17:52:51.747255,Right,-67.71179148099327,-51.89113881492813,-41.631874856961076,-41.589812975107634,58.68335211631165,-60.02569907828001,-51.96119561952219,-45.23365425215161
2025-12-12 17:52:51.751215,Right,89.56133334904007,111.6479535389226,121.97655941288394,123.21983539171924,-168.58607508180648,103.28247330096929,110.11681379281072,106.2857739089377
2025-12-12 17:52:51.755282,Right,105.87358396581112,117.62709687564347,131.34646091457398,133.28386320299614,-100.00109366722063,113.78560695272972,120.5296211363675,128.41561574446678
2025-12-12 17:52:51.759358,Right,-52.01214432033885,-44.51435848798428,-28.65269628771057,-27.54129235806613,135.3523696571574,-45.84309032112287,-38.680328795162495,-14.848831924762635
2025-12-12 17:52:51.763330,Right,-101.49131187108651,-80.924319709462,-67.86301604954497,-65.89131483092933,92.54842296982497,-84.34846556136472,-78.86102297550678,-60.2803954808187
2025-12-12 17:52:51.768322,Right,33.042891447366856,62.48933419876266,71.84798121356289,77.32999001184362,-160.59855078835335,58.90766103766509,60.31700018499396,66.34510123188375
2025-12-12 17:52:51.772340,Right,88.01736577913107,107.28319477465993,116.58577238708676,124.33963965402654,-167.04914371966152,109.08765508787837,106.16788211585663,118.94247453699063
2025-12-12 17:52:51.775365,Right,-39.44474549858569,-30.51083407861006,-20.512069451135176,-13.819971391054423,71.28766398106472,-23.87395507448673,-30.501873819812317,-2.4049298256868497
2025-12-12 17:52:51.779352,Right,-99.08098304030864,-83.35457264726574,-76.30334132742428,-70.39866390749376,100.27298947692452,-76.80261953201989,-87.77686114288736,-63.88897711950267
2025-12-12 17:52:51.783406,Right,38.9435523368702,62.4579077107046,65.63966432174857,74.10529392257013,-137.81811229746563,69.82494518813292,53.56309081096333,60.76294999883248
2025-12-12 17:52:51.787394,Right,132.93959679572436,146.52263450433384,149.93057018410036,161.72168573242016,-196.56022765900434,161.04966160532604,140.06638571563235,147.46523953563155
2025-12-12 17:52:51.791415,Right,13.516220430439716,13.701921866813791,19.367084152141615,32.246447336976416,40.3411882080768,36.65512287893398,11.865779539246432,33.608902325027884
2025-12-12 17:52:51.796405,Right,-100.77268919633389,-96.25028608073626,-91.87928092654329,-77.9771592670877,139.732804032768,-70.604928177092,-99.65359028573948,-78.8440378242376
2025-12-12 17:52:51.800426,Right,-4.107011912103189,11.415238092220534,11.991921288728918,29.717207577004956,-74.64552675342816,36.53178828329328,3.095973181192676,6.9557413321890635
2025-12-12 17:52:51.803416,Right,119.87833378528921,130.24018027319107,130.17874483127525,152.2498240497389,-194.00624239231593,157.86620133461247,122.4833459897527,123.07737012662255
2025-12-12 17:52:51.807427,Right,42.4436260576731,39.16784825639843,41.35728595791443,64.80905519950284,12.69218857719352,70.64256201772594,36.4986705288411,52.14014228694941
2025-12-12 17:52:51.811397,Right,-86.18620710680534,-87.88562303086655,-86.20854481942297,-62.8227126632662,167.9523755498949,-57.373821737848175,-89.67256168497988,-69.998697969977
2025-12-12 17:52:51.815464,Right,-20.254897334442376,-9.624936252464977,-11.685425938359913,13.438285600255995,-9.599151396242632,16.161369850477058,-15.832368044722898,-11.669855332324005
2025-12-12 17:52:51.819431,Right,122.98500878164646,132.6797781172936,129.2424225536388,156.42147060351726,-180.46187328312408,156.2675459961365,124.07129724861989,121.5517115328712
2025-12-12 17:52:51.823514,Right,85.47568234968759,82.49052128117182,81.24536007781899,107.41042198585092,-18.758274317304313,106.38621200550006,75.42242370118038,87.33712883969383
2025-12-12 17:52:51.828512,Right,-47.65646927702528,-50.95001062143274,-51.81440231678175,-28.076289696206004,178.5222577435361,-29.790846452458936,-58.32219047844774,-37.72460703929528
2025-12-12 17:52:51.832529,Right,-9.466666854807954,0.625792016116975,-3.5872453510901323,20.789958880726772,45.551244844518806,16.24738838551275,-10.052732259609911,-2.317544327301448
2025-12-12 17:52:51.835543,Right,144.53681180147123,157.43868466455888,151.17433145368977,178.88252389724948,-168.43055464949066,170.85887882314273,146.63726145863484,144.96447589977038
2025-12-12 17:52:51.839557,Right,134.99396378539495,135.34738592379728,130.84462369096764,160.13277720375845,-62.70419083391607,150.61523933969693,128.81622281792897,140.5369945503744
2025-12-12 17:52:51.843575,Right,-19.40064141009134,-23.457860438457374,-27.069763435878485,1.431169244890043,167.70039678569083,-8.277593745748163,-28.55812442498427,-3.316024085839672
2025-12-12 17:52:51.847622,Right,-30.834384094150664,-23.29476582982352,-30.006761798173102,-0.6092754737619543,96.03073559016048,-11.721953053234756,-32.35963719247138,-16.721677459641796
2025-12-12 17:52:51.851608,Right,124.9292325578208,137.67919477648775,128.22074507431898,161.31208306466942,-139.37683856328658,147.54356118943906,126.72049527992203,128.5476219477223
2025-12-12 17:52:51.856647,Right,161.41608648854708,162.2738025743838,154.23381178050113,189.82363474949307,-93.09727971090251,174.14931719992092,155.6431287942687,165.40199369387665
2025-12-12 17:52:51.859769,Right,10.596765739974217,3.6768876545156672,-2.538926557986997,32.32920518145329,155.25337471143212,15.601739223278855,0.5925438760368706,25.182935672346503
2025-12-12 17:52:51.863661,Right,-54.67634273677322,-51.3473530696192,-59.55318565267589,-25.549122274012916,147.94354036153527,-44.370903469116456,-57.4129859407949,-38.58701149758417
2025-12-12 17:52:51.867674,Right,70.71936937944702,83.27206011205999,72.55531489182977,107.35866994149546,-98.45634914088077,85.44938998225189,73.30371201896924,76.82093615991107
2025-12-12 17:52:51.871689,Right,135.68041235407873,140.0039318680865,130.9005113927924,165.21366066536575,-124.78114099485538,141.48698643943862,131.59361147318486,138.73031625611475
2025-12-12 17:52:51.875787,Right,11.802568120237993,6.9930741771859175,0.8279861970077036,31.748697676841402,115.5166138999084,7.452580376557307,1.2613918322786049,23.413358835838153
2025-12-12 17:52:51.879765,Right,-61.872900042973924,-58.639218638523744,-65.6373079707082,-37.36925676606188,173.28940742767008,-63.98526132672487,-66.9944332855739,-47.5532153656859
2025-12-12 17:52:51.883771,Right,70.71276990587285,84.3421265569632,74.89958535024198,104.1213640158312,-54.797828395116085,72.75627889699172,71.93385341324029,75.33234675819403
2025-12-12 17:52:51.888746,Right,180.14464169019266,185.8735921964726,177.82895437865227,208.72692781760998,-133.3783527399646,173.6779608442448,175.2971204350506,179.33549925398984
2025-12-12 17:52:51.891757,Right,69.37630641992291,60.96788444667254,56.740287570719374,86.63709971120261,95.1534713344372,51.16783389118791,55.49495649978053,76.0202518625374
2025-12-12 17:52:51.895758,Right,-61.19317938625318,-66.87832153426643,-70.67403100054798,-42.49372754740034,210.97373772072024,-77.30647035750735,-71.60355406075178,-49.53499986397219
2025-12-12 17:52:51.899756,Right,17.173562345011305,23.269265506911324,16.780063250225794,45.714967998254,-2.5540818232984748,10.811665319815802,16.37565174178235,21.37419996985409
2025-12-12 17:52:51.903761,Right,142.38567906216122,146.07076361863437,139.26516920436552,169.34945259981032,-152.89217906711565,135.29885466815176,141.3208314853655,141.0905740943199
2025-12-12 17:52:51.909732,Right,69.03714194141867,61.20292025448725,56.97561407514149,84.57695792593586,32.696245645172894,53.155612366768764,61.51632635955684,76.41714201491413
2025-12-12 17:52:51.912800,Right,-75.15084684118483,-80.09359280372882,-84.03560103072232,-61.13873849341326,199.64482608459366,-90.94192904703232,-79.83242781103036,-57.93887602295581
2025-12-12 17:52:51.915836,Right,-33.55634956743597,-24.098160151064803,-31.144823138012725,-10.378477139340248,26.640295200471883,-41.27391287530918,-28.76233528531884,-20.284071148496878
2025-12-12 17:52:51.919749,Right,97.89964864355716,108.74410416150931,100.21749066394841,121.69700295060466,-175.63446099041175,89.76230164623848,102.79111543297768,103.68505042193283
2025-12-12 17:52:51.923811,Right,54.31345826223696,53.054833949761814,46.40580365456117,67.6105983347079,-42.9841560167697,37.482733735210786,51.00927450977906,65.30270361081784
2025-12-12 17:52:51.927778,Right,-95.48972162799328,-97.8295657489507,-103.94942890929087,-84.60273296998639,165.6030847547736,-111.66824610671028,-98.80679435843922,-74.64007055925322
2025-12-12 17:52:51.931845,Right,-70.46300859079929,-58.952617676557566,-67.96917379210208,-49.08392327345791,54.646185516918194,-74.58186154201394,-64.68302194939315,-52.487087484507356
2025-12-12 17:52:51.935852,Right,98.6079612786998,115.05495605102624,104.48457467219123,124.12031047575147,-167.40300514821865,99.34553101507481,105.7983093468356,106.61311475826369
2025-12-12 17:52:51.938852,Right,118.71089983149432,124.03594722262642,116.05705565826793,133.89238842351187,-76.79200117818255,110.78475802044704,116.0259411639272,127.51692234557413
2025-12-12 17:52:51.942891,Right,-29.380738242558436,-28.51637948309508,-34.34260860122595,-21.153364440135192,173.58477357664378,-42.71960133044922,-36.912202869592875,-12.488223483785987
2025-12-12 17:52:51.946883,Right,-61.26932323756773,-48.307295346676256,-56.07777006251854,-46.0713244754661,137.46314246008842,-68.00943767042918,-62.45523945027526,-47.13132722613955
2025-12-12 17:52:51.951890,Right,82.03062388185208,101.94757416121138,92.07812284321699,101.95613753230282,-95.44497107787174,79.31581630470464,83.33065203875594,84.23819426598493
2025-12-12 17:52:51.955904,Right,131.51057985112857,140.34014904560172,132.37712171997555,141.6817094473663,-71.33578742927784,121.02310388746992,123.78096486823051,131.691626185122
2025-12-12 17:52:51.959932,Right,0.7120224793325178,0.41898807428515283,-4.952213376906002,1.65092878966243,177.7989674763303,-15.09982773509546,-13.12585542119632,10.106917368262657
2025-12-12 17:52:51.963936,Right,-50.17082449095324,-41.92086421432032,-48.52191668134765,-43.463577588168846,194.13458153398096,-58.20220481630531,-57.61231504102034,-39.22609351848223
2025-12-12 17:52:51.966942,Right,92.75047289360373,109.74353724715911,101.03927088275668,107.28661967298831,-49.28067907595687,91.81413643158885,90.90988026774721,93.66534500302805
2025-12-12 17:52:51.970969,Right,171.4109554365641,179.97488050191168,173.6349915748142,179.71173698001803,-96.37955489636079,163.92308749248332,163.09215106911142,169.2182569070792
2025-12-12 17:52:51.974923,Right,29.01681708759861,27.617845757609757,26.312121637893142,27.76229907537345,141.22823781953048,13.616616606654134,14.307898995219148,37.16623600541061
2025-12-12 17:52:51.978983,Right,-94.43728516007832,-87.71814027259825,-86.79970299197885,-91.05519881696091,218.95099499826028,-103.8880225610701,-102.1514771894872,-80.09071871780907
2025-12-12 17:52:51.982947,Right,3.0015693356181146,22.669500614632852,23.57528429698141,16.774910136999097,-11.143393488993752,3.4089944777297205,5.113317442097468,10.266223234386416
2025-12-12 17:52:51.989038,Right,124.07407543470617,139.48736702775932,142.6456708595215,135.07564174936851,-122.98894927914807,121.16450167880248,123.21668017308548,126.77031037023698
2025-12-12 17:52:51.992018,Right,48.17889607376128,51.594619584881,58.22060799537576,48.471289447450545,91.12914180823282,35.435468846102594,38.69524641837779,59.35047357468284
2025-12-12 17:52:51.995975,Right,-62.44061709412199,-56.154109186754795,-49.92168726352975,-61.987507273006486,235.49658873020962,-74.24369220450171,-70.49552536618285,-44.7857272928959
2025-12-12 17:52:51.998988,Right,22.00145561889076,39.3526281985105,41.95880853908602,30.406279427392292,49.41582784597267,17.638614027091535,20.86724243275239,31.24808492361626
2025-12-12 17:52:52.003047,Right,160.27411981952173,173.8023994852556,175.15963382429618,165.63273446381208,-109.31795338007214,152.79191424736928,156.6367268213362,159.62588197889272
2025-12-12 17:52:52.007059,Right,99.97496961394063,99.36143745470326,102.2775422011764,92.98851887621277,63.725284643645864,82.03332140030398,88.09172595018754,103.22246622171951
2025-12-12 17:52:52.013081,Right,-50.46088893558044,-50.82581056722847,-48.90964347186673,-58.80887529219035,248.8434045559552,-67.8440867574609,-60.6840741035121,-40.03705306406482
2025-12-12 17:52:52.016093,Right,-20.548255436107866,-7.089994290683535,-9.61855033201573,-17.664131756100687,98.9294274510321,-27.194586675301252,-21.465155729667458,-15.789067017409252
2025-12-12 17:52:52.020103,Right,121.66976601688657,137.42576795299829,132.76188773594913,127.98660279363685,-111.02271647699672,116.70781568829989,120.74435595140676,116.35966593481135
2025-12-12 17:52:52.023100,Right,100.76987806987745,104.11874325283861,101.94139594264561,97.60794215848728,4.938388588256203,85.8716601450069,90.23492348665604,98.36512060601672
2025-12-12 17:52:52.027228,Right,-48.69018250415684,-48.27332581044175,-48.33728026812605,-55.17317552839813,225.82228274842055,-66.41627823912859,-60.70757931248954,-40.72317929458222
2025-12-12 17:52:52.034128,Right,-46.16863556964381,-32.97764336357068,-34.359320763498545,-42.41366472923255,138.3526434620071,-53.617010689747985,-47.64611595340102,-37.70872320776107
2025-12-12 17:52:52.037144,Right,106.74562947812228,125.0444176892197,122.95280565401481,116.15046918997541,-91.57808422388189,105.94883907969052,111.31986445269285,109.16227348866232
2025-12-12 17:52:52.041155,Right,121.37799226722564,127.9152450235706,128.59068040353304,121.96068263346388,-31.389631856873166,115.71260157083452,121.0341292532612,128.0419985074841
2025-12-12 17:52:52.044171,Right,-43.089880868014006,-42.594424726688885,-39.94988514811848,-48.88922047444794,207.15368812015367,-50.27678985150851,-44.815690615723724,-24.735988328655367
2025-12-12 17:52:52.048115,Right,-98.1378536617267,-85.27422802580986,-85.11127294943435,-95.43895013238944,175.2357473121374,-95.17933141838876,-90.43197800352937,-79.41282955440693
2025-12-12 17:52:52.051246,Right,46.25736529097776,69.00849649643351,66.36947564803995,57.275566294425516,-73.71000254167302,55.857061511407665,60.03711558170471,53.93447403120808
2025-12-12 17:52:52.055193,Right,121.65759715239255,135.62369425674842,134.81329023913713,126.04680127154279,-80.96409850198688,123.46961406682385,128.78017245636875,126.31468410219532
2025-12-12 17:52:52.059265,Right,1.0230677204745007,5.207434080468374,8.111753504548687,-3.7936596634972375,163.18602224610368,-5.4740404537078575,1.6179356740613002,14.409934635012178
2025-12-12 17:52:52.063172,Right,-73.63001336386515,-62.14098543637374,-58.732360412410344,-74.23730202353909,201.15207784510858,-75.37040602301568,-68.15354698041483,-57.94979056510783
2025-12-12 17:52:52.067243,Right,47.92421900067711,69.18546032262384,71.47629935228906,55.10506838686706,-39.654373906079854,53.06765433045075,59.02735866809235,53.92601336797816
2025-12-12 17:52:52.073196,Right,141.04150058980304,155.71747162895917,159.67670997130335,143.28307476291957,-112.98888603443629,140.95298078852647,146.7273276906999,143.3289313410205
2025-12-12 17:52:52.076285,Right,28.727724468051747,33.33633470273344,39.98846192077326,21.750987260384136,113.10621935114614,20.387765161765856,27.54655180201371,41.25542104183114
2025-12-12 17:52:52.079269,Right,-83.88673278903298,-72.51701559254434,-66.90441798542452,-86.94405574226403,210.80480105799506,-88.55096859300102,-80.41654282811214,-64.38714214117499
2025-12-12 17:52:52.083285,Right,7.679321711650118,31.48019104717241,34.08937398382113,14.917105724307476,-8.575907564489171,10.835547563343425,19.152123382737045,20.03539680771064
2025-12-12 17:52:52.087229,Right,123.61715683967486,142.8238474019745,146.33757162287657,128.56221424826072,-142.72545771754085,122.35629478815099,132.16496965839178,129.76877940450504
2025-12-12 17:52:52.092314,Right,36.92993315151398,42.62008627280011,50.37028063459729,31.11843604769092,50.904130062168406,24.892057615135855,37.94304450292839,50.20037823062739
2025-12-12 17:52:52.096316,Right,-97.94975387616432,-90.00620035377506,-80.90976701428008,-102.81583710365521,203.83430916461657,-108.76998935364827,-93.3999690273049,-77.19520940615621
2025-12-12 17:52:52.100329,Right,-30.0576387354522,-7.652076459300588,-0.9688270987971919,-22.768743462103885,26.081485242735653,-29.59527497072122,-14.534372940615867,-14.368283077987144
2025-12-12 17:52:52.103338,Right,118.02214486388402,142.6836239147815,148.91100576693134,128.94889034750668,-152.35933800524072,121.90702160217188,135.84321951995662,128.34180328444927
2025-12-12 17:52:52.106339,Right,73.54717055559013,88.33432821363385,97.77638764327276,77.19348482826172,0.960625152431021,71.86740955688583,86.01364899979671,92.70097402637475
2025-12-12 17:52:52.111359,Right,-81.69828779440286,-65.58997466450091,-54.55510130125913,-77.96484240963036,198.70569588695798,-82.15605640830472,-66.96246973246161,-51.12895696473424
2025-12-12 17:52:52.115365,Right,-63.6938342978101,-33.33268395854975,-24.817666564777028,-49.166838825323794,69.69107336734305,-55.162139982392546,-39.2698827435961,-36.945106566505274
2025-12-12 17:52:52.119316,Right,89.37656287597201,123.16872899723239,129.69179152793367,106.7325918227798,-147.27978368382173,98.39537792918418,114.9192888980906,105.37185956188478
2025-12-12 17:52:52.123377,Right,95.69093215112662,117.34102884490858,125.21898420565412,102.2953684977183,-47.403479763255746,94.87874672963517,112.06027333947713,113.29967180402309
2025-12-12 17:52:52.127348,Right,-42.5405755014508,-25.076273295780993,-16.707355601945892,-41.56013531354256,186.011366317769,-45.52118516180053,-29.146316023041436,-15.499008946339018
2025-12-12 17:52:52.131408,Right,-49.57588372920145,-20.215424761234317,-15.155142981151585,-40.110690857763984,123.75740738079185,-41.66496644142171,-28.275254603468056,-24.34261433428037
2025-12-12 17:52:52.134414,Right,99.31020144124341,134.23989511613036,136.5111491362768,114.39796276587731,-110.10498939741956,113.71201124945947,123.99512431451149,113.37709266527963
2025-12-12 17:52:52.138423,Right,125.26176324362314,148.301284652116,151.9772624229663,131.8381167618645,-73.10291758421954,133.0400084783396,142.10743444727268,137.54694496755837
2025-12-12 17:52:52.143397,Right,-31.557304531059344,-16.94788444043661,-11.641529138956685,-32.677612884377595,167.29044495952985,-28.048472583257535,-19.636340330776875,-11.388325936422916
2025-12-12 17:52:52.147407,Right,-92.23000420355675,-68.63999459442857,-65.79443366198393,-87.65854158494767,159.45305881925015,-80.34844045677892,-74.27283009692474,-73.10254694800824
2025-12-12 17:52:52.151474,Right,47.809113289746165,78.92656068016367,78.61546671639371,57.901531480987614,-87.81403084106933,66.26369729120051,69.43014963823225,54.69885206221079
2025-12-12 17:52:52.155469,Right,126.77491608678247,147.8025079475192,148.47958617705444,128.25623740124865,-119.52023044879752,137.34187139690766,140.01266521561774,129.08691116474802
2025-12-12 17:52:52.158500,Right,2.0674351960624335,12.255466595684993,15.3946020926669,-6.66111991633079,118.0723710889688,2.508248468853708,7.176690884720301,12.66151781451481
2025-12-12 17:52:52.162439,Right,-91.87974305710668,-74.84770899241266,-73.02959056435793,-95.93896319040505,177.3414337291324,-89.35624854968046,-83.1630266379143,-78.07157436183479
2025-12-12 17:52:52.166447,Right,11.794811230429332,38.96765404155303,37.49794394039782,17.4745217179443,-57.21561936248327,19.749913628518698,25.329020953671716,16.129997570125852
2025-12-12 17:52:52.171459,Right,101.97320516592299,122.20714247555588,120.98653870858834,104.60685590450885,-156.0238108453559,104.96267230279045,109.11389488762507,100.73583352625428
2025-12-12 17:52:52.175544,Right,-7.198016310270759,0.5028193218022352,2.1754674952680944,-13.675683726185525,53.53887887184828,-11.661034968114109,-8.286740966534126,-0.6860320028208662
2025-12-12 17:52:52.179541,Right,-119.0456852299103,-107.84727227000985,-106.18670198468317,-123.0974635695602,168.3071853266374,-119.23859388216079,-116.32231944257364,-107.05617171645281
2025-12-12 17:52:52.182492,Right,-18.16206895151845,3.820164315548027,2.444458696481888,-13.75874100591318,-33.50964338653648,-9.8605479012258,-7.455328817224654,-14.512160734040663
2025-12-12 17:52:52.186552,Right,121.27026416466833,138.76207737709046,136.46612351604563,121.40456094258843,-176.03315789658882,125.80189699234325,128.57250161789125,117.16110951994779
2025-12-12 17:52:52.190575,Right,48.28994580141443,52.29638822551351,51.991834672444384,35.21778767961223,10.777228419676248,42.05160485518718,46.42159146245831,51.35871708963532
2025-12-12 17:52:52.194602,Right,-106.51357215018652,-100.99497721050284,-100.86540920085099,-120.76988859067205,181.90333040946825,-112.10967704585346,-106.33915557598084,-92.91742794458696
2025-12-12 17:52:52.198544,Right,-73.44615687852638,-54.23321748251328,-55.96292276804161,-76.28323198937142,16.430783179281207,-68.66362816228502,-62.51847870205529,-61.927703371497046
2025-12-12 17:52:52.203610,Right,64.39468814659631,84.66194366209675,83.17115054714668,64.93587942410522,-184.47603399764193,70.38584160499886,77.27457200043864,69.23120830956759
2025-12-12 17:52:52.207679,Right,37.367648251587525,44.73941458975605,46.187713984181755,28.783186059619766,-56.95316717423884,33.41633287059085,42.25721974483167,45.8591072183699
2025-12-12 17:52:52.210636,Right,-103.32038688911416,-98.45806841208832,-96.5138698637893,-114.75443322292267,150.4566710379222,-110.16668988404854,-100.119609379748,-87.86943398485892
2025-12-12 17:52:52.214582,Right,-83.96729615582444,-66.29897803587664,-67.82830048292817,-85.42568462708732,43.92740101559684,-81.60735832685168,-72.92247960348323,-73.32123707472056
2025-12-12 17:52:52.218604,Right,73.79969166714363,96.39192580075178,92.99457988521317,77.72163975761941,-179.53997013732533,81.01286721732322,87.33475605068088,74.91503729569376
2025-12-12 17:52:52.222736,Right,85.76018303083401,97.25964210089296,96.8996146695863,82.19725096671027,-101.38778053038004,86.73913158920186,92.4423596009583,90.5148548185607
2025-12-12 17:52:52.226708,Right,-68.64957901323214,-63.004292957208236,-60.1431107679673,-76.4981939486097,134.21025156507676,-70.34410045068944,-63.52996273505414,-51.512575468856085
2025-12-12 17:52:52.231733,Right,-106.20377701519828,-91.17767869693489,-89.47080890160578,-105.8936536102774,86.90282841640146,-100.33518055971945,-92.53508775891532,-88.28505045663769
2025-12-12 17:52:52.235727,Right,36.53672554206787,55.94056077104324,55.16742701095063,41.42853629502497,-158.68770863564077,44.66975835298945,53.241174140122894,42.905246782218455
2025-12-12 17:52:52.238734,Right,88.65592694403676,95.4221836670331,95.16123020859959,83.04029965401423,-149.86852762514462,84.6196254362294,95.00745055881998,90.11575351475767
2025-12-12 17:52:52.242756,Right,-47.72451061630272,-50.613429869415995,-49.70187415245164,-63.12434685447079,91.43227441850809,-62.78397185570793,-50.18848963151686,-40.81123620559811
2025-12-12 17:52:52.246726,Right,-115.51487261766306,-109.33205100046325,-110.62377885454043,-124.46794824553945,111.86404302640995,-127.16657302733438,-114.08398317072715,-109.51723735895212
2025-12-12 17:52:52.250771,Right,14.764465006403043,30.844005247578025,26.111711558929528,15.796284614836622,-126.4417237275843,9.006243496049137,20.65300654186285,9.437105893382977
2025-12-12 17:52:52.254783,Right,101.28478332867235,109.15661336838093,103.8916497471364,98.28322871325508,-176.4048933851809,90.30196518047887,100.38898720878933,91.60734459890227
2025-12-12 17:52:52.258831,Right,-18.01829868569257,-21.786554828519,-26.66546891836333,-29.995665025198832,57.37352528487463,-34.911323501459265,-25.63725606888329,-18.347794590990816
2025-12-12 17:52:52.264804,Right,-121.8549462122428,-119.90552547723928,-127.98446162185428,-130.1867387217717,138.77568142996552,-131.23940238084106,-122.74417487650499,-116.03575867407926
2025-12-12 17:52:52.268810,Right,-16.863450423708855,-3.3815921222485485,-16.34120317907218,-16.115637811475608,-86.43917190085995,-15.567792588415614,-7.804651218772051,-18.095812454535917
2025-12-12 17:52:52.271815,Right,101.98687859307029,110.71966949172202,96.71173579723836,98.84098443345283,-202.50673608729085,99.63425709333387,108.00801458081696,94.75690429496899
2025-12-12 17:52:52.274884,Right,13.350941694236099,9.35864469336957,-2.625694939895766,-1.660867201651854,0.6902450566885818,-0.40555138343552244,9.608861392538529,11.865607347834157
2025-12-12 17:52:52.278853,Right,-119.97060377801972,-122.02435993867402,-134.53527899728942,-135.3324415889074,135.91406230432403,-134.04192602988405,-124.09864153850503,-117.24855633803236
2025-12-12 17:52:52.282848,Right,-54.91458010630231,-45.856129211519146,-61.48167227244994,-60.83699873362639,-57.5730584029352,-60.406115410773054,-53.26635676558362,-61.052747853900655
2025-12-12 17:52:52.286889,Right,81.61879767712162,88.06463334106229,72.51360110178939,76.03790660719824,-225.48183502555185,76.27428900701489,80.72875825506344,67.20683845695748
2025-12-12 17:52:52.291887,Right,33.93471456647967,27.246461536327843,15.896110699381097,19.36222516059206,-57.69684737665739,20.788201880532142,25.07016411978111,26.68050612634397
2025-12-12 17:52:52.294830,Right,-103.07898111320901,-109.61896839994006,-118.5829764465816,-117.24199652263269,134.0381308306969,-115.37679237829798,-110.28747067018412,-99.33376026954647
2025-12-12 17:52:52.298887,Right,-63.17156764684114,-56.409358655961114,-67.25376438526291,-65.57545024371939,-2.725488471623976,-65.43652156785902,-60.830509091458225,-62.048528191087826
2025-12-12 17:52:52.302896,Right,88.31167899990032,97.0140108174819,84.86056619612646,89.48602092844521,-205.91222088637005,88.29399338968506,91.72547740037407,80.93501383167313
2025-12-12 17:52:52.306904,Right,71.87039975459993,67.23244698532653,57.03957859922957,63.17508412705138,-91.31205748588036,63.878560896453564,66.79785846835875,67.1852261232707
2025-12-12 17:52:52.310917,Right,-82.89656128019487,-92.31897872919944,-101.61090555586998,-96.10129316797247,128.71291726682466,-92.13991931486453,-89.97254228172096,-79.94613208169903
2025-12-12 17:52:52.315884,Right,-87.29913998668417,-85.37475982744945,-97.56361172547622,-91.45721011323985,42.761418419442634,-86.80537641814226,-86.81487237730471,-89.44517595377692
2025-12-12 17:52:52.318915,Right,71.23713565644357,78.49142682678212,64.15011617101118,72.44069119263077,-189.15719604354308,75.1791106695564,72.99998003052315,56.295923769372166
2025-12-12 17:52:52.321977,Right,105.2391065028969,101.75378326481587,89.78234641932067,97.96978149348433,-132.3394848127573,99.51289331158114,97.09810686548735,89.90232840640965
2025-12-12 17:52:52.326920,Right,-40.03230012316271,-49.63294577153283,-58.47937099789124,-53.63009516717284,111.61428821097434,-51.063932029032,-52.82456216882565,-44.08990875528252
2025-12-12 17:52:52.330985,Right,-89.25255919449046,-88.23110036621074,-97.43185111214552,-94.93389110806675,93.22886961534823,-90.27232736332735,-92.80108665418811,-90.00782008501847
2025-12-12 17:52:52.335000,Right,46.35212838599182,54.96315824131307,44.88234988327895,48.1854257480627,-148.1724714530028,55.62486032423476,51.29706323768187,38.04988317457901
2025-12-12 17:52:52.339005,Right,105.075722056823,103.3278292962641,95.88423079191125,99.7558986030308,-159.80086589172424,111.01775449827255,106.21180936788005,95.64902474229166
2025-12-12 17:52:52.342972,Right,-32.11266787785644,-43.98709082847927,-48.41248401996563,-46.494267388621665,79.23087549009142,-32.38829117585192,-35.94700585909595,-32.60634979783208
2025-12-12 17:52:52.347025,Right,-116.1004506825484,-119.83784485486831,-125.64606108600128,-125.11658824063852,120.20737536443266,-112.20575597978677,-114.50619732266205,-114.122974386446
2025-12-12 17:52:52.350038,Right,4.5810831644739665,11.983521920425119,3.2621065947096213,5.285004223955184,-116.29078103356733,13.961768330227642,12.356303491709696,-1.427219053832232
2025-12-12 17:52:52.355038,Right,96.99537595381116,98.50826229649829,91.24013287948765,94.29800421990876,-192.1178715915812,100.40265074084527,99.89759567442525,90.30196993122081
2025-12-12 17:52:52.359077,Right,-24.678092074069355,-33.80340367496683,-36.831041955440014,-36.44652614829829,29.091356671779067,-29.405686170641275,-28.605352841608692,-18.352003226093075
2025-12-12 17:52:52.363017,Right,-150.6621418425293,-153.82140459380753,-156.00314773916034,-159.2271600531276,125.74748212373379,-150.94935679778428,-150.11756562091614,-136.3843853868384
2025-12-12 17:52:52.367077,Right,-60.7412953287494,-50.81149346440361,-55.300958947431354,-59.039552553815156,-94.58533560471915,-51.72445355128002,-51.95803861736931,-54.64470371050993
2025-12-12 17:52:52.371074,Right,71.1959668280233,78.93764062188711,74.74446611718304,72.14567361459558,-233.2058303545091,78.15812692387044,77.78276813156117,69.52436920069158
2025-12-12 17:52:52.375099,Right,3.6181002625326073,0.45724605886789504,-0.3436360303021502,-3.640138770468184,-40.12612011499732,2.7151075024157763,3.6139068044140004,8.801058032106084
2025-12-12 17:52:52.378131,Right,-125.10325672999898,-125.02738567897177,-124.71735642510612,-129.33926755510038,122.85347701978753,-122.55601871105682,-120.70334994277073,-111.43530747581099
2025-12-12 17:52:52.382092,Right,-59.71137968403673,-46.504556491127005,-48.272767282338464,-51.55335746352648,-41.694141435167694,-45.83361958048408,-44.06136118926224,-51.00245798382821
2025-12-12 17:52:52.387149,Right,92.46443390559034,104.73929623285949,102.94886206322553,102.2540983915278,-213.73738564178348,107.31774553597279,109.28739045491966,93.19291083724238
2025-12-12 17:52:52.391163,Right,61.278531079242384,59.636995551758446,61.22154171807779,60.3305838282904,-56.77742053478141,66.85351904936033,69.81611159123713,66.3844843291954
2025-12-12 17:52:52.395172,Right,-81.08495324842261,-84.98744076795992,-81.85239803801232,-85.06265052024173,151.18239403541884,-77.38393456687845,-74.10859897297632,-68.13169958433718
2025-12-12 17:52:52.399120,Right,-55.000851943677844,-46.63025323039619,-45.66052787389344,-49.09684108228248,35.66303393580165,-43.29140721687145,-41.276490234726225,-47.02515195096203
2025-12-12 17:52:52.403199,Right,103.52083495228544,114.82402162419021,115.11707641060639,113.67689871263065,-175.00527220831282,116.51405647278807,117.14242707159428,100.91369995151763
2025-12-12 17:52:52.406219,Right,109.50133568822639,108.28261586909503,112.00073536243144,110.65833577060039,-75.59866995429184,112.87770600023578,113.40404198952456,108.05118572951324
2025-12-12 17:52:52.410193,Right,-40.01735801719224,-46.328447565665556,-40.22382491565804,-44.0834421974796,159.21172182782902,-40.931494372638554,-40.265540262291324,-33.82534319763363
2025-12-12 17:52:52.415223,Right,-62.92696209169662,-57.83371139465089,-54.10658594502456,-59.00195531033387,99.48931515807999,-56.539567739964696,-56.999568097780866,-60.95274546799192
2025-12-12 17:52:52.419190,Right,78.44583020246318,89.68861155977356,90.6874908205209,87.71208632527487,-139.56988043609454,88.02844586081119,86.10322032226759,67.35354623798776
2025-12-12 17:52:52.423248,Right,106.42579606442087,106.60531623574934,109.083953575333,107.17072776317946,-113.98287131308825,106.49772443686015,104.7963929273792,93.14076022966037
2025-12-12 17:52:52.427226,Right,-50.43089964254432,-58.30120781505684,-53.25566394129419,-57.22237310347555,121.53122946025178,-57.874531190169364,-57.728416661720985,-53.92013967496314
2025-12-12 17:52:52.430282,Right,-117.91551376298048,-116.1031060026362,-111.72067550563952,-117.842634609995,119.2664386924771,-119.84314158139023,-117.9620206339132,-118.13904209911561
2025-12-12 17:52:52.434296,Right,18.7262203262635,29.882178784057032,33.04088395280996,26.9834841831871,-121.9307757606548,22.614758111987612,25.798760886282253,11.55144514478161
2025-12-12 17:52:52.438293,Right,104.6942820989807,107.99715033994653,113.54826775788388,107.26607512180999,-152.26851812615132,102.24612916393016,107.51378687749093,97.32543361946227
2025-12-12 17:52:52.442326,Right,-11.189345058648541,-17.06945857433311,-8.383941164742282,-17.037132443798328,88.94468748070722,-20.95727179451933,-13.163598071350862,-7.339994813559315
2025-12-12 17:52:52.447322,Right,-103.12345447999542,-100.70808860599573,-93.18803051518626,-103.22537454331177,156.89328841627866,-107.1492500194181,-98.4988701383154,-93.67370058746383
2025-12-12 17:52:52.451413,Right,1.730566032563729,16.47825611078224,20.8572223559313,12.936007833879557,-72.4345063593064,7.306842910780688,14.934544224001002,4.5412085450516315
2025-12-12 17:52:52.455351,Right,99.51086936952925,109.99753543195038,115.14487320672924,109.62233565458519,-172.99847299891917,103.40462337753343,110.42785504769563,100.18346380443472
2025-12-12 17:52:52.458307,Right,-3.200199668537607,-3.095385706252273,5.715509113375447,-0.696764326585253,36.89188846084289,-4.812099354130623,2.6099896006053314,8.622122799359204
2025-12-12 17:52:52.462306,Right,-119.4229940581863,-114.29849219719472,-104.66602613745636,-113.11348020371224,158.69367256416444,-114.44327600031465,-107.92917768669213,-99.69289462573215
2025-12-12 17:52:52.466407,Right,-26.84166734989776,-9.484876544374856,-1.6949727384053404,-9.765005983696028,-38.80115650604421,-9.78318013421449,-6.16527225360187,-14.587673754413117
2025-12-12 17:52:52.470417,Right,113.68079672198837,127.59502611242351,136.29760650078242,129.58134362420606,-186.08975148710306,130.01464560295426,131.5705229582345,117.66082031097176
2025-12-12 17:52:52.474398,Right,50.988641931890015,51.18925463488995,63.82736329540057,56.09680691926769,-3.4440396735299146,57.2679197433863,59.44345395136406,60.92890240158886
2025-12-12 17:52:52.479367,Right,-94.7034263282003,-94.14233980119752,-80.04649396951572,-90.03438976726102,174.37168298067627,-88.65551700982178,-85.21759341064171,-75.50741793945417
2025-12-12 17:52:52.483431,Right,-59.18794379305473,-45.52326289469056,-33.619968903032714,-43.723297570504656,19.83882380715295,-43.32477360539997,-40.334047171800194,-43.01445909539689
2025-12-12 17:52:52.486439,Right,75.55663838466535,90.91003248789639,102.03552391529956,93.13164254419462,-178.2676529602977,93.00298566788479,94.91893139854801,84.70340263030084
2025-12-12 17:52:52.491451,Right,40.579492359837786,44.008563755563955,57.41846985641314,47.511476691546704,-54.56912365972312,48.67438125265471,50.949160273776215,53.861284663842525
2025-12-12 17:52:52.495484,Right,-111.25834955273876,-110.18800811314213,-96.19051062563813,-108.68251728912946,152.02746395643408,-106.07481353089315,-102.94472663170745,-90.3251394631734
2025-12-12 17:52:52.498430,Right,-99.39295110275452,-86.46622908733843,-75.4019669626905,-88.03910011623884,46.81941278553495,-86.10257242518855,-83.54433942835749,-83.7033108524738
2025-12-12 17:52:52.502492,Right,59.68156360833018,75.7960877808091,85.61953399077174,75.33953981229206,-181.50487256853012,75.5296716141529,77.01113352320317,63.805893677697895
2025-12-12 17:52:52.506511,Right,77.35380930632073,80.33104731319872,93.65473648164698,83.85428712332578,-112.25666341656688,84.09504045194626,85.82108443954712,82.18251603985846
2025-12-12 17:52:52.510471,Right,-74.14507074466837,-78.37108836826883,-61.61345405592874,-74.13949654244061,121.40676087942848,-72.30548400230691,-69.64550420551313,-59.783967883304285
2025-12-12 17:52:52.514526,Right,-112.42057821863455,-106.60990050532564,-90.48994438553927,-105.31189658137009,80.1229827894822,-103.52016035010456,-100.40097874810817,-98.24996227511292
2025-12-12 17:52:52.519567,Right,28.262143683097747,41.28075482285021,56.74876016197959,41.798801706499944,-162.39054276711613,41.2151342539546,45.414829610057495,34.157874510463444
2025-12-12 17:52:52.522525,Right,76.70348230639138,80.40808061878488,99.6306533505558,83.84576828323043,-157.55242526657457,81.22337734229586,88.2567541206663,85.19980564766229
2025-12-12 17:52:52.525580,Right,-66.07822080174628,-70.24160387325537,-46.47169225619291,-65.12052678275722,80.71937961765434,-68.26055075126169,-58.63951593207457,-43.849160756202764
2025-12-12 17:52:52.530595,Right,-140.33691813445785,-135.44978754751173,-111.46909869572119,-131.8325664724689,102.50434783919263,-135.44638615985423,-126.4913445539787,-113.5955651532895
2025-12-12 17:52:52.534571,Right,-10.789665290458288,3.498737858462846,25.878551469966624,6.596278589062422,-137.4828708219684,2.419413011835786,7.852633445050742,6.303640414716938
2025-12-12 17:52:52.538598,Right,82.10958113964443,88.01450235177799,112.0113897017909,93.1932296701707,-194.40617850129274,90.31939128751219,92.514627507353,93.79983411599096
2025-12-12 17:52:52.542651,Right,-29.71003088100315,-35.7388215957817,-9.053380838959129,-30.428096341900527,37.22642091213129,-30.15307474794463,-29.57921871824874,-11.425649963508477
2025-12-12 17:52:52.546572,Right,-129.1481593636263,-130.1830440469348,-105.19451614786885,-128.76673756420496,127.21991174296636,-126.41338582138997,-127.1152004252508,-108.38456894772025
2025-12-12 17:52:52.550625,Right,-17.546297609352223,-7.9525477347579,12.485834337618144,-9.401674287164496,-87.03077568759181,-7.377897477314036,-9.505526210450626,-7.447167493850429
2025-12-12 17:52:52.553633,Right,116.69551235139534,120.49836876667177,139.692986442471,120.8740284210835,-196.89516662407186,122.58934956873054,119.92350041784266,118.1594288254746
2025-12-12 17:52:52.558614,Right,47.617807173377514,37.649137547467035,58.953066362522804,40.594848258151615,14.44976635198691,44.11157155010915,41.41543967644793,53.6913091410097
2025-12-12 17:52:52.562727,Right,-73.18203440899742,-81.2889588008311,-60.0571652726685,-79.05402512904766,166.0506029736207,-73.27045919863849,-77.67898410745875,-62.5807445214632
2025-12-12 17:52:52.566720,Right,-7.75628619231702,-3.1918142496488144,15.186398040514177,-1.7498158327252895,-11.96172067745647,4.730795482926624,-3.5007863900809753,-5.026866131480347
2025-12-12 17:52:52.570730,Right,117.08787762985321,120.94329323297916,138.85140298650367,125.61366908146738,-177.53439358762262,132.6421391273434,120.87840803493054,111.9014462187879
2025-12-12 17:52:52.574739,Right,46.61017580569569,37.46311637498002,57.96700135653373,46.28176895861179,-17.71178684249753,55.724248042926774,42.115771511829735,47.119242514636426
2025-12-12 17:52:52.578738,Right,-116.30250284903195,-127.30421108625251,-106.7051891131996,-118.4590474627621,166.79436237435766,-106.11201310993783,-121.68414337670038,-108.57546811299108
2025-12-12 17:52:52.581732,Right,-89.20811727261753,-89.55345240772567,-72.83702864861334,-82.70367129965598,25.335977336328142,-69.35023969720532,-88.532447634032,-89.6711965747345
2025-12-12 17:52:52.585725,Right,71.98676818495642,71.61877711845182,86.16370082831418,79.82658576271024,-184.27691881003193,92.95572676143092,70.26592646568861,57.33115035173614
2025-12-12 17:52:52.590690,Right,77.76013223402788,62.948669970210176,79.6887305195396,74.81180252948798,-73.83539508634931,88.48435854239142,64.44915212958949,62.29749425531372
2025-12-12 17:52:52.594770,Right,-61.99040047422477,-82.1936545762087,-64.08344211247277,-69.5448297062303,151.96747523634986,-55.209851310688464,-79.45167074946585,-69.59221222827728
2025-12-12 17:52:52.598717,Right,-66.42564016958386,-75.59729664785755,-60.57540242421055,-64.51391210595102,77.27532805197188,-51.35487438223754,-76.46124882459299,-75.73161638006422
2025-12-12 17:52:52.602793,Right,85.2203340226215,81.36756340317379,93.19943549934942,93.72921222679724,-150.01393966717114,104.5694039808186,78.80783803214035,67.75120643935406
2025-12-12 17:52:52.606798,Right,112.74610872170342,98.42203144145537,111.14528238155253,114.9899510547857,-96.06087871699674,124.7702864818275,100.4018171416028,99.24871437149886
2025-12-12 17:52:52.609838,Right,-41.60278036064665,-61.441037437032946,-47.2593688990728,-43.065770708359196,146.92057393716277,-32.85536652677183,-54.55283654239611,-40.349238518398124
2025-12-12 17:52:52.613832,Right,-102.58251841469792,-110.5105335153487,-98.57069027008583,-93.81104074704672,130.52517838106178,-83.48733490642189,-103.38900714613919,-95.75200293760281
2025-12-12 17:52:52.618832,Right,29.88434739996501,31.553315998595394,40.63772073398832,47.854229047141416,-113.85520194196033,57.471751955336,38.861381881642956,30.386359350635757
2025-12-12 17:52:52.622848,Right,100.75728745147353,93.84830708165896,103.8130649607001,112.44778155269341,-132.46487066552163,121.77547573502306,105.85794863761657,101.18737547788078
2025-12-12 17:52:52.626866,Right,-18.81057020555545,-35.28554324527977,-23.742429204035943,-16.01868757683951,106.82739089601,-6.744822625625602,-19.307253814396972,-7.7156352879555925
2025-12-12 17:52:52.630881,Right,-91.46623287159309,-100.11643635237192,-91.27943940125533,-82.98410253299335,157.67955619073473,-75.78860121513026,-86.8962426385051,-75.98584079601642
2025-12-12 17:52:52.633856,Right,36.01398490172687,38.49213256152507,42.981773092148615,55.68145375488348,-70.62256413079558,58.231863106573655,46.82048615846452,43.8769956707165
2025-12-12 17:52:52.637902,Right,138.46454696376168,135.6938852655867,140.05917986181066,157.08552832050373,-145.5088074537116,155.04480777328354,144.26521707798747,143.40166133156708
2025-12-12 17:52:52.641919,Right,29.97466595951937,17.233846455319508,24.197322635171076,41.42160091000733,79.03728342700742,36.68171448510293,28.121660096979213,44.18004960903818
2025-12-12 17:52:52.645885,Right,-86.04596470319666,-92.51731882959166,-86.38496147186788,-70.90058312759902,188.70284955844227,-77.51352524078538,-84.46655904540057,-66.7862884336464
2025-12-12 17:52:52.650981,Right,6.650256537020141,13.30568170188235,15.338562282422117,31.218326388414425,-17.644013394638478,22.85774733184735,15.978591716144365,16.85975058520671
2025-12-12 17:52:52.654909,Right,133.71328830678158,137.7983455968988,137.99832323856162,155.61560477045532,-151.97657587065896,147.1538196966867,140.55228484254803,136.256688458785
2025-12-12 17:52:52.659003,Right,55.74705381529566,48.04227525990518,49.03025229244531,66.79798117541577,39.10108616071534,60.46710053255083,55.021478697548446,64.69298074825474
2025-12-12 17:52:52.661978,Right,-82.8650847251638,-87.78370853270098,-88.408973304337,-70.92438221479824,202.0518818622627,-75.44718523861411,-80.7488191270536,-66.54244937089788
2025-12-12 17:52:52.665987,Right,-21.52889450062321,-12.080326468092608,-16.94521365436094,2.6896573041158263,36.95266244933907,-2.8997884670825442,-9.689638173637377,-11.118408496286975
2025-12-12 17:52:52.670019,Right,130.32182775078672,141.50419099371356,135.3724236188209,157.73979955267896,-142.62548921922445,149.24846213119872,141.72508682033686,132.14228293697306
2025-12-12 17:52:52.674006,Right,93.28740612630918,92.8161479381697,89.47113081712178,110.93965665755786,4.060496441208954,100.40262753681964,94.27433501924861,98.74811539509665
2025-12-12 17:52:52.678977,Right,-69.30910010067782,-71.35626616605805,-73.78012775354364,-55.78693409480911,206.5631905913076,-67.02440038944678,-71.5903744529146,-56.67932589191287
2025-12-12 17:52:52.683022,Right,-74.79422109439383,-64.65089174382229,-70.53212005384194,-53.6719642888811,85.5119519021307,-65.15195756112598,-69.62708172166003,-66.86823401163952
2025-12-12 17:52:52.686035,Right,56.6967197159388,70.0914814357966,61.682023400848266,80.1986401084896,-139.831547362616,69.51879522572608,65.23095693451057,55.58054625769046
2025-12-12 17:52:52.689998,Right,51.01732346153676,52.522187368154846,45.890122744296605,64.70574005244725,-58.64563913977281,56.61781204702538,54.396919787240904,53.726242668158704
2025-12-12 17:52:52.694087,Right,-100.20521178668196,-103.3623963620339,-108.38766771008886,-91.44869072250276,168.0126189864427,-97.24481847109087,-96.74172989781914,-85.81016776201818
2025-12-12 17:52:52.698067,Right,-121.80526173795715,-113.2135463814684,-120.45716801861636,-103.77721461936108,110.16318266577582,-110.60738110887581,-108.5543476047992,-106.55828646037071
2025-12-12 17:52:52.702123,Right,29.11769028420258,44.14594453954669,34.833727121147604,53.994490405398665,-128.17858831011017,43.738110088385156,46.870664169326574,35.39031785660154
2025-12-12 17:52:52.706104,Right,78.99701838796523,82.35852603397143,75.06419206253122,95.77087682962247,-104.2196320414746,83.94035584938274,88.76114752876947,83.89294928489335
2025-12-12 17:52:52.711047,Right,-54.958378139384195,-61.741880011944886,-66.62490128768695,-46.89672280198329,135.86144889927482,-57.20818908887213,-51.41467440856468,-43.39291227711146
2025-12-12 17:52:52.714061,Right,-112.00300707742258,-111.80487296883439,-118.5325785684945,-98.79744603461768,142.7660712901652,-107.94309434909655,-103.17214703856371,-102.92785314525463
2025-12-12 17:52:52.718126,Right,22.779916336097358,30.206436437598313,20.24591635564866,42.99202825147677,-96.84122784855663,32.34530129501945,35.99325421289359,18.850879290229386
2025-12-12 17:52:52.722084,Right,99.63462785913407,97.26003126014257,87.62305026944523,112.76811006776484,-135.52204096574405,99.98507981480725,104.97117342798083,90.859798499313
2025-12-12 17:52:52.726111,Right,-30.83644807904784,-45.26860297003077,-53.170599680124724,-29.274945324198143,98.82596075302172,-42.61284983780206,-34.971809319632484,-31.739270966660115
2025-12-12 17:52:52.730167,Right,-133.58370568357407,-143.0326288690303,-152.8750942438819,-130.85804434696524,167.74440153273918,-144.028224174358,-135.84636539573694,-132.2155589442482
2025-12-12 17:52:52.734185,Right,-20.81803233748508,-20.208833962038625,-34.083107980412024,-10.84514373810589,-59.142693338374556,-24.18250184840963,-18.11948304339603,-30.241222932058008
2025-12-12 17:52:52.739195,Right,99.48330007968116,94.84331277368983,80.17746966539926,105.73372110311993,-160.45146218025184,93.0129469734884,97.1750712519297,83.61459547746745
2025-12-12 17:52:52.742202,Right,7.689038255923947,-7.773771983629558,-20.71485888242023,4.446763607961202,50.291531823130754,-6.49333986100828,-2.278679629755061,0.1706873694784008
2025-12-12 17:52:52.746212,Right,-123.05574131164536,-133.24138575970574,-146.8036566902956,-123.88689728362078,176.54527500328913,-134.2784272985391,-129.32261366539387,-122.96080113746939
2025-12-12 17:52:52.750208,Right,-51.4602936987867,-47.70502890302669,-63.26556134666316,-41.64858538561657,-20.368671704701228,-54.10436213261346,-48.82231996471273,-57.31180265718103
2025-12-12 17:52:52.754270,Right,86.0729842320199,88.78882632838577,75.49998188829704,95.57079474462353,-174.1148589558834,81.39215056248395,87.13626166389986,73.57856218274537
2025-12-12 17:52:52.758194,Right,35.53388454049457,25.44778005198532,18.26470768245781,33.99795638140495,4.638999016405251,21.638313288827703,27.88409740512361,29.218880738573716
2025-12-12 17:52:52.762221,Right,-100.42213914684456,-111.61453559037182,-115.84297069846434,-105.01252399268924,188.23458635474253,-113.85252451276392,-108.2200513056323,-99.28756149500987
2025-12-12 17:52:52.767270,Right,-58.10581191435912,-58.60707968982024,-65.28817805505241,-55.59189772678474,41.47005355491092,-63.10885232475448,-58.82562252026764,-63.12691007994181
2025-12-12 17:52:52.770272,Right,91.16033682038662,90.41456451479826,81.38632198751657,92.83029432159492,-155.4000257080661,84.59008172249378,88.89248357717588,76.53995192124057
2025-12-12 17:52:52.774240,Right,72.41940760316487,58.11111685331343,49.960326066950074,61.3816347117463,-31.417650493743167,53.299164622254466,59.32277633141348,61.4959361127203
2025-12-12 17:52:52.778289,Right,-78.48642622218911,-96.81313327484895,-104.78192922451126,-95.61401815503996,182.44027537289367,-102.4684611224402,-95.63738504214052,-80.42408490075468
2025-12-12 17:52:52.782313,Right,-79.78637306342144,-87.3283030499806,-98.11255880416866,-89.45774090780833,85.29095307748594,-96.23676493706807,-91.23058457519801,-85.97730275556387
2025-12-12 17:52:52.786315,Right,70.52328173432618,65.87636592471608,53.54735175274254,64.26850401103911,-144.2280851961641,56.638733457197304,59.052761470344194,51.68863850648995
2025-12-12 17:52:52.790337,Right,92.08356537112746,74.03986513574637,63.99499681213638,75.76664942804746,-80.13638584203181,68.75469781906031,70.52044264657525,71.57612462605539
2025-12-12 17:52:52.795350,Right,-51.64345867484562,-77.30058455715334,-85.89571482081374,-75.09603245218386,157.63618225596474,-80.3696846150724,-77.20642883190521,-63.89050439462153
2025-12-12 17:52:52.798302,Right,-85.13647460780284,-100.52644961379701,-112.04019867055467,-100.75289995472667,128.55583534563993,-105.89677034360648,-100.99597001914299,-97.04901985278775
2025-12-12 17:52:52.801309,Right,60.057891934087905,52.88920597141623,38.562813841454044,52.959605046949946,-107.14485332544245,46.7413196158268,52.83099932320329,40.271575721573754
2025-12-12 17:52:52.806377,Right,110.46565349915431,94.54365859559039,82.19186166229338,98.52131341026688,-104.53916463795213,93.65304867846498,100.19072711597983,91.98954891594258
2025-12-12 17:52:52.810434,Right,-41.790633859438195,-66.39963808144967,-75.56639692534372,-60.59341166519516,131.31454422798924,-61.095207692527765,-55.72410193871474,-49.163749624200136
2025-12-12 17:52:52.814413,Right,-131.7644032854111,-148.77563911360267,-158.8486619530886,-145.30969269409434,153.31991574138556,-142.38102418401832,-139.9497282484008,-137.6848892296657
2025-12-12 17:52:52.818424,Right,-5.595603917688692,-14.063527383696055,-26.493237409958965,-12.03037730287906,-90.70404122984837,-9.044067440096114,-8.902017617099773,-23.53935294688199
2025-12-12 17:52:52.821404,Right,99.73547089005245,82.73684737128497,72.0737967172463,87.05919270883533,-155.97245121109154,88.79904510479173,89.87264179351041,76.23742656035756
2025-12-12 17:52:52.825461,Right,-2.052353068851204,-31.045935894115246,-37.747382569970796,-25.126399144410243,73.08909595722434,-23.936268135614228,-19.89618703754968,-16.526372957891
2025-12-12 17:52:52.829472,Right,-107.03298743883184,-131.16173984646593,-137.71292598371656,-127.53497531173707,168.37258326962365,-127.19771275830135,-121.80105752128293,-115.7409410123364
2025-12-12 17:52:52.833429,Right,-10.691428538666798,-23.934399781457614,-33.363107278091775,-22.71184500048912,-44.58298323447343,-23.971244010193914,-19.80644150090302,-27.705930465599522
2025-12-12 17:52:52.839489,Right,107.27708199591473,89.23019294179903,79.74252363330743,91.10473287613058,-163.93972683994252,89.59982234503332,92.60255222459091,83.04779334451086
2025-12-12 17:52:52.842586,Right,21.846225801315256,-8.461922047772532,-15.080629518823116,-6.484885848662088,36.468263752396524,-6.321555198639544,-2.6621216500316223,3.411851021941402
2025-12-12 17:52:52.846528,Right,-113.10810926184789,-140.05755469226278,-146.33927205934015,-141.86906538956828,184.71509624945065,-141.29879292986152,-136.57181149684038,-126.2393379927671
2025-12-12 17:52:52.849459,Right,-51.34036093824005,-64.42533201368133,-73.5737962054991,-70.13040871765406,5.152724739487894,-72.54787745646172,-67.61126700730892,-72.44939463236369
2025-12-12 17:52:52.853514,Right,86.0847942472613,73.29923239215714,63.22799255263817,68.09943039850987,-167.2146911031814,62.28558810085815,67.35877999483273,56.57933713107559
2025-12-12 17:52:52.857540,Right,39.64775684182341,14.910457545822283,6.833118737362383,11.738633785851562,-11.816539901430588,5.994264155102428,11.484015950423782,16.281946729603078
2025-12-12 17:52:52.861505,Right,-99.77655692257503,-124.84521192169268,-133.25090981641551,-129.5329376068039,180.32849862045077,-133.10101626287724,-127.80535810738002,-113.50622942158589
2025-12-12 17:52:52.866560,Right,-58.62727869298372,-70.42620598736175,-82.97678793856176,-78.38216650830145,51.53235701124504,-81.71610170336862,-76.89010687632981,-76.13254928258175
2025-12-12 17:52:52.870593,Right,104.60110308476855,96.12010194617687,81.21617688638071,88.0679438247862,-154.04133137898953,83.07669670594623,88.96630183326488,78.03951554423475
2025-12-12 17:52:52.874578,Right,99.18562060546107,78.49860609201642,65.90688031639002,72.33913269395634,-47.173978313931,67.12265527352429,75.71696117862666,75.76701373424658
2025-12-12 17:52:52.877547,Right,-62.93654640090183,-89.1191017852725,-99.67416141012654,-96.03849807056395,177.38972017029846,-99.4203330500568,-89.16036899104438,-76.7945984249418
2025-12-12 17:52:52.881551,Right,-89.17277929843034,-105.77019852981175,-118.25489337213367,-114.91301042159466,102.32395445092516,-116.7212235468287,-107.51043991664119,-104.73499648701909
2025-12-12 17:52:52.885623,Right,56.05988063162626,43.572696668368735,29.240933665365446,35.915707857580855,-133.67362188720563,34.52673589013284,42.33068869854469,31.595514748736605
2025-12-12 17:52:52.889606,Right,95.69221654540578,72.02533003818826,59.705827003614104,68.81893192590724,-93.32249537446933,67.52366231230917,76.69675063570321,73.47052892053398
2025-12-12 17:52:52.893672,Right,-36.80954356281772,-66.41477070934707,-76.76912492654083,-68.47506313421763,145.59429234674644,-70.5789026164748,-58.17294363111432,-47.997460407044855
2025-12-12 17:52:52.898652,Right,-75.37532644198487,-92.85042491550121,-105.68826003799768,-98.34065840497351,137.90093695459382,-103.36976662305824,-89.38139341270289,-86.58808554312782
2025-12-12 17:52:52.902662,Right,71.95438744157867,65.03919361836961,48.771522099930735,57.26257515233738,-97.27261472952341,48.97235923965127,61.917417370572366,48.90435723703922
2025-12-12 17:52:52.905713,Right,139.01170023802854,124.61234797417637,109.15290397231001,118.37891200567537,-114.23949964096664,109.86949255337822,121.23977653232214,112.81811273665153
2025-12-12 17:52:52.909732,Right,-7.1609690402816,-30.15374090180194,-43.060305702048936,-35.411713382683956,123.52926481841132,-41.635057298481115,-30.99306298430747,-23.32272992040089
2025-12-12 17:52:52.913717,Right,-113.44384621927651,-127.30060538531325,-141.19015338970348,-134.90863313205045,172.15051700492586,-140.68001518514575,-130.4843204615281,-126.05912958127374
2025-12-12 17:52:52.917716,Right,-0.9683098482692571,-2.0053923472514725,-18.646471528620168,-11.553788833796716,-64.37238133319079,-20.286584707620932,-10.592601521886536,-24.41343218392285
2025-12-12 17:52:52.921671,Right,114.27298632729389,108.96166176569386,92.99890354258241,100.23949223616728,-151.77884949298823,88.64614995060401,98.13623834447571,82.83851632236838
2025-12-12 17:52:52.926759,Right,29.2264355437394,13.076751113483624,-0.1541051673630136,3.879706735333457,68.71985593768204,-7.374751965551695,1.5586195615396718,2.425207623244205
2025-12-12 17:52:52.930758,Right,-74.41759540269481,-86.38571552723806,-100.22716452733584,-99.93403269003466,187.12800898343812,-108.8547375662165,-102.00348134793603,-98.1890687812047
2025-12-12 17:52:52.933787,Right,18.678443633252073,18.50265929973102,1.6250406200997531,1.5047769902448636,-10.78524365924659,-5.239688243589626,-1.2577296331583057,-12.781762263333803
2025-12-12 17:52:52.937783,Right,147.19371077744313,144.6788301036977,128.19216260236135,129.35263982855395,-147.04121816495763,125.05454518029728,127.60846707695237,111.77875614595541
2025-12-12 17:52:52.941782,Right,73.08448692767013,59.42410818575809,46.73937112855492,47.155075593043875,39.59775740764189,46.20752068053844,49.03217669769947,48.13735168624771
2025-12-12 17:52:52.945734,Right,-70.39277414600451,-81.29817442991771,-92.7745894964828,-93.8986349349725,204.2377964118955,-92.46410636486326,-90.00656744046864,-84.95236837073026
2025-12-12 17:52:52.949815,Right,-23.947575878090674,-21.051407353523246,-34.85133364896319,-34.668702846491215,39.355414500314055,-33.22681781830397,-32.91738953528693,-42.305625237946515
2025-12-12 17:52:52.954756,Right,113.16309826641827,116.86436475376468,103.12301287818991,106.18220510773244,-151.0733414232268,107.39900053935708,105.60583221495472,88.88347782584242
2025-12-12 17:52:52.957773,Right,64.0247860206614,54.5343954573691,45.10980201613711,48.26935968980979,-19.444733099625182,51.42523749752945,48.97179393771148,47.82212226620322
2025-12-12 17:52:52.960835,Right,-110.73289845793988,-123.53369512298741,-130.0218271204576,-129.1634364771635,175.9991069186226,-123.22305166002843,-126.43684540604954,-114.5813459423116
2025-12-12 17:52:52.965855,Right,-118.98380282155767,-120.53543988292222,-128.41605837277166,-127.84538389302543,53.99247605168239,-120.6622505901887,-126.32356864680696,-124.49775745139777
2025-12-12 17:52:52.969854,Right,30.608319523311366,32.36244208107746,23.44435838697973,26.389171887869452,-174.9960796222922,34.239133710379974,25.664322964348685,15.499735469282314
2025-12-12 17:52:52.975973,Right,54.628767061744384,44.669324014077574,38.31970046534843,42.47332301021743,-97.14221909666628,52.76593127855813,42.476335128849314,40.770810390451516
2025-12-12 17:52:52.978840,Right,-75.7674918731318,-90.70404762254839,-94.95512621311354,-91.9117059923883,136.11030520414954,-78.5805058404494,-89.91342079686729,-80.41620683127985
2025-12-12 17:52:52.982904,Right,-89.9303873629533,-93.36725480567475,-99.39589715675538,-96.67880314454305,91.99275730973682,-83.0099618928034,-95.54181578024145,-95.64138943812941
2025-12-12 17:52:52.985902,Right,64.88273170977118,68.37705896941407,60.60549597096542,64.63342874065711,-137.827032971559,76.27283935313608,63.27159154134279,48.67004651874959
2025-12-12 17:52:52.988943,Right,115.84487887574687,108.61512290896644,103.08977830329968,106.79835938712495,-112.80831186449814,117.58361244910702,105.54399766683855,97.95195708121173
2025-12-12 17:52:52.993918,Right,-29.886301667993393,-46.2330426044864,-49.211234548682114,-48.25541059641182,129.11458259751316,-36.48607849452492,-47.6244895488926,-39.108809076544276
2025-12-12 17:52:52.997885,Right,-110.38392296585425,-118.1397335601796,-123.03814226684335,-123.2096778888772,138.38721113920337,-111.58549883882733,-123.43214481288669,-118.37907420352713
2025-12-12 17:52:53.001947,Right,6.946985324771958,9.095082962747256,0.9663605427194852,3.2014204669976607,-108.57841632565487,12.66642447866252,-0.1848309145498206,-10.253174747267622
2025-12-12 17:52:53.005954,Right,83.68161596096525,79.49381476453345,72.55546698947,76.71028996132372,-163.87611390731126,84.90168075929432,72.98290217331669,65.51352780925299
2025-12-12 17:52:53.010025,Right,-39.387140869850555,-51.92083027201079,-55.051066184991214,-52.80912008562518,59.612807472487475,-43.48840924141223,-53.253013259800355,-44.249101914614585
2025-12-12 17:52:53.013987,Right,-142.4716780461149,-146.57508351651995,-149.06028336068994,-150.00340719410087,129.5466233702473,-139.39840442427885,-148.3952782459528,-138.56601863100877
2025-12-12 17:52:53.017017,Right,-37.05587154794739,-28.71156067552147,-33.020750240801135,-35.2456157775523,-96.72824622240478,-24.714100844503264,-34.56482682859132,-39.60187960750045
2025-12-12 17:52:53.021019,Right,82.66353228538446,86.20673531982538,82.95827759936219,79.34644982359168,-205.45602220916953,90.15135982268293,80.25013211719124,73.75776079474235
2025-12-12 17:52:53.027046,Right,4.425994871809053,-4.317992541462445,-3.8895813415947487,-11.857343984709587,1.5327426957765056,0.4895694658116554,-7.619928313972196,1.2363038926923764
2025-12-12 17:52:53.029977,Right,-104.78296456087537,-110.32493000975956,-108.96030862435873,-121.6490699260612,137.8121754126305,-108.81255183014582,-114.9660180826213,-102.75460713631037
2025-12-12 17:52:53.034083,Right,-14.149858372780727,-7.136238307124586,-7.943762427701586,-21.226895033152687,-45.71103383850732,-10.688576734573871,-15.633702648563485,-18.796279464950203
2025-12-12 17:52:53.038084,Right,132.05508029601606,137.5383607297481,136.55044764082413,125.85224824594479,-196.8226397752387,133.19859216815712,130.1196795935466,121.39990918455442
2025-12-12 17:52:53.041102,Right,76.54211526766358,69.40816960174925,70.84342865150757,61.711715485209425,-22.27838324825825,67.25696351418446,67.07162856660943,73.23569234131719
2025-12-12 17:52:53.045106,Right,-73.47449922864143,-80.73819122790519,-79.56653988300604,-87.93665462173158,161.58652678466387,-83.68561942825181,-82.32149596110685,-68.48556513537551
2025-12-12 17:52:53.049100,Right,-45.11430582148387,-40.13120586286459,-42.973324156857416,-47.89348592386159,17.44462008058872,-46.025614630359996,-45.83067680598833,-46.45552829109147
2025-12-12 17:52:53.054116,Right,95.19413822422666,101.10286520612499,96.3746207209042,96.75842107124845,-183.1206517979008,96.70811850829887,95.20191853248252,83.4421197861302
2025-12-12 17:52:53.058065,Right,71.71274720112069,64.26287943451462,62.370066136452806,65.25741385434958,-64.61926555451464,66.31900361702264,64.71518879303039,63.965494947784464
2025-12-12 17:52:53.062076,Right,-82.54413514140288,-94.04836799341138,-93.51457664691043,-91.61346871533897,153.37517552895952,-87.52613477778323,-88.82798054699379,-78.33627319916923
2025-12-12 17:52:53.066096,Right,-89.10839060902344,-88.86465925771336,-89.61969713245344,-88.33999928056437,66.16627332716052,-82.63188758044544,-84.75891417617459,-83.73851177011238
2025-12-12 17:52:53.069141,Right,53.184489813647815,58.6292310619865,57.12506844415111,59.064758751956106,-162.47393766187815,64.6768086381262,62.09586700625732,52.037100180477864
2025-12-12 17:52:53.073103,Right,67.24568186415217,62.06793987832498,63.50170071305183,64.03883247632984,-107.73020965564683,70.20004254901323,69.30641818456934,69.15295667868486
2025-12-12 17:52:53.077138,Right,-79.74821432196586,-90.41793100887298,-86.88975539694002,-90.18670998846574,123.56341443525525,-82.52755049523785,-81.1680095304364,-67.74074710964123
2025-12-12 17:52:53.081197,Right,-110.79461284115132,-110.2281300890536,-109.45524987404133,-114.59522457849016,94.32582577188987,-106.61457309483012,-104.99894044041866,-99.79929055747198
2025-12-12 17:52:53.086200,Right,43.72575168682488,52.3683382362251,49.88401605099716,46.62859328655031,-144.68723957886323,53.364886772960745,53.776061035110615,43.21917940707135
2025-12-12 17:52:53.090226,Right,110.33822030808005,109.39785408455646,108.60918015737843,106.79992848967595,-148.19635109921182,112.67042445158495,112.71407692558205,107.22459794863244
2025-12-12 17:52:53.093169,Right,-26.230539408996265,-36.31933030957953,-33.103188086057344,-36.903869625082734,92.20764618097382,-31.169285742731063,-30.539799251040677,-19.78079734664425
2025-12-12 17:52:53.097186,Right,-112.61502634459612,-114.00033618649468,-109.91735550815793,-116.09529764838953,130.54540741047458,-111.61282590707015,-111.04120646348929,-102.44535787210043
2025-12-12 17:52:53.101247,Right,3.5699461272743065,13.409082575657521,16.546262367406598,10.840524099146933,-102.99123372438771,13.101283422809047,13.12136404762532,6.132536461347627
2025-12-12 17:52:53.105259,Right,95.11676386916406,99.23246524307251,104.1213860614007,99.40044886817486,-172.51291206406313,101.6392377522393,102.05633556158682,95.49645311248605
2025-12-12 17:52:53.109360,Right,-16.97928537370717,-23.17678884977431,-15.42565011629631,-21.755200098921705,50.42862331223478,-15.924754584084894,-15.027795954731118,-6.6922886135471344
2025-12-12 17:52:53.114238,Right,-127.9647608979576,-128.35445650242764,-121.40949831952094,-129.8034260512013,148.16785825300758,-119.73443788992108,-120.7263011071118,-112.6239669410752
2025-12-12 17:52:53.118316,Right,-31.647332244781865,-19.871351946800132,-15.789206827099406,-23.48520759130406,-62.75770982778158,-11.607136765980613,-16.513070776434688,-25.47884148612866
2025-12-12 17:52:53.121245,Right,93.50163512668769,101.77036050375682,106.67854179343703,100.45742473273458,-189.2350511554123,112.4802193456494,104.78153224319249,92.25617069418149
2025-12-12 17:52:53.125357,Right,16.017222501683136,11.927717366132129,20.692697279228014,13.162644709180313,3.9322686085288296,25.31347855161073,17.46815857605543,21.14846335110633
2025-12-12 17:52:53.129319,Right,-117.36617990150262,-119.58862367972324,-110.27640865527792,-120.20500155131595,154.14442981360116,-109.07603447447343,-116.03897260113445,-106.07955741545629
2025-12-12 17:52:53.133366,Right,-55.7195241468271,-45.259283341565606,-39.51505364679906,-48.83820217329048,-22.245387990546078,-40.99987079477842,-47.54255773463228,-52.19840462337197
2025-12-12 17:52:53.137362,Right,88.33516692436751,99.14178934350275,103.37160059927919,96.72012297822766,-199.04640168251353,101.3664797256672,95.56723315407908,82.66513024629603
2025-12-12 17:52:53.141375,Right,49.03511564587643,48.341963584514815,55.30142518601133,49.03905004049011,-46.81173815186048,53.45778126837263,49.09882786671551,48.68817057657361
