timestamp,label,FC3,C3,CP3,Cz,FCz,FC4,C4,CP4
2025-12-12 18:07:35.425783,Right,1383.1350375290115,2197.925353745197,2261.411218388469,1916.334657380524,1239.1345577763534,1798.495393614095,1809.1448916160582,2381.045729294828
2025-12-12 18:07:35.441837,Right,7448.923190387017,11842.602302160663,12184.681203881659,10324.345852491053,6670.206292875229,9689.852430290404,9747.831555764085,12829.258471082572
2025-12-12 18:07:35.445839,Right,17069.695331333576,27157.879709137196,27942.361794303117,23672.986794686123,15232.846303439539,22219.553815275285,22355.030631677026,29420.31426204557
2025-12-12 18:07:35.448907,Right,21355.846648779803,34014.50893878314,34998.195639975165,29645.58661196752,18862.913628468676,27828.766795520052,28004.293957649446,36847.89925183753
2025-12-12 18:07:35.452861,Right,14491.518948887307,23120.815232004832,23796.154850763065,20151.960692097004,12445.999297978204,18922.56510666033,19050.268159368294,25048.26254146068
2025-12-12 18:07:35.456989,Right,1707.1803962578124,2753.3590295779286,2854.1635034205974,2412.113252942334,1068.247303050768,2274.0197034812445,2299.069020490453,2989.9098260846513
2025-12-12 18:07:35.459912,Right,-7937.914995328698,-12637.01679392383,-12968.109266911546,-10991.82391318414,-7036.978306955556,-10308.346645593469,-10367.296569354541,-13675.397313959635
2025-12-12 18:07:35.463948,Right,-10383.736020756187,-16522.842799309175,-16967.807264515664,-14385.252667666646,-8807.189139507565,-13496.439145149547,-13577.437860764621,-17883.690714492637
2025-12-12 18:07:35.468944,Right,-7424.988220407686,-11779.121381876059,-12100.99842024612,-10263.596876169147,-6333.650910700206,-9631.118316209642,-9683.740855425829,-12750.757131362101
2025-12-12 18:07:35.472973,Right,-3186.9272256162367,-5039.440866873949,-5176.368063743808,-4388.972480967408,-2917.304665575328,-4120.5225435713655,-4136.681316383008,-5455.456610563095
2025-12-12 18:07:35.476967,Right,-889.5838423872483,-1419.3425684747053,-1450.598980378476,-1224.1252178623108,-837.0401043000165,-1152.0893867412815,-1153.759953377128,-1534.6403049015207
2025-12-12 18:07:35.480936,Right,-1382.7770851713722,-2202.713992282399,-2255.594231763738,-1906.698682067683,-1032.3659167671576,-1791.821564340673,-1799.9791636790615,-2382.9699719208293
2025-12-12 18:07:35.484902,Right,-3298.4370068990393,-5213.757346855709,-5359.52940633602,-4539.237980832462,-2807.339832381753,-4259.596716581029,-4279.905606111046,-5646.945406783721
2025-12-12 18:07:35.487966,Right,-4513.974269695231,-7143.933104873984,-7349.662328030681,-6220.954495737911,-4133.240275318676,-5835.805865554372,-5864.410943797324,-7738.8039097641595
2025-12-12 18:07:35.491918,Right,-4024.2708314167103,-6400.5735962748295,-6581.5757845066255,-5563.962873567478,-3614.9880951918894,-5219.125341134495,-5248.7005056736525,-6930.178671011352
2025-12-12 18:07:35.496980,Right,-2657.099082287634,-4231.8409116505645,-4348.6231674818555,-3673.627864636481,-2124.644847418007,-3445.5758976463694,-3467.296061843401,-4577.773268040153
2025-12-12 18:07:35.500996,Right,-1934.7816581958323,-3045.8273756003473,-3135.0595912531717,-2650.1345496537397,-1560.2855590882245,-2485.329844466294,-2496.3360713552684,-3294.7584830014966
2025-12-12 18:07:35.505019,Right,-2349.462551087141,-3695.378001197474,-3809.1409027127083,-3218.778508508345,-2264.2734527000575,-3020.138714680448,-3029.461673335405,-4001.4488791712793
2025-12-12 18:07:35.509007,Right,-2997.3483207190875,-4766.1770348059945,-4907.723587725777,-4143.287542914506,-2828.6642672626767,-3890.177382981754,-3908.087061264785,-5161.181293440866
2025-12-12 18:07:35.512026,Right,-2872.382787596318,-4588.055704235332,-4721.433110679383,-3986.2688615975203,-2363.4500369030866,-3744.72913194017,-3767.5115288335364,-4968.088722793153
2025-12-12 18:07:35.515982,Right,-2116.2994851422263,-3350.8933478131657,-3455.496722225216,-2919.5307108309353,-1630.3453290303005,-2743.7179299254203,-2759.6682584950468,-3632.7338282079436
2025-12-12 18:07:35.520050,Right,-1688.4248150052736,-2646.2393393327948,-2739.110857604188,-2312.218081609113,-1592.05837752379,-2173.072854733211,-2182.3544299567584,-2875.2024997924455
2025-12-12 18:07:35.524999,Right,-2014.3830489279935,-3198.0111491340213,-3304.7682083715918,-2785.9164060696494,-2001.4957859738497,-2617.133157911827,-2632.3276172962505,-3472.5930312939454
2025-12-12 18:07:35.529060,Right,-2452.4427309617167,-3927.2334569615778,-4048.289806481451,-3416.9564241042826,-2070.6090506465407,-3208.081945286598,-3233.069203624269,-4258.274751897901
2025-12-12 18:07:35.533123,Right,-2234.6503123481525,-3556.3476848092396,-3668.841566961375,-3103.751585848513,-1705.7612954222132,-2911.521863940754,-2933.98801614251,-3856.067206052365
2025-12-12 18:07:35.537111,Right,-1534.192823247984,-2409.6487122639082,-2496.936477235635,-2113.6617073524976,-1376.915949225193,-1980.3985218565213,-1991.1308962546755,-2617.162716397899
2025-12-12 18:07:35.540095,Right,-1195.0604576600017,-1892.0150865514297,-1964.3258678700076,-1656.3874712202232,-1307.0458201311994,-1552.2071807848988,-1558.8336496698903,-2056.5067928808276
2025-12-12 18:07:35.544109,Right,-1544.0743809493724,-2484.6176705023972,-2566.84318793274,-2163.9498363916064,-1391.4997883259202,-2031.3760306850309,-2044.3362441109493,-2694.670300754835
2025-12-12 18:07:35.548135,Right,-1955.8961478359997,-3126.4384141566698,-3226.1464055554243,-2728.4967169780284,-1520.4435224888148,-2563.0147623672383,-2578.88570239977,-3388.9761290388415
2025-12-12 18:07:35.552150,Right,-1745.8620155070676,-2757.169347290881,-2852.671505792532,-2416.7943907519802,-1526.3974709743634,-2270.645309884916,-2280.050069419085,-2992.6224990371848
2025-12-12 18:07:35.557141,Right,-1108.4261043034494,-1754.7779458756559,-1822.8801180508453,-1540.9229053101735,-1210.9560585733852,-1448.9597335408907,-1452.9030080996454,-1909.0704861133127
2025-12-12 18:07:35.561152,Right,-808.3351163238985,-1316.905998690403,-1366.1051148982951,-1150.9564960508142,-784.1724539700663,-1084.1996239447035,-1090.9499227160122,-1433.1507265482796
2025-12-12 18:07:35.565178,Right,-1111.7611674627988,-1798.199795444496,-1858.6524957672227,-1572.9218466000166,-788.2197757523973,-1481.1107459628256,-1491.855078336317,-1953.9097359589068
2025-12-12 18:07:35.568122,Right,-1460.490953183733,-2321.1965219567064,-2401.578655644902,-2037.3997404746478,-1217.7642217997927,-1917.0096201649867,-1925.7553398509044,-2522.795891148504
2025-12-12 18:07:35.572211,Right,-1280.6883478430682,-2041.041137903463,-2114.9433042283636,-1790.9261646681698,-1319.002341396932,-1685.6567387753166,-1690.573615466943,-2219.397535150172
2025-12-12 18:07:35.576209,Right,-749.197717382398,-1234.7404660054017,-1279.1421716584591,-1078.0634114930872,-747.7167890389683,-1016.6835288197035,-1021.4353132104734,-1341.5867458839202
2025-12-12 18:07:35.580216,Right,-494.63419111660914,-833.159085544874,-862.3513638646109,-727.8907836728031,-258.6529776461539,-686.9739417603705,-692.5865652555367,-903.7761089762207
2025-12-12 18:07:35.585240,Right,-728.9277449865476,-1169.759403299773,-1213.565101812128,-1030.1351457148558,-557.1936511287349,-968.3889943431132,-973.1706426875899,-1271.2872850573622
2025-12-12 18:07:35.589178,Right,-1011.3521227546735,-1612.4870097920066,-1672.757676917361,-1416.202498501516,-1096.6387055436498,-1329.031731527648,-1335.1626740295906,-1754.349240347743
2025-12-12 18:07:35.593247,Right,-886.6079105532262,-1449.2168125157477,-1500.2994895417942,-1264.508161308011,-924.3646922656917,-1186.248704271973,-1197.2252136063762,-1576.419519531657
2025-12-12 18:07:35.596251,Right,-472.79385280725546,-800.7161708085332,-829.4573043819983,-698.1555546539603,-245.12332194502233,-654.1124932803214,-666.7531365239993,-872.0465540589066
2025-12-12 18:07:35.600276,Right,-248.54543102049502,-409.67473897791933,-432.1395081789233,-367.4076991453767,-66.56890591752017,-342.02563537930837,-350.48162691597827,-450.74237514752895
2025-12-12 18:07:35.604281,Right,-403.19103889761027,-644.1269935426535,-678.2322187973186,-575.050337870256,-535.0099258268601,-535.6075650087441,-542.4069797011907,-707.7260315133026
2025-12-12 18:07:35.608289,Right,-626.0733002800844,-1036.4467612857698,-1077.099816331407,-907.9948208696442,-773.3799208265264,-848.4512830754975,-861.2607248509885,-1130.7325058738934
2025-12-12 18:07:35.612291,Right,-554.0481827905169,-941.4991716402583,-972.4720710264519,-821.4320002478198,-389.4943795927684,-768.078723382845,-785.6236429308774,-1023.433358383365
2025-12-12 18:07:35.617343,Right,-240.68885485490318,-405.83853110147174,-423.0158419328509,-363.8567317898851,-24.917662114079576,-338.57661773922155,-350.8990316253621,-442.31051420466974
2025-12-12 18:07:35.620282,Right,-48.462655556737445,-69.4403812220553,-81.32587228738703,-76.22279868955957,-157.2716217758716,-68.66897547716508,-72.77763548138319,-79.01243782305392
2025-12-12 18:07:35.624324,Right,-153.22064111582586,-263.333274829085,-276.66947564750444,-236.38201634964207,-371.4570928964822,-220.74163601739565,-224.57395993574755,-286.074659966107
2025-12-12 18:07:35.628342,Right,-330.69086947181495,-577.918766806717,-592.4784048534348,-502.7047208988224,-235.43136301013874,-473.2681168454001,-480.8415555933607,-621.0801378808101
2025-12-12 18:07:35.632399,Right,-281.8666942716809,-479.6467321678647,-492.36215875542257,-423.32048455864424,-25.31450589306769,-400.1455903009046,-404.3865076061338,-512.8923447969137
2025-12-12 18:07:35.636370,Right,-31.854915030649863,-50.767435531306546,-58.064624197315425,-56.85605065623531,-72.16525897051906,-56.59824112759088,-52.6571587579092,-50.8121579864528
2025-12-12 18:07:35.640444,Right,131.9507310000772,191.28535881167045,191.1667543281801,160.34182261984097,-133.51654594024876,146.30056771074305,151.4891205521999,211.00437513535144
2025-12-12 18:07:35.645397,Right,64.26677181600826,50.81586926607997,53.40780665812781,46.65952485933667,37.649906926526455,38.47218512443942,37.77061061980203,61.562375693698414
2025-12-12 18:07:35.648419,Right,-63.6166814811877,-135.6034387484833,-137.70074641532847,-120.56700866323081,150.8195157978771,-118.09330468991539,-120.2501207717869,-140.20339243853232
2025-12-12 18:07:35.651407,Right,-30.63988281280035,-44.223660612507956,-49.97207412685384,-50.30384429130936,-28.60257795965299,-50.530549830262316,-47.013982025615405,-44.370036838547094
2025-12-12 18:07:35.656449,Right,137.09630384707998,215.35112937020313,216.19695411411521,179.0407694827445,-139.08612922714383,165.73907626328582,171.841626258858,236.61618870095117
2025-12-12 18:07:35.660423,Right,242.7424687380917,348.5251064863987,360.0621204859781,304.298404041052,125.4570219600937,283.8280693107081,285.07340318393835,385.22492580091057
2025-12-12 18:07:35.664388,Right,207.08446011786873,298.63801972579677,311.31938919517415,258.577835435819,376.58447854862607,242.7016490387905,240.0406129861003,333.29366778128315
2025-12-12 18:07:35.668449,Right,144.7493918321121,237.3355446276346,242.82338492674535,195.84808419508408,196.0935856336182,186.41756202625584,185.715992197167,263.2511826887894
2025-12-12 18:07:35.673480,Right,171.2043478816522,277.7274502865621,282.4600843759872,232.4289329832609,-66.65083150918144,221.51535476978825,221.7842991819889,303.1374771418232
2025-12-12 18:07:35.676476,Right,260.74814098236675,381.9920359241805,396.28758621290035,332.75414343435114,111.32748342354898,314.115485900933,310.0912763888409,416.2266905143624
2025-12-12 18:07:35.679489,Right,326.1665289116354,483.8116250868625,504.8727696833812,420.83830219705123,474.1120834162284,395.4436594507861,389.04511737116263,526.5878890290915
2025-12-12 18:07:35.684489,Right,342.32798139612714,549.8725268351554,567.2915614957747,468.1247898528527,433.53343936626334,440.1640788347722,438.1814639999502,594.2788929368544
2025-12-12 18:07:35.688453,Right,339.32125091138005,555.4666441416193,568.41552609278,471.5512361128058,124.39048936516338,443.917723111721,445.6678461431293,596.4880559077137
2025-12-12 18:07:35.692511,Right,339.26239980894024,517.960501286987,534.2686674527067,448.39942766702734,143.36088721653505,421.56703966885107,419.975247454131,556.3584355984931
2025-12-12 18:07:35.696525,Right,353.94275593958446,525.3527023491915,546.5461968815362,457.4735441567609,461.93603047559736,429.0931971780665,423.71235234095366,565.8936121157603
2025-12-12 18:07:35.700543,Right,399.432727393345,630.8032970040222,651.1075513012474,540.8743034927174,511.347998145211,506.6150524324912,504.484070585866,678.2926647246932
2025-12-12 18:07:35.704536,Right,462.73027053294936,750.2976172703202,769.4581104274257,642.7402271789033,249.0782101607474,600.3843371883268,603.3069912256324,805.7102127326652
2025-12-12 18:07:35.707568,Right,489.402178651304,763.665440501878,787.6144514909829,664.5319985154201,212.65969447785756,617.3421682010521,619.3366504932055,822.8110204564873
2025-12-12 18:07:35.712582,Right,454.0891148786177,690.0252553566243,717.9424421539297,605.7313579971669,489.5130552526971,559.4358835603343,558.6813770988374,747.1388451966341
2025-12-12 18:07:35.716551,Right,415.24254571975325,662.1741435742006,685.8047389758867,573.0178286620649,558.654774671857,529.1351215692121,531.6024113294552,716.316539696476
2025-12-12 18:07:35.720536,Right,446.0145872933208,739.9477487619151,758.3605231750407,634.3984095172491,298.0442954918544,588.8659035275923,596.7806237511686,797.1937194134225
2025-12-12 18:07:35.724609,Right,527.5079862577259,844.3911437984207,866.7573849552427,732.5288880280568,237.85736591013847,681.8790102142957,689.0169009811361,911.2957103887456
2025-12-12 18:07:35.728635,Right,567.9453415818862,878.8260482177138,908.2748768414021,769.218335771875,554.0568356257863,715.8964844194707,718.9636646758299,953.3129507299745
2025-12-12 18:07:35.732640,Right,528.2943321623607,836.2575587073807,863.5116150621325,725.3321830442874,697.7009247062379,674.8702122525428,679.7570211440907,908.5470487920102
2025-12-12 18:07:35.735637,Right,475.89747897390043,782.0161049998133,801.5110933877295,670.041139413428,402.6470553909894,623.9019699770724,634.871816342813,847.1276106252335
2025-12-12 18:07:35.739675,Right,493.9249890416977,789.1806450340664,809.577044679434,681.5597202933859,212.61638706398662,635.0017628868227,646.622254044516,854.7790095222881
2025-12-12 18:07:35.744670,Right,573.6338336591725,880.2775670938427,910.0067929460201,769.2846563888015,505.8793156257598,716.9845263618627,723.5803802408627,956.8531059013912
2025-12-12 18:07:35.748681,Right,626.275512204098,980.4179546952946,1013.030508138705,852.5176423395751,786.2514547812752,795.2263189784135,800.2755354305846,1065.5347220897675
2025-12-12 18:07:35.752676,Right,592.0468597176368,967.4839078708319,992.164244520478,833.3742392342538,566.3110304361908,777.5050489229616,785.8765616001328,1046.8596852070186
2025-12-12 18:07:35.756702,Right,515.2304996785824,840.8396064667031,859.5666835545562,727.6603846682701,250.93244728108402,677.3828033978352,685.6025396902114,906.8335151829524
2025-12-12 18:07:35.760702,Right,497.8403041859856,777.9283081846079,800.5659020943567,683.1338330680737,409.21675699879415,634.0660723412875,637.3086140953237,840.5094942807918
2025-12-12 18:07:35.763716,Right,575.5472470656969,906.260103231878,934.2073335460154,793.2988364722114,759.0838938445668,737.2892946966458,739.6530753496336,980.3553107676562
2025-12-12 18:07:35.767714,Right,660.6895056416979,1079.329830827075,1105.81626183365,935.0437770840945,694.7106584230787,871.7708701546071,879.4715424124151,1164.8828618169064
2025-12-12 18:07:35.771738,Right,643.7184456183459,1051.4031560183503,1074.5451222835109,912.7286991190631,364.81679964606883,851.7658038414083,861.2253040687647,1133.4260879455833
2025-12-12 18:07:35.776763,Right,544.1662449382711,852.9417294858722,877.3076707753353,750.8534315708093,356.73533939383924,698.9297179053538,702.4929923193995,922.0359364565229
2025-12-12 18:07:35.780768,Right,500.3386151261511,777.6406798989046,804.7590009219712,686.0292334532132,631.5903534402023,636.6881258417852,636.4780800279696,842.98141303577
2025-12-12 18:07:35.784793,Right,582.14703780727,948.1744406189537,975.573420325527,823.8935848859837,662.014944440627,765.7103917695349,770.3976160999155,1024.8135477026226
2025-12-12 18:07:35.788793,Right,680.3006061542546,1117.885298725916,1146.140980877215,968.4247689180775,430.2037879844429,901.4944760828512,911.2501969124423,1205.88620367588
2025-12-12 18:07:35.791820,Right,651.5496102655306,1036.0853554522619,1067.3700514619704,905.3885372420773,404.42482743418077,842.4027142057894,848.7567001167918,1120.5428520146525
2025-12-12 18:07:35.795822,Right,529.0093931355514,823.559701739694,854.6781744112959,722.5406069613528,614.2707741391496,671.8642106920015,672.4869037967874,895.322292783414
2025-12-12 18:07:35.799788,Right,483.3426539405482,783.3510117125697,809.8874127325835,678.2200100999326,619.7289124064846,632.6972931978526,634.50069009664,851.4408996456768
2025-12-12 18:07:35.804850,Right,576.6934195215581,951.8517142180353,977.7913007604657,821.0326056054328,398.1330315996893,768.620840755757,774.3466007213574,1030.4660450344672
2025-12-12 18:07:35.808869,Right,671.1570428773994,1071.2587333353003,1103.9504461900797,933.7250619594706,402.67330003128154,874.397487820941,877.8991818085779,1159.6460794092854
2025-12-12 18:07:35.812950,Right,630.6097337474348,982.0058764421847,1018.4984917591792,860.6746460966533,660.2473703193245,805.3940546684898,803.910130088916,1065.2073320982745
2025-12-12 18:07:35.815927,Right,515.1001019127434,824.0929125779076,854.418435066822,714.0908554859925,668.4231425441103,668.5940804316197,668.6291018811753,893.5290653584525
2025-12-12 18:07:35.819937,Right,485.2353888261132,801.1424139457522,825.7940596032422,686.9506952839438,353.18890487909084,644.3782884095563,650.2619670634158,866.6292900504777
2025-12-12 18:07:35.823883,Right,570.7719033417525,910.0329579018289,941.0596936290385,788.9296920216875,270.0855720246909,740.617065915605,747.1989249532344,986.8531197268749
2025-12-12 18:07:35.827944,Right,641.0206189899473,990.1567790058907,1031.6435693975072,866.8414594939677,589.4847191373119,814.4589698837372,817.169802729506,1078.933080652845
2025-12-12 18:07:35.832969,Right,597.4175478076795,943.1120693915291,983.8092201508116,821.1572196448687,735.6618893481791,773.800651830039,776.7799083316932,1029.4037336229812
2025-12-12 18:07:35.836953,Right,498.9376805709908,823.4830400719075,854.9843973962124,710.5583189869067,416.2855616476154,672.627717962605,679.946317372378,897.1018844429636
2025-12-12 18:07:35.839980,Right,464.55945825518575,756.4272367878584,786.2263253898127,658.6078908867203,181.36265996540897,624.8695577469189,631.9822012728546,824.2926296279766
2025-12-12 18:07:35.843915,Right,516.7365175406449,807.1345775979571,844.7102069167886,712.4111769720912,446.34401179512497,674.8511118399911,676.5802128673531,882.7548882549163
2025-12-12 18:07:35.847980,Right,570.670482893358,906.6937219133833,947.4345457029995,796.2830953984521,733.5931201367639,753.0493356481893,752.8821764731547,991.2413249320816
2025-12-12 18:07:35.851995,Right,551.6570894893957,913.5551193838473,947.6938264901983,794.8433052223409,525.8649323440623,751.2169215729227,754.1458884280873,994.2646513583604
2025-12-12 18:07:35.855991,Right,480.6412962547038,790.931539376732,820.261245328933,692.6428672572365,189.51838906074408,654.0620937703643,656.3355772709474,858.1696744239889
2025-12-12 18:07:35.860016,Right,439.68118228716776,683.0862527367426,716.5209338056156,609.0775084992638,299.1897164589027,574.827541322331,570.1232820403529,742.4116041578818
2025-12-12 18:07:35.865035,Right,470.68358568579424,730.2522977611516,768.176664736704,648.247859604191,612.9251923743868,613.4030631399946,604.1496893792646,793.740367683582
2025-12-12 18:07:35.868024,Right,523.757526795147,851.2403012821451,886.5029329023091,743.1836255253293,549.5900643835776,706.4183256475953,698.932278027758,921.0797700514086
2025-12-12 18:07:35.872026,Right,517.3213873513741,844.3722305619158,875.5682310066186,737.3831077957293,247.175171505427,704.0332113696495,696.3768936262932,911.3063514910173
2025-12-12 18:07:35.876072,Right,444.4005493600853,691.9407791738631,724.054699203698,614.917656024103,265.0387323650066,590.0637686795089,575.6713894105051,749.2313466608757
2025-12-12 18:07:35.880055,Right,387.6135008089477,596.139079459128,629.8647787004011,532.8096200347645,539.1672640821198,513.4715574454749,494.26435809978284,648.71762703266
2025-12-12 18:07:35.884014,Right,409.62182564707473,671.0360918326769,702.5181377526606,588.2134589375928,537.3628555077594,566.3660116755636,550.8113487425726,728.2362308626762
2025-12-12 18:07:35.888095,Right,463.6835315434728,771.4413596027298,801.6668275014963,673.4147153797094,272.94229595409706,646.3730277118739,635.349444019259,834.8297856210265
2025-12-12 18:07:35.893099,Right,458.4529552105814,727.0220912124496,760.7282715581823,644.9600858959602,257.60905741830356,618.406385198934,604.2876882029232,789.6991868742043
2025-12-12 18:07:35.896104,Right,390.24569925211836,599.0873977569863,634.5140875350917,538.5702649722807,513.2962017564569,517.8609247036511,498.3750032262178,655.7552743841661
2025-12-12 18:07:35.899116,Right,346.2124386538053,560.5330954804085,590.970478110481,497.73372319573537,530.5769719473901,480.5345656843856,462.2849298225483,613.8429835069692
2025-12-12 18:07:35.904116,Right,372.6131771564251,623.4990072484361,649.6371082643745,549.2685441395734,248.16365394648165,530.1643458467443,515.8983116461895,679.0917237674585
2025-12-12 18:07:35.908081,Right,410.18205503502395,653.1541955952998,682.9042912579607,584.2540917550214,184.94679241604172,563.1188661811175,546.6022018879885,711.5919241609517
2025-12-12 18:07:35.912146,Right,390.6562144475756,598.259446226526,632.6675385801354,542.6368671267992,456.7597702992498,523.6959862486692,501.494467995828,654.7399973857682
2025-12-12 18:07:35.916167,Right,335.62163159879856,541.1769559567329,571.9004901675507,485.78347787365783,536.4643430150463,470.38950613699853,448.3664737971267,592.1250987116946
2025-12-12 18:07:35.921183,Right,309.58329316205345,532.685258421232,556.5811501187272,472.1846264107153,237.19233476690715,457.3380623203702,440.05001349234954,579.9261494474486
2025-12-12 18:07:35.924194,Right,320.3554953953717,529.3515630372567,554.1250909811351,476.2317853590939,81.1230492098839,459.74814972945023,442.9203153759008,577.2697403276106
2025-12-12 18:07:35.927202,Right,324.6486760354601,505.65679936367087,536.056962280185,462.97820226231124,338.48357504437445,446.1497493227944,425.9268452189863,555.7870924427407
2025-12-12 18:07:35.932207,Right,305.1844510274241,495.04819160024635,524.3485867243726,447.9266744798515,517.4056982531329,432.53206410771236,413.4730589208193,544.6693082373822
2025-12-12 18:07:35.936190,Right,284.02379767689854,497.59817284566816,519.558018221287,442.6931211921619,268.43319860688644,428.3814461471047,414.9480476998724,543.3036718242802
2025-12-12 18:07:35.940235,Right,272.0070269005373,465.5671349336626,484.9344714934705,421.29751652095,31.814322281221393,406.90454026916996,394.5989511879161,506.9086646082578
2025-12-12 18:07:35.944257,Right,258.1205189009197,407.6777097756276,430.4969875748502,381.57857085287105,222.20019349094946,366.52079153922386,349.72226844809484,446.6671230532229
2025-12-12 18:07:35.948310,Right,244.66231738345232,395.11007164861076,417.3381613136735,367.61389650811907,463.20202443393646,351.0484174983576,333.1457652443787,433.0431568560889
2025-12-12 18:07:35.952294,Right,245.3654741550563,431.87457367766183,447.24018927745055,388.9016923432937,291.3949117756565,369.9990813706536,356.85685982974246,467.7848522271961
2025-12-12 18:07:35.955304,Right,249.425591619045,431.4752639459912,443.3237193436362,387.9409102962818,13.938565644959453,367.9722914901795,357.14206652890425,463.60687288688496
2025-12-12 18:07:35.959313,Right,231.19226964900736,363.0240893178852,377.88294677902013,334.51797081530094,125.87556434876751,316.35385119880084,302.5132397011621,390.91113869904075
2025-12-12 18:07:35.964324,Right,197.54377934255172,309.0204421945382,324.358543490991,283.5255848306697,385.72137960832333,268.07687193492893,254.44106377230491,333.87274992873427
2025-12-12 18:07:35.968349,Right,183.38600275700446,324.7339730451349,334.2251273341244,285.55322780879214,277.85705306590535,270.8049469596008,264.56926238478627,348.4691186029231
2025-12-12 18:07:35.972356,Right,193.99550214078045,346.93046572152525,353.25635885144584,303.53765808756,-12.617634417314548,288.0061896587722,287.54011809651274,370.9956454683561
2025-12-12 18:07:35.976365,Right,193.5659479869646,309.5003730400931,320.20127137878444,279.8501028972678,54.17683030187618,264.9675382481655,262.2742626266554,333.8994422906544
2025-12-12 18:07:35.980323,Right,163.07343326025875,252.46986625599675,266.15731589333154,231.1347655088175,352.8935569138266,219.22125463210978,213.2560115866363,275.76198768161703
2025-12-12 18:07:35.983371,Right,130.30531632422935,237.9777298840927,246.845794256893,209.01808421651367,316.7757383417338,200.5349678688217,197.18227690597996,258.8190204221755
2025-12-12 18:07:35.987381,Right,124.29053723794641,243.64890891406685,248.19720092287753,211.66503354511224,-3.4251117336098105,205.4334229832166,205.12473671266343,262.57771168032195
2025-12-12 18:07:35.992400,Right,133.50162829563487,223.62391404691152,232.3732913795393,203.51948808843736,-27.366343420057092,198.52149437076878,195.13725004612934,242.87514203647152
2025-12-12 18:07:35.996411,Right,130.8318690485903,199.17647828371264,213.517981126206,185.6233110311441,273.6954348151339,181.5710965115577,174.4021732431138,220.00530939549208
2025-12-12 18:07:36.000428,Right,112.89257869281573,200.4491246379912,212.20591316185892,177.4739080175059,318.29545215226244,174.1552323299693,170.1213120361208,220.8497956143692
2025-12-12 18:07:36.004447,Right,93.03111664182507,189.0358861197019,194.9934302693,162.46706213027937,-4.448317086265888,159.51093359210063,161.2760790886241,205.6263742063893
2025-12-12 18:07:36.008415,Right,77.98167294549057,133.33327798149548,140.12221904972102,122.26975170552032,-124.22306768229464,119.2692965065944,121.23424337804317,145.81789243163075
2025-12-12 18:07:36.011454,Right,70.64409390930086,93.81908326537814,104.70290756924078,93.88487173779868,155.99148798041278,90.09881214995403,89.41198777873069,105.46353824203834
2025-12-12 18:07:36.015475,Right,73.7238828036352,126.17851954093203,134.41314312664326,114.26191311940784,297.6580360001535,109.16232258430682,110.84784955292707,138.77109709731303
2025-12-12 18:07:36.020478,Right,73.69636066223029,160.40571421606,161.10771867411677,136.2658780834754,25.95623691356741,131.31119662354467,137.8643047994119,171.05883777252166
2025-12-12 18:07:36.024490,Right,48.114731375244446,101.70879413164221,99.98087014455814,90.71692833147245,-166.85226837714436,88.88437397801317,94.38706254930003,106.93829631851986
2025-12-12 18:07:36.028494,Right,7.305957447038963,4.293778835737612,5.082891421800014,13.113047750550322,60.64172354520997,14.772287957079243,15.697317902988289,5.8145449191797525
2025-12-12 18:07:36.032571,Right,-4.6059813264000695,-0.5075077400542796,-1.110679140954744,3.369000973238144,273.81047329158173,4.273933827702422,7.368220617179759,2.899747031624429
2025-12-12 18:07:36.035526,Right,23.754022988287034,74.78849319048459,68.83293794002384,60.624371501558926,79.19074078116682,56.677176768600475,68.33990245533641,82.35042633651756
2025-12-12 18:07:36.039559,Right,40.46084115857957,84.41307390027214,77.85088859911775,73.54166998621076,-154.21839952428127,66.25816074368777,81.6971419834299,91.84605025057681
2025-12-12 18:07:36.043550,Right,4.201633587101242,-11.588244012731593,-13.625827095238492,-1.214118244475685,-2.8166208908951376,-7.036972796311602,4.4641353386687115,-9.983572574448772
2025-12-12 18:07:36.047562,Right,-45.99191915005213,-82.20908832387067,-83.59874914243119,-66.93462936172727,221.29779341403628,-70.04296215699287,-60.79399810259929,-87.04988885280909
2025-12-12 18:07:36.052564,Right,-46.37835275349789,-42.90634165582014,-48.73836256220238,-44.0498942322447,74.69963395580999,-47.602365173748694,-34.807365722430404,-50.06693635135889
2025-12-12 18:07:36.056608,Right,-8.824599788029445,14.360192212450784,8.06531736656325,5.779438960016705,-174.3660945543088,0.26204493499244563,14.659230311634019,7.917960108839907
2025-12-12 18:07:36.060593,Right,-2.8552118908555713,-15.751316165609751,-16.748131823609583,-11.960002476378577,-59.159335312986514,-16.25246324148611,-6.139805594924837,-22.748147464124486
2025-12-12 18:07:36.063606,Right,-46.546797413611785,-88.91044946480542,-88.68581059842836,-76.63797157927183,189.66696243034676,-76.4695977732481,-68.79032577839098,-98.9264815991628
2025-12-12 18:07:36.067571,Right,-82.40496731328312,-108.36856766967685,-114.31258256259025,-103.27402557712048,70.06309158616932,-100.12513948697597,-88.04381111174007,-120.55445770185906
2025-12-12 18:07:36.071610,Right,-71.45670499175321,-82.9643461528758,-92.20622370199999,-81.80681711705984,-233.36590846460604,-79.62340323528042,-63.351263712800574,-93.51596798212267
2025-12-12 18:07:36.075617,Right,-48.87731858363259,-82.70828000450274,-86.82778949811473,-72.1232777061523,-175.0063932530902,-72.42125388831482,-57.89380366116529,-89.58819124125876
2025-12-12 18:07:36.079645,Right,-60.647412573947804,-112.62044669938041,-112.94185971375555,-96.54148268693825,128.53060415264918,-98.14877630601404,-84.95634194888407,-118.54886468185578
2025-12-12 18:07:36.084655,Right,-95.0798536958464,-132.2596438365872,-137.8386367620842,-123.36033915664302,98.34741215886606,-125.5372615813103,-107.07629692161572,-141.8001764860237
2025-12-12 18:07:36.087666,Right,-111.60895950680424,-142.80180601592292,-154.2624983288406,-136.10944603625103,-232.62123531344696,-139.47843702502723,-115.35475606519321,-156.723404279619
2025-12-12 18:07:36.091674,Right,-103.15989770741726,-163.02486283349572,-171.54949840741756,-145.44443163304823,-270.871511291989,-150.28139520571858,-127.68241190264234,-177.34191419943818
2025-12-12 18:07:36.096627,Right,-94.57548220948956,-169.95445139988442,-173.31485191828688,-148.35986070301442,40.54480116258492,-153.67641232485767,-134.74746982054785,-181.44882763305213
2025-12-12 18:07:36.100690,Right,-100.48025879525085,-148.63997143681627,-155.07765092411137,-139.76807747309795,112.42923196734773,-143.86993567897298,-122.5406029397418,-159.41840530431364
2025-12-12 18:07:36.103707,Right,-115.70931967953948,-149.06582934074686,-162.32339072170726,-146.75954888632987,-202.9891966261348,-147.7793696864028,-122.15288106861408,-163.60706650916836
2025-12-12 18:07:36.107730,Right,-132.5530505978786,-205.2866461651647,-218.38761823485402,-188.22908927522803,-340.4165778100469,-184.99612203679862,-162.1891367842254,-224.25376869086176
2025-12-12 18:07:36.111734,Right,-142.66503524221116,-251.7718522560608,-260.2720577236614,-221.66672377661234,-66.24902431110422,-215.0439612115697,-199.31391107439413,-271.46291990111786
2025-12-12 18:07:36.115740,Right,-137.4625030535808,-221.0558360513387,-230.80485199451687,-201.08497011880172,98.3246466416258,-193.3365459557108,-179.4816983955061,-239.07222745628314
2025-12-12 18:07:36.119781,Right,-126.84196576488932,-173.02946366012134,-188.73213571079032,-166.50326934318832,-150.4357110924475,-158.35686320649984,-142.31601936704283,-191.99321494044045
2025-12-12 18:07:36.123769,Right,-136.71357701708803,-207.70992034039773,-224.24558611768225,-191.50914109436053,-346.0814871326729,-181.3474125067878,-167.77558822800802,-231.81792155930816
2025-12-12 18:07:36.128729,Right,-167.8650076802769,-290.1352442855059,-302.36492615465977,-256.26172434051114,-132.90850810867778,-243.642159368188,-236.179526216878,-319.4367046797488
2025-12-12 18:07:36.131731,Right,-183.6102038042918,-299.63752751007996,-311.6262532910914,-270.1270335200534,76.6120096246159,-258.1707753911978,-250.9646310597891,-329.990834726108
2025-12-12 18:07:36.135789,Right,-163.83996353846305,-233.83764402389352,-250.4408838563977,-221.61564043359976,-115.18266265614511,-213.42524041971774,-200.47376607031038,-262.34929730874137
2025-12-12 18:07:36.139755,Right,-143.10159937015123,-214.74692323195632,-232.1827236723184,-200.85105055387248,-348.1212656675925,-194.99245487860753,-180.40793662297074,-242.86635848441801
2025-12-12 18:07:36.143817,Right,-159.9451830507387,-282.31259143895295,-295.7443192894134,-249.93293144769268,-188.61492635095783,-242.47319193271687,-232.56019465583086,-312.60752467729617
2025-12-12 18:07:36.147829,Right,-193.43327176145976,-331.8613540985243,-345.1596147227101,-295.0294391990901,53.28399291563255,-285.39694790031353,-276.95678684806626,-363.8257080005278
2025-12-12 18:07:36.151855,Right,-195.35084196634125,-297.54041471725213,-316.0139152848278,-273.97421051254787,-90.58791457676853,-265.6111020190001,-251.81488611605891,-328.42661209136713
2025-12-12 18:07:36.156866,Right,-168.5245632163569,-256.5166591004818,-276.10851729408023,-236.23842086925288,-361.886101374781,-231.2999620833143,-213.9649728248769,-285.0564563324151
2025-12-12 18:07:36.159876,Right,-160.48353298418806,-283.5614820654446,-297.6172864015098,-249.70808874160866,-258.4546572440886,-246.24568951819674,-231.9191904187901,-311.0767061704537
2025-12-12 18:07:36.162925,Right,-184.85840265582374,-327.77643793830066,-339.5492080509721,-288.33603532938287,19.08684555059881,-283.6464067508641,-271.3701885912742,-356.0960311816307
2025-12-12 18:07:36.167916,Right,-203.53679317694332,-319.4300138691906,-336.7885056899686,-290.8825097675144,-61.38452324226091,-284.8123457155889,-268.63094766967697,-348.8203102266125
2025-12-12 18:07:36.171931,Right,-193.74947338493075,-293.03754284395836,-314.4298177367018,-268.5861378456757,-363.3115181195608,-262.01394780992996,-243.29897365928628,-322.17100315348944
2025-12-12 18:07:36.175933,Right,-181.52706578437937,-308.2518966946518,-325.6436476185336,-270.92068461872987,-329.7726273960143,-263.5582637011539,-249.50480253074784,-335.83460978249786
2025-12-12 18:07:36.179925,Right,-190.67830171310925,-335.5992400216928,-349.27253085773555,-290.50871129348525,-24.871663964760955,-282.2538790604158,-272.70206126067205,-361.9413007097028
2025-12-12 18:07:36.184935,Right,-204.0479409263353,-322.42431133578066,-340.5999430609518,-286.70718801365,-20.68988588571665,-279.0840433159028,-266.3064844875189,-349.3033109290991
2025-12-12 18:07:36.187936,Right,-201.27874470123788,-301.1091294371872,-325.1323747856077,-270.9520855147857,-332.41670640395023,-264.9886971123342,-247.54894439564669,-330.0099487992702
2025-12-12 18:07:36.191940,Right,-195.9129712980648,-326.0354299156461,-348.3728237688774,-284.03519819441135,-387.3498694135342,-278.0868174805946,-263.65239773946814,-356.74451593565755
2025-12-12 18:07:36.195967,Right,-204.974685363326,-362.3420523224049,-380.63352183031384,-311.7130762467277,-90.24274601440993,-303.16430901837884,-295.33097966667265,-393.4284172874177
2025-12-12 18:07:36.199975,Right,-215.22647049216903,-347.52817906526616,-368.23751161864493,-307.7475670365384,0.7629206110723317,-295.8066301938088,-289.02193420694675,-377.97936858900357
2025-12-12 18:07:36.203989,Right,-210.7633334644779,-313.6002533642459,-338.8149422868155,-284.183051833068,-284.63886525077396,-269.7155932718306,-260.56445128133055,-343.6164842711296
2025-12-12 18:07:36.207991,Right,-205.16567216307158,-332.42342971166363,-355.00925057404675,-292.76667554298183,-414.490560510254,-276.5887519470416,-269.4873882587999,-362.5037503626663
2025-12-12 18:07:36.213020,Right,-214.4743234355119,-379.4893087745295,-395.85381114156917,-326.5605319017777,-150.28794709415524,-309.4833405796089,-306.50011807779083,-409.2842566174222
2025-12-12 18:07:36.216021,Right,-223.55873827752657,-373.4720508296159,-390.0812959317118,-327.90334540384356,9.872351802390767,-311.501949721307,-306.52777937357314,-402.2011014431482
2025-12-12 18:07:36.219028,Right,-213.28000401391182,-325.05804675776744,-346.53922303573927,-293.9390992769622,-235.04021817224566,-279.09227344673127,-268.4225429292419,-352.767428792431
2025-12-12 18:07:36.224049,Right,-199.29240947554354,-320.4458381932345,-341.4581993010943,-285.3052330275532,-427.47019146513776,-270.26908701105276,-260.188568960526,-348.11605551926186
2025-12-12 18:07:36.228066,Right,-206.8595049227879,-366.61415567505173,-382.4905120720505,-318.17689624615014,-210.04542447451968,-300.4691891820985,-296.828244320699,-395.02886339003453
2025-12-12 18:07:36.232027,Right,-224.60802292573499,-380.7538984681596,-396.76044959313003,-335.44688490824774,4.17759783208021,-315.71935091383057,-313.6730671979021,-409.6755166629446
2025-12-12 18:07:36.236107,Right,-223.05873674651957,-341.4458039670717,-363.12808905995917,-309.5825784417684,-195.36298687339877,-291.1261331626447,-283.681118903507,-369.88745577982627
2025-12-12 18:07:36.240098,Right,-206.34008598551736,-323.23986754677026,-345.84894500661176,-289.1557684004074,-446.2490724408999,-273.3844697221066,-263.29310390219325,-350.12826675589895
2025-12-12 18:07:36.243116,Right,-203.66297123936238,-355.5437718075118,-372.5305705756764,-306.8522331143031,-288.1019558334665,-292.030315138516,-285.6718034579535,-380.1244673622423
2025-12-12 18:07:36.247137,Right,-217.33730601868592,-371.725783525093,-386.7718975866446,-322.5362956109457,-22.805654792755377,-307.1686909830896,-302.43013151269406,-394.099283241143
2025-12-12 18:07:36.252115,Right,-222.01438944265828,-339.8628731578938,-360.0233558760374,-304.2363890174893,-150.1690302627976,-288.7169156172895,-279.43317784625106,-361.33469838887686
2025-12-12 18:07:36.256080,Right,-212.38210704451194,-323.6623012875789,-346.1082015983993,-289.0852042491897,-432.5064039238496,-273.6320026628091,-261.5391249379609,-345.74367301387247
2025-12-12 18:07:36.260133,Right,-209.0489920154796,-357.49382283055456,-374.3726874377462,-308.5272971683298,-338.1464504542528,-292.4671654381091,-283.735223431373,-380.45617737516295
2025-12-12 18:07:36.264155,Right,-216.09033030172577,-375.93525392055744,-388.4435927880113,-324.0075602187426,-36.32879732665606,-307.77742363745347,-300.9643000791548,-399.21343053947203
2025-12-12 18:07:36.267180,Right,-214.47692769038258,-337.234814262134,-353.02082193264505,-300.1445623745676,-83.46137061656918,-285.3525078452076,-274.20595611835597,-361.1742447533761
2025-12-12 18:07:36.271166,Right,-202.48790797620313,-308.34490190219367,-327.35419478843687,-277.03552908916026,-386.08800737024285,-263.6296384889283,-249.9741916420171,-334.2925916517852
2025-12-12 18:07:36.275204,Right,-201.96550278441282,-343.8786261662026,-358.95865556324134,-298.8346813705284,-376.353590068873,-284.63022454979364,-276.84831062628655,-372.2613904137979
2025-12-12 18:07:36.280192,Right,-215.33362968656002,-380.04524142103037,-390.6889098775573,-327.55153725942364,-69.85789014061447,-311.8249871225562,-310.700237320154,-409.66307193104876
2025-12-12 18:07:36.284160,Right,-216.32046880281996,-346.4120637716842,-359.6565007508616,-307.26975822704844,-32.14350147853838,-292.5641253372305,-289.876094325562,-376.23076137999306
2025-12-12 18:07:36.288228,Right,-197.69536100380355,-296.1556480306899,-313.33250735426554,-267.35862816520967,-322.6339098358294,-255.98883461992955,-248.28735809231875,-326.7533362833783
2025-12-12 18:07:36.292232,Right,-188.79342024191283,-313.7559278741246,-328.41536391933914,-274.0861305447761,-389.40458266687347,-264.78394646546803,-257.6591929435381,-346.27516913902946
2025-12-12 18:07:36.295266,Right,-204.41354821977438,-363.22380097123096,-374.1387336899643,-312.621302626736,-104.25171831296757,-302.6290317637613,-299.0016547400155,-397.47198818437755
2025-12-12 18:07:36.299266,Right,-214.77794748230372,-351.7427548043197,-366.17392460926203,-311.8693138331291,0.749348167097196,-300.5265404211241,-295.5351955543738,-386.02872276341077
2025-12-12 18:07:36.303269,Right,-195.76427855406655,-294.7717438117252,-315.23741862073075,-269.92454480339075,-266.3226375752711,-257.7671456578537,-249.3121416658978,-327.53782837477047
2025-12-12 18:07:36.307227,Right,-172.73330456670374,-285.3476163807791,-304.4468762680772,-255.63948868290754,-396.8673155934084,-241.71459879045142,-235.7418325280887,-316.52576994500123
2025-12-12 18:07:36.312270,Right,-177.26153877621982,-327.0485763240722,-340.4980348179233,-285.32271012320416,-137.4018001378863,-268.6691271219752,-268.29535515251337,-357.7636422943324
2025-12-12 18:07:36.316315,Right,-192.64548597083194,-334.11357439740095,-348.0878691698308,-297.6489850169164,31.513049462926574,-280.4930869815871,-279.27709798060823,-365.24136918084696
2025-12-12 18:07:36.320304,Right,-185.1885438984027,-290.0263094669208,-309.0834794975235,-266.5611487251008,-205.38474440865684,-252.58171231887536,-245.38607336522546,-321.04554641852155
2025-12-12 18:07:36.323327,Right,-163.9431558995857,-271.03015333379153,-289.0458631347865,-243.7004424717161,-404.90227928879904,-233.16372920526192,-225.19968278333545,-300.29028249613475
2025-12-12 18:07:36.327352,Right,-163.31277286284603,-301.84341449372005,-312.86256410193164,-260.7308630020125,-193.74284430843545,-250.18284005008172,-247.62263032520423,-328.041410804959
2025-12-12 18:07:36.331349,Right,-182.74302245362196,-316.65099737711716,-325.50367327407,-276.98293460637797,30.771088528970722,-263.8560691300663,-263.14216731477063,-339.9825086562196
2025-12-12 18:07:36.335347,Right,-190.10626244859304,-288.1800771462731,-301.2990364599973,-261.28742944984697,-156.5201271699625,-246.24800387775758,-241.35617072932655,-309.88713684293907
2025-12-12 18:07:36.339381,Right,-177.3981700774748,-274.03106846503215,-287.76672100008,-246.36230223759776,-408.63750765897566,-230.96175929583842,-224.7121495922329,-294.99009437370114
2025-12-12 18:07:36.344374,Right,-168.50182999309618,-298.1948013426736,-306.2473631561734,-257.8689338451368,-249.86972066236194,-242.54550118290354,-241.1352024449734,-318.39149813656695
2025-12-12 18:07:36.348408,Right,-172.90882721351227,-302.4824299526517,-308.2613572158152,-262.5985991022317,34.14844615710899,-247.5974206777173,-249.0692135381978,-321.87717705674004
2025-12-12 18:07:36.351419,Right,-173.72716181213036,-263.01414412172744,-273.70622297318187,-236.941143051954,-75.46098397660535,-222.94564059149707,-221.17637690081028,-282.4057533273008
2025-12-12 18:07:36.355390,Right,-164.71442323719384,-243.48200121399714,-256.9189947693376,-218.7293485571863,-365.265138007584,-205.78217452630633,-202.081130315084,-264.16554994892795
2025-12-12 18:07:36.359361,Right,-160.0468470508349,-274.71871232322883,-283.6194349328289,-235.8668823876069,-287.26243454846554,-223.26930332853226,-223.5573081120965,-297.44810540636536
2025-12-12 18:07:36.363425,Right,-161.1739484090358,-288.5490910987719,-294.25069968390744,-247.14555938798003,21.019956469128374,-234.95397991867503,-237.92140488995938,-313.2972712593619
2025-12-12 18:07:36.367397,Right,-151.2402265482815,-241.33603263885016,-251.40042249055114,-215.84200301859528,-5.2451209124410525,-204.83220378583064,-203.79951389500638,-268.06637795770075
2025-12-12 18:07:36.372455,Right,-131.3643508189125,-201.4877307105926,-215.63349209079752,-183.26824182103155,-306.3137945578783,-172.84514489158755,-168.40267643146217,-230.29523623466957
2025-12-12 18:07:36.376454,Right,-125.33980411168886,-229.40400753042195,-239.94607333629392,-198.19209800078534,-313.92717046447797,-186.4027079862426,-186.05627498269314,-259.48682339384686
2025-12-12 18:07:36.379459,Right,-136.19278973567998,-264.0920867305831,-270.03286430152366,-225.23286444612313,-13.319369445554912,-211.96875182085205,-216.78467003640253,-293.5200803875923
2025-12-12 18:07:36.383472,Right,-136.37777431000723,-230.29374822211685,-238.88274835498305,-204.94534787582234,33.41168398945592,-193.05740794190206,-195.83599156019045,-257.6810931144282
2025-12-12 18:07:36.387503,Right,-117.07244612585055,-176.40534464275697,-189.52244734956184,-162.4051310166251,-258.802367354976,-154.06736708170502,-152.58990396012086,-202.42262068821583
2025-12-12 18:07:36.391523,Right,-107.4436443981831,-189.33967200713232,-200.26103135530138,-164.90915535757085,-340.0306532786926,-158.61640236520907,-159.56979987875093,-215.68743042415008
2025-12-12 18:07:36.395531,Right,-123.48667961225146,-238.45522489957511,-244.7039311081171,-201.84618046320975,-55.17583383002784,-194.75119950808585,-201.1688149224501,-265.29111854278017
2025-12-12 18:07:36.400472,Right,-136.77597924350994,-231.7380881839199,-239.51465003960766,-203.82298152893782,68.76654726621928,-195.40832741511986,-200.97662651282735,-256.96217644243734
2025-12-12 18:07:36.404543,Right,-122.03907257615356,-179.557142464153,-191.47199573967373,-165.3880479283398,-187.4325419483357,-156.76911525480682,-157.31867033371236,-201.03130791708827
2025-12-12 18:07:36.407555,Right,-100.72177641221788,-169.25960204779403,-178.77762099867687,-149.79283339629183,-326.3022964337142,-140.93283170758514,-141.5472665313864,-186.9980556552182
2025-12-12 18:07:36.411569,Right,-103.10790839185938,-204.53585188719444,-207.92038743552985,-172.53053888154682,-71.15578948205803,-162.68703876063228,-167.56566318881232,-220.23305995488772
2025-12-12 18:07:36.415567,Right,-116.57427500985796,-205.2402840439463,-208.66690979199484,-177.8600407759077,109.89865731878672,-167.7870437609963,-172.25018584396457,-220.29965120059205
2025-12-12 18:07:36.419622,Right,-111.24981958058197,-159.91370709822513,-168.1501791914925,-145.56073113554157,-120.326846681186,-136.7176233602804,-136.22853307414334,-174.42341634561308
2025-12-12 18:07:36.423634,Right,-94.28597109217662,-144.89068173564738,-152.41021517722402,-127.40124823595397,-330.98184149398,-119.36194589390652,-118.25040358112892,-158.0519641491701
2025-12-12 18:07:36.428559,Right,-94.95230098895263,-179.82569454197073,-180.94408882572316,-149.55162266007392,-122.34817545942497,-140.4086360114743,-143.5310438059969,-190.91427569056395
2025-12-12 18:07:36.431614,Right,-110.64357973251026,-192.6825076927198,-191.9483843263588,-165.325675088563,128.07839218352456,-154.7256795571302,-157.54198590730084,-201.65968254639301
2025-12-12 18:07:36.434653,Right,-112.46988340443932,-156.00483884150162,-159.54394974192837,-143.16415792837506,-32.07675566209946,-132.86547802301357,-129.04388308612397,-163.42876591382083
2025-12-12 18:07:36.439665,Right,-97.1044155890122,-135.43049510853598,-139.48778814432444,-122.30430524761323,-288.6070072663133,-113.22706214664504,-106.4984009504551,-142.11972206330393
2025-12-12 18:07:36.443652,Right,-88.67283131257864,-161.11752125970088,-159.3286838151398,-134.06805044185603,-150.55521806931938,-124.85162333172048,-123.42978929454694,-168.1212777280016
2025-12-12 18:07:36.447688,Right,-91.22878919256618,-168.6101146073779,-164.49370836792514,-141.35453676158795,131.35841410883586,-130.63909049937502,-134.1875054567936,-177.24296662496636
2025-12-12 18:07:36.451627,Right,-83.67783068618155,-123.26107748335926,-124.4203512140084,-112.08093809278216,33.93585936599993,-100.20659304229775,-102.53564059489872,-134.58894400979625
2025-12-12 18:07:36.455692,Right,-64.76884636670002,-91.91731196391629,-96.37627160607371,-85.47193044150481,-258.9789243527048,-72.9565910200472,-74.28975407133112,-105.7154156685574
2025-12-12 18:07:36.459695,Right,-59.618547596008284,-121.6291418558103,-121.5174755686894,-101.57824982481543,-197.3235583328933,-88.05622348526958,-93.70372215879615,-135.93538635247387
2025-12-12 18:07:36.462737,Right,-73.31831594955293,-150.14596093737055,-145.90775962593034,-124.44252634682925,110.9308608523279,-110.50663469050778,-119.13826952577801,-162.54316881368868
2025-12-12 18:07:36.466717,Right,-79.20133779782918,-118.39129598095315,-117.42505174380494,-105.68682716495823,104.19586090854136,-93.72063422237989,-98.20323740446474,-128.1204725514399
2025-12-12 18:07:36.471732,Right,-65.69766466645524,-78.1840016047936,-80.97071054246044,-72.8141209789319,-185.13347661981243,-64.25642827461706,-64.17766223032959,-86.5720463290927
2025-12-12 18:07:36.475734,Right,-55.703429713321384,-94.7792770320084,-94.47333072329639,-77.5919049368822,-198.08283421993838,-70.96197454899084,-73.54887213127222,-103.40913443674799
2025-12-12 18:07:36.479710,Right,-62.83598977717338,-125.39794787019491,-121.21014492638642,-99.93277784768725,99.37595525762299,-93.13435005338397,-100.50891181372572,-134.55070196959423
2025-12-12 18:07:36.483761,Right,-66.42427779818536,-100.10809323081048,-99.00810313865077,-86.36203730088891,152.04521312564611,-79.55535646853969,-85.518400324916,-109.16994048212655
2025-12-12 18:07:36.486785,Right,-51.601997028978076,-53.71262994239805,-57.12698978272965,-51.113110704987776,-140.71882282060687,-45.61527754389681,-47.51993849291466,-62.141917198721785
2025-12-12 18:07:36.490803,Right,-38.492824057204416,-61.632664623321034,-62.20390527776908,-50.58812829427188,-229.8868491211615,-46.1660799215897,-49.66127302573295,-69.08310563419946
2025-12-12 18:07:36.494810,Right,-45.128370599471964,-99.22683802689426,-93.96451238496229,-78.34274172555888,59.618464099563425,-73.75010222708806,-81.74676002538763,-105.38154750183458
2025-12-12 18:07:36.499814,Right,-53.2812037714466,-87.16905056033283,-82.50407113623805,-76.17344713344937,199.6228647022799,-71.59224055410596,-78.38494328642264,-91.91038545349147
2025-12-12 18:07:36.503826,Right,-41.39341799830436,-38.10865103936521,-37.43034209689358,-40.808205851586536,-58.455713098839624,-37.449327363516204,-39.19153182365699,-41.71110438200412
2025-12-12 18:07:36.507848,Right,-24.109917089692317,-31.809423881117254,-28.94136443763273,-28.55484716926003,-223.28727744007483,-26.225109863094985,-28.17725178290857,-34.82590927107958
2025-12-12 18:07:36.511931,Right,-25.536165874655126,-66.71512130595511,-57.72576538164867,-50.69283049629303,16.04769668195513,-48.02325960705639,-54.91978298698086,-69.67240999592468
2025-12-12 18:07:36.514917,Right,-35.98452694827574,-65.36777158128098,-56.59935990028316,-54.90657488047145,210.71406130422838,-51.7906215939438,-59.287891353829764,-68.57506045047194
2025-12-12 18:07:36.518910,Right,-31.755003181955544,-21.72646367084235,-18.734705716138706,-25.697917898651212,-4.0943245980888605,-23.221974966028938,-26.41004134225659,-25.3641587443999
2025-12-12 18:07:36.522877,Right,-19.36433568605571,-12.416465429123491,-10.199844881368335,-13.577543278574012,-222.71558365691453,-11.523380196042126,-14.477188468415989,-16.618760215002112
2025-12-12 18:07:36.526908,Right,-20.674931834015297,-49.82025786221493,-42.46265851787757,-37.31719842721941,-26.97943442995893,-34.05491044613882,-42.360223992640385,-54.46083492384059
2025-12-12 18:07:36.531850,Right,-28.630541238555452,-54.63484890194377,-46.37788730650209,-44.76043926976854,227.8612961253384,-39.95889834602713,-50.1427350838203,-59.33911597792758
2025-12-12 18:07:36.535918,Right,-19.889817710005445,-3.734632617153693,-0.9791954462998547,-9.767138879717095,72.0885834681394,-4.942315285472432,-10.864007579046302,-8.471897313836962
2025-12-12 18:07:36.539939,Right,-1.232587482285453,22.848374671826605,23.504506774654146,15.692748188681435,-203.64220372153795,19.875099236756796,15.27871296252124,17.60549477994209
2025-12-12 18:07:36.542940,Right,-0.16624461513129063,-12.83616698574042,-7.457349656149745,-5.03871182736475,-91.68949851876823,-0.37660720804706216,-10.854345054656733,-18.65092401020229
2025-12-12 18:07:36.546933,Right,-14.313793623819947,-37.18108715265407,-29.55068196283537,-25.95609073829837,187.78934015065897,-20.47400920750806,-35.68249691964593,-42.61920013040071
2025-12-12 18:07:36.550968,Right,-13.510911839170149,-0.05290551876532845,2.718108203582233,-2.2403950958978385,104.4845728299988,2.449940480204532,-10.675140019855462,-4.0249498027260415
2025-12-12 18:07:36.554997,Right,6.393350243830355,34.95177529274952,34.341393253504066,28.68029090500204,-187.33477694843896,31.739179204887478,20.637755016068695,32.595700070029125
2025-12-12 18:07:36.559979,Right,15.356910216913093,9.885280579794198,13.010308119264664,17.144080259895418,-138.33600166090764,20.35472973861033,5.465167307906086,8.80411262641428
2025-12-12 18:07:36.563997,Right,2.728564248944167,-21.039037636044668,-15.011981182266027,-7.787908167229034,165.2058568081411,-2.615185342496261,-20.550269448256586,-20.45680687139975
2025-12-12 18:07:36.568014,Right,-4.402793407411082,6.1294078554201405,7.651659219933208,6.375013922166545,159.80422893710784,12.699535357329296,-1.1818850768031552,9.429868743696716
2025-12-12 18:07:36.571020,Right,9.00812438086723,46.13371154590277,43.19543450154015,38.09606503037503,-141.68852203147253,44.12377809616737,34.70340540629695,52.48501777931233
2025-12-12 18:07:36.575028,Right,19.989731752342777,30.151158256165218,30.633834167936584,33.04720680281753,-172.63764541056298,39.508382123254705,26.695206581585808,38.50645441291272
2025-12-12 18:07:36.579038,Right,11.405668217077618,-5.952977694105357,-0.5666006810497493,5.324957897595596,128.24185690314334,13.6062258866732,-5.123611896735383,3.0416582226462197
2025-12-12 18:07:36.583048,Right,2.799428579004598,9.790407400229014,12.834828884602757,9.808368199359393,201.61579842043284,19.297326286759926,1.6035954300314188,19.020491708390182
2025-12-12 18:07:36.588061,Right,12.591261402892997,50.96411674772389,49.67191004412598,39.75345766165992,-87.09670921404904,49.05320332411793,36.16878451150842,61.03254268193268
2025-12-12 18:07:36.592072,Right,23.871774905506754,44.359502896433696,46.144768293219386,41.53891255479539,-195.9600367328385,50.7740907134139,37.4077832280891,56.02701581182191
2025-12-12 18:07:36.596087,Right,17.43868065076822,8.86560255679069,16.989666538138408,16.81573873569141,80.08140105080383,26.294175913077197,9.462553074961761,22.09027829018305
2025-12-12 18:07:36.599092,Right,8.837020874387235,19.666898631694494,27.150930028466973,18.94600584109139,224.7577837252902,26.86685432070226,12.691430926381145,33.24074572825339
2025-12-12 18:07:36.603086,Right,18.961552736276644,64.88317628006916,67.33924952225061,50.64475589620997,-34.888927222942584,54.90381549691665,47.80970904287824,77.30846730689518
2025-12-12 18:07:36.607100,Right,33.802616525572375,65.70344216396916,69.40190930530662,57.03354211563419,-216.67046797314833,58.55309705011314,52.9340790068818,76.62491303138086
2025-12-12 18:07:36.611126,Right,29.79863697201654,24.28743277947069,34.63521386499633,28.821227955122595,18.91906187935092,30.426161593873985,20.3328828154481,34.737952886207495
2025-12-12 18:07:36.615147,Right,18.144553111997084,21.803581979314913,33.72209650253353,21.660413456396782,237.55368572135922,24.039653688363614,13.0069754395372,32.81886967874016
2025-12-12 18:07:36.620162,Right,25.178430624262546,68.29632191819837,76.18543464280083,53.70237128814915,43.03918954463734,54.94499397781328,48.07063707502675,79.58973018063989
2025-12-12 18:07:36.624151,Right,44.45840617569047,84.297254560297,92.7327366838872,72.08385876193643,-186.15791410599195,70.96889911552717,64.5344152533944,94.71510724312975
2025-12-12 18:07:36.627171,Right,49.4145535777061,49.53777999240265,64.76576827540703,51.8213452634518,-9.283922380011063,49.09126456986996,37.29494761157548,58.65474189874658
2025-12-12 18:07:36.631193,Right,42.50153634016169,41.18199765594909,59.431918586284155,42.67477389573469,250.83029478316166,39.04620025896293,24.965556695955456,49.68166217881662
2025-12-12 18:07:36.635140,Right,48.49532956821349,88.73262613957922,103.02163358252437,75.14633856787987,112.50686023852904,70.5659670235109,60.48411061419756,96.98994709715771
2025-12-12 18:07:36.639240,Right,65.50909772822342,116.37476473166316,128.8116404926841,101.05321962291782,-163.11348079780873,96.3126647559402,87.98382248768758,123.5882938742725
2025-12-12 18:07:36.643212,Right,67.11125015446305,82.05664841743419,98.73823232595169,81.2973524132758,-60.59545522140252,78.04065136586723,64.97029589893646,87.50371048974921
2025-12-12 18:07:36.648175,Right,52.264946817595046,55.277511303444044,73.75705647654831,58.33387715390563,226.7664499361199,56.801090258260956,40.58442465215194,59.80134028632892
2025-12-12 18:07:36.652241,Right,49.20653279264661,88.94424718845403,102.14385744961328,78.36529061076726,160.89098389255378,77.21304445624992,64.81633719535603,94.41963708674302
2025-12-12 18:07:36.655259,Right,64.15489369333227,122.59403385058977,132.00919386309397,106.72320680278062,-133.03617097914685,105.97351388088646,96.8194760080296,130.28388226238167
2025-12-12 18:07:36.659246,Right,69.19737549245474,95.06286737422488,108.39297466444987,92.09416628218605,-100.52046355703351,94.2774044086218,80.99698572987836,104.92790520605195
2025-12-12 18:07:36.663272,Right,53.43003573980968,57.40854974392278,74.76502443806385,61.034216700762045,204.5857359503716,67.9168655008325,49.58169769453525,68.6369522763489
2025-12-12 18:07:36.667297,Right,43.95237762224133,78.18661322293337,92.47534002034809,69.27257941714197,220.06799377956122,79.17609541535785,62.913781966417446,90.13971982066869
2025-12-12 18:07:36.671297,Right,56.94070766866207,117.86584730495815,128.49887307102472,100.41073649728423,-73.34404413077209,110.5918238610484,98.90333957211624,130.70270718151005
2025-12-12 18:07:36.675310,Right,68.41402618012944,104.53665954496319,118.73941707729318,98.68071906267687,-116.29229266200673,108.66715939415644,96.00578010581376,119.08870782536178
2025-12-12 18:07:36.680323,Right,58.736140512730344,67.77245492198927,86.98845877102758,72.94410557912306,180.6817339606814,83.51886962729259,67.82924199210174,84.79446435425052
2025-12-12 18:07:36.683346,Right,48.288349343831214,80.84363000771918,97.6952445527877,77.81390653279959,266.3411821825075,88.4949254393332,75.0827085897472,100.13152707866175
2025-12-12 18:07:36.687281,Right,58.85042674488432,121.90376106982512,133.62400124057422,109.47306302188849,-21.594419073040626,119.52476155102522,109.61905188784567,142.23962320851842
2025-12-12 18:07:36.691352,Right,73.3814137719437,115.6304458804334,129.16157499796918,112.93153368190906,-150.93090912036587,123.7554260692159,109.79540449477963,136.07635632144707
2025-12-12 18:07:36.695361,Right,68.00715084717922,75.54043575548002,94.87808285266965,85.71487393160533,113.3068054096866,99.74402479387572,77.26971667071325,96.46617192893973
2025-12-12 18:07:36.699379,Right,55.25929092744536,78.17131610777051,97.4939220055985,81.7822739765088,272.5367786116112,99.48109743808891,74.30074467517989,100.30261943593723
2025-12-12 18:07:36.703411,Right,58.840992511858076,118.16752937931597,133.31441963824182,108.99488265705077,28.18127653778538,128.9956351369874,106.39371942498656,140.96551610536335
2025-12-12 18:07:36.707397,Right,69.1703803587352,118.08194678309883,134.55660993927813,114.45307014058562,-161.25653154866268,135.9316718147893,111.52346799971747,139.91090877518218
2025-12-12 18:07:36.710415,Right,63.371091943668944,75.67900588662087,98.02585963005185,86.12739931633405,59.766901681512536,108.54992910662986,77.42547847287278,95.49456395471861
2025-12-12 18:07:36.715411,Right,50.42593736678282,71.0771404111074,93.5763178646448,78.48032612772658,277.26926218901644,99.58087168691418,66.54587862874905,89.10317298341397
2025-12-12 18:07:36.719425,Right,54.9471641909804,117.63980173645177,133.92984946712386,111.40781646288815,82.22275241775424,128.3130903267447,100.12405833041339,134.4070625157692
2025-12-12 18:07:36.723454,Right,69.96596748424054,135.2745034666732,149.2105715459038,131.23581920679135,-163.10146246240038,143.58516460543615,117.85793437985194,151.00163273332873
2025-12-12 18:07:36.727450,Right,68.69630597111609,97.95863612881658,115.65089023707696,108.54896069566166,-1.1674182448005013,118.0275718796911,89.47252444829792,112.9097359244115
2025-12-12 18:07:36.731484,Right,54.47074204143428,81.42032150480372,99.37725535463687,91.91283166546782,266.02366980360966,98.83326426082203,70.67832595440996,95.88162353064399
2025-12-12 18:07:36.735472,Right,54.85589713784793,121.651722668008,133.18725202296628,117.1855003290766,141.65710303434753,120.22685165056464,99.09412616946793,135.5598505148737
2025-12-12 18:07:36.738466,Right,69.51252907603339,147.30724765938066,155.20232597305585,140.4373038323174,-137.33647136414947,140.10150538915332,123.8662613819979,160.67745078618464
2025-12-12 18:07:36.742435,Right,69.21838830336492,112.0872826795603,123.62163114137365,119.25945350810798,-43.80883301940776,118.8182323128276,100.1696254783019,125.5987068664108
2025-12-12 18:07:36.747503,Right,49.48302994745973,80.82052131908131,94.27031727177382,91.56964795805106,253.16947146327584,93.42273584828945,72.57909294227284,95.30217708392593
2025-12-12 18:07:36.751521,Right,39.778308843386185,109.18932348975795,117.06843327423849,105.55697779590264,203.48057285767572,108.83954395011824,92.01113982057723,124.74753535716445
2025-12-12 18:07:36.755520,Right,50.68600421386509,141.4640390763234,144.54723345801176,131.27400212064094,-95.9877729724758,134.38689306922606,121.25933425646508,157.64803460209805
2025-12-12 18:07:36.759533,Right,56.09707382905617,115.90945931604074,121.87368447997142,117.72083394989022,-82.21984154298843,121.10644046393281,104.99718823231524,132.4724278953363
2025-12-12 18:07:36.763485,Right,42.42976901536167,79.9231986690138,89.15720759402029,87.93302207392117,222.59430695392075,92.5446821119549,73.0651711919345,96.75136059438228
2025-12-12 18:07:36.766545,Right,33.31822988938802,100.60327154691913,105.69886666016828,95.29980589446495,254.62518657501641,100.11781278975832,84.61831143437303,117.02501325201592
2025-12-12 18:07:36.770567,Right,45.24047077725845,139.60795232170494,139.56165129345027,124.42613086127676,-36.51846305752406,127.56698441207118,118.4291042956902,154.51836703797744
2025-12-12 18:07:36.775572,Right,57.86368089039024,126.6397277667711,129.35129936361045,122.11952294617367,-96.20152332288126,123.08311843207048,114.17650822650467,139.47017067787237
2025-12-12 18:07:36.779586,Right,53.166664231568575,92.12121419109462,100.53281197314209,98.34210396077833,193.01499358414003,97.24281680531567,85.64636798002175,103.34193375488394
2025-12-12 18:07:36.783545,Right,48.06111851417518,108.79412784858141,116.37854160158895,105.98104984917154,288.7393057897425,101.82891040446702,92.73085181885108,119.29387180453341
2025-12-12 18:07:36.787616,Right,59.71530177453678,152.19796518125804,155.77456159499707,137.87645680105197,4.60733172899927,129.887247323466,125.88619319502322,162.3159624669206
2025-12-12 18:07:36.790639,Right,70.45357538932149,143.29128358344315,148.7753816167824,136.3271912633063,-136.56957993100514,126.12854378126212,121.6188212013949,152.85117821610766
2025-12-12 18:07:36.794626,Right,59.85672571307077,95.71802271359775,106.07645686392789,100.0288590607961,124.47250125206483,90.09357580647338,81.8146977731667,104.89746723404096
2025-12-12 18:07:36.798676,Right,45.012702115222055,93.13090878205549,101.52883309873869,89.36023375416698,300.8246105536382,79.73810472033801,73.73198079153372,102.45998007286107
2025-12-12 18:07:36.802663,Right,52.1613987607052,136.70867185492534,138.18929749984818,117.67507290377398,67.94158683482965,106.84434887477255,108.04776376255904,146.00118199655844
2025-12-12 18:07:36.807680,Right,70.05825629817264,145.11870405447553,145.31057030396187,128.81468710688932,-133.91596513758122,117.19957967397931,120.33757607813459,153.1113086584228
2025-12-12 18:07:36.811636,Right,70.88127867759613,106.02137395569298,110.72524928266648,101.80733900979976,73.2496611642855,91.51194391200261,90.1286170653184,111.45604784789612
2025-12-12 18:07:36.815638,Right,60.10073567305517,96.87158877826005,101.90181354177184,88.10509917125455,297.5292828075326,79.32504455142771,76.59348880535981,99.63123688224005
2025-12-12 18:07:36.818706,Right,63.61508196119394,138.18332253521658,138.11654432657815,113.88743892355706,112.0778471758822,104.47542908869218,106.46165444924554,139.2445439354924
2025-12-12 18:07:36.822710,Right,77.50488165728166,154.27145146632392,153.33324824174633,130.69469410616148,-143.78121263423236,119.63969820424973,124.17507502205262,155.05273990618298
2025-12-12 18:07:36.826735,Right,75.07762909101439,114.33205725099833,118.7730486933142,105.86118987840018,2.222308868775144,94.52830965044268,96.36969488536124,116.14251563561265
2025-12-12 18:07:36.830745,Right,57.82796190374938,89.78091042937012,95.87979762037867,83.00044063091627,271.6185178383748,72.32345160846307,74.16346986494318,93.0503873526468
2025-12-12 18:07:36.835716,Right,54.38791351763939,121.01863353791123,121.22787432586483,99.96896587889933,155.4636118649796,89.16494246685761,96.90143144836475,124.78383932003635
2025-12-12 18:07:36.839762,Right,69.10852574910678,143.5286645219894,139.6120436907222,119.12430858690641,-133.6473400824907,108.07840233262687,118.848487080817,146.3779492311296
2025-12-12 18:07:36.843800,Right,75.5086993806326,110.95438269569422,109.95603491936345,100.12022694040206,-58.96078488075,90.28771601653716,96.31286272982834,112.66285677929409
2025-12-12 18:07:36.846792,Right,65.6396879732929,82.98899176972918,83.78176259630709,76.98342647483514,236.28940728404268,68.70672007257235,70.76440551581618,84.64864352261066
2025-12-12 18:07:36.850791,Right,62.90262694755802,112.49085797255975,108.13400338115753,93.73243861006631,196.32705945440102,85.14169896941166,90.91244025380001,115.0098494925478
2025-12-12 18:07:36.854819,Right,75.56678156059934,144.05897124213516,135.45533705700655,119.5919300288806,-107.1909280687978,109.52613554545678,119.51229090604465,147.13036983433994
2025-12-12 18:07:36.858820,Right,79.81316713952401,116.0497764913307,111.0362289227196,104.59245203649334,-107.42058193392586,94.4240165630763,100.95123285637237,118.75843851774698
2025-12-12 18:07:36.862902,Right,64.87582979392027,76.125242100592,75.48388593064738,72.87284343912324,199.32814172877988,64.07944796870288,64.81617682920478,78.1040680668375
2025-12-12 18:07:36.867897,Right,54.75688356591854,93.00047205985175,89.60194128539297,78.23344009465654,247.3539342736476,70.21976304487907,71.51661664218409,94.69342911418062
2025-12-12 18:07:36.871894,Right,64.32651856351004,128.16164372276398,120.89252459615818,103.71137164330867,-41.02429414508515,95.56884436338441,100.49483006467926,130.3509038654738
2025-12-12 18:07:36.874851,Right,71.68167529015045,108.01112728382577,104.31476136753918,93.40121071817703,-111.60837091735448,85.87383265282551,89.8101125524554,111.4254308528034
2025-12-12 18:07:36.878891,Right,59.4264496939868,62.93053456229973,65.01116789638763,58.4197109064844,182.86860256707587,51.97588722211367,53.51398021558998,67.87286222478724
2025-12-12 18:07:36.882900,Right,48.29702984246251,73.3023312901787,73.64831065014005,59.023007824784145,303.34123486424505,51.36561354539299,57.171705414773896,79.183077809721
2025-12-12 18:07:36.886909,Right,59.47153011741466,121.37587143943529,115.96002230225713,94.26339286699658,27.24601053673541,82.44089740935306,96.03230591288593,126.83950154247577
2025-12-12 18:07:36.890921,Right,74.74006673891563,123.5895808780042,118.32861632038839,103.00477564566245,-139.16143407748314,87.44386844526161,102.39564882774721,127.47813972007134
2025-12-12 18:07:36.895926,Right,68.69921940781933,82.81465543669765,81.66502229115576,74.15301832681871,93.92391269825748,58.02707945118891,68.66115170830744,84.94856096876902
2025-12-12 18:07:36.899949,Right,53.86626894050278,78.35636800990324,75.5225803583453,62.60974004701711,266.37378665410506,47.67569261677272,57.96302824521263,79.33141262049321
2025-12-12 18:07:36.902932,Right,56.271448840241646,115.75413533905521,106.43788470857544,84.71933503974287,39.538830755947856,70.41241730151523,85.12961421544605,116.14900307008065
2025-12-12 18:07:36.906983,Right,68.04734053942957,118.44976081623463,107.81520577380434,90.01763164199656,-165.04438511915214,76.07800429983763,91.39087020810985,118.32197821742739
2025-12-12 18:07:36.910968,Right,64.49180563481059,74.92323359791772,68.44274780413252,60.13678821771464,41.93683884062921,47.061788496153895,58.2542474551592,74.22727314927033
2025-12-12 18:07:36.914921,Right,51.570262724446366,62.91349698402337,56.33388937191921,46.454750613789656,279.54585312033305,33.36889872809115,44.678155480054556,62.24792318296386
2025-12-12 18:07:36.919006,Right,53.4941859968676,103.15036821187823,91.08023061382119,73.40412772315904,101.66344499503612,58.523227101235534,75.96182877206593,103.58945083987783
2025-12-12 18:07:36.924033,Right,64.40672264804016,117.10271441491204,104.06550406862516,89.10240839266044,-167.7640224892384,72.97224721204839,93.11380740570894,119.51939848583424
2025-12-12 18:07:36.927019,Right,57.20001861950732,71.10440094492515,63.954503966495395,59.16455607303942,-33.587789090684964,44.9638512898091,60.64258983163745,76.11334562677075
2025-12-12 18:07:36.929974,Right,34.70899208226183,39.4289872632653,34.87079189965152,30.62773421316524,251.14180465105164,20.477281265237252,33.0258426926157,47.4022516279656
2025-12-12 18:07:36.935017,Right,27.524964626863948,68.52850365859922,58.95318843235145,46.74979096643801,159.2285285361868,39.7588417356892,55.35368995710451,78.98667488715728
2025-12-12 18:07:36.939073,Right,40.69769054095377,94.29213664142299,81.33449540210131,69.97299043048406,-131.0001016374299,64.56978707054805,82.02977096468385,105.6438369108364
2025-12-12 18:07:36.943064,Right,45.783456616307376,63.25883378923754,54.233562572917435,53.28726169577567,-77.18315827433253,49.22550707557821,62.222644710418535,73.60838795331074
2025-12-12 18:07:36.947010,Right,31.86378651414998,29.931904529919848,24.17746321397135,25.419922905944986,210.35813061163935,22.25716705530067,31.530132425032207,38.12906875880435
2025-12-12 18:07:36.952098,Right,22.47282172550331,51.23610723466845,41.899441077242955,33.56779489964538,179.6216874630336,29.339160898816772,41.808800089303986,57.16503809389542
2025-12-12 18:07:36.955092,Right,29.90095413538802,78.89007249611313,66.46092980982212,54.02380928650382,-123.30573630843719,47.322913199997856,63.66063895249681,82.93593149963999
2025-12-12 18:07:36.958098,Right,33.75977412764041,52.02063785448263,43.92868180986261,38.85198609958752,-135.99274308899476,30.525729878383572,44.49903868044203,54.566894707648316
2025-12-12 18:07:36.962121,Right,22.71766984910937,14.929346991848433,11.704170904995408,9.492773794961977,166.963329197024,0.380139464235981,11.33447042600892,16.292165820515947
2025-12-12 18:07:36.967102,Right,17.953448078187648,35.845272947583,29.63134292938048,18.391560842093895,221.67611404422496,7.1766151020274265,22.084633387756185,36.12339111106121
2025-12-12 18:07:36.971141,Right,32.501310786028625,77.08165170479333,65.49871912636445,48.91619252030796,-73.02301006038033,34.44142417017429,55.18945350268041,76.04437281034188
2025-12-12 18:07:36.975145,Right,44.01585868351685,62.164059561575414,51.966712436042144,43.31235113272851,-165.41312803234905,27.33485177687544,46.89692433763412,59.79573588777566
2025-12-12 18:07:36.979159,Right,34.112963061692426,17.36343656531244,11.370384021865902,9.228210895336815,118.82289149858116,-5.627490802304237,9.430145087681012,14.547781855450012
2025-12-12 18:07:36.983179,Right,21.814486561124795,23.519694892529515,15.433285934530431,6.2734519882069435,249.9576801344665,-7.3700620940944646,9.461399497755338,21.720106511565973
2025-12-12 18:07:36.986190,Right,28.469828519781004,66.8943858409184,53.61198621195217,36.67176299815765,-18.475281947117765,22.855722429492744,45.5293359576317,66.99140979580989
2025-12-12 18:07:36.991134,Right,38.53705140360398,65.67318408760184,53.72578000894282,42.2646752424771,-192.4527055810613,28.372966165392427,51.10006035094557,67.3232760723331
2025-12-12 18:07:36.995184,Right,28.918993579311064,21.655918166201445,15.381077921338147,12.265774107043399,38.884707093719044,-0.8855701090215007,16.85975179100933,23.713334816435236
2025-12-12 18:07:36.999211,Right,12.995587245968636,15.441436144057661,8.84846529137576,1.8952129401295679,226.64136833767407,-11.46737561323971,6.075942162089632,16.663464066121378
2025-12-12 18:07:37.003229,Right,17.27915045368718,55.826690368237905,43.502058868689346,28.841203493167995,6.932604827423347,13.554717648003134,36.27832571223553,55.30757621816883
2025-12-12 18:07:37.007250,Right,32.98760081222281,64.39901224212372,51.38348968808714,40.912900862807874,-215.85794201267709,24.15398552302213,47.78838032677595,61.971980345770135
2025-12-12 18:07:37.010260,Right,32.406562463904265,23.3093415688636,15.608076651682495,14.760868244658923,-25.852141989584197,-1.3692413233366096,16.924521267064847,19.693127624428598
2025-12-12 18:07:37.014269,Right,19.51510653254809,9.038613429802353,2.297257779777283,0.19263018514902797,223.42189039333607,-14.782728995618527,1.1612228218727978,5.175226388295414
2025-12-12 18:07:37.018275,Right,20.548556575347902,48.22614694015647,35.50171231821878,26.189149836849538,67.16669371914759,11.089341299099033,30.79139100111206,44.40673495932424
2025-12-12 18:07:37.023276,Right,33.47196231986163,66.1211828020605,50.27913621313928,44.98818529069831,-201.8732306551974,29.68091728493164,50.42527797521325,61.975635502516525
2025-12-12 18:07:37.027301,Right,32.06393123840098,25.722959872102365,13.6431343191216,20.453885410213843,-79.22069762944011,6.444279789902794,21.460780352179427,20.866563266143203
2025-12-12 18:07:37.031349,Right,16.75016240151308,-1.9799676532566082,-12.17868404139881,-3.701364014079445,209.24364300112939,-16.451589626536588,-5.250970977576799,-7.734630986393313
2025-12-12 18:07:37.035334,Right,15.590391276666196,30.921784499063506,16.201293993275613,15.658184779604198,128.93666144838062,1.9526536224366282,16.82085111673223,23.9395127089374
2025-12-12 18:07:37.038337,Right,32.11470228081453,60.421181872996385,43.30541835700569,40.92384007477085,-166.15755181941495,25.450727410068794,43.74727389788313,51.841519060821156
2025-12-12 18:07:37.042373,Right,37.50553166662576,29.78380682115676,17.93651788387797,23.489655127224978,-124.21270266413194,8.481963423881098,23.30741477308038,19.984548397449544
2025-12-12 18:07:37.046374,Right,22.559696482669096,-5.7982413778372575,-12.904073353653075,-6.647987019154243,170.99435221347085,-19.120733647461748,-8.247684625413967,-15.43772237234225
2025-12-12 18:07:37.050369,Right,13.518272511500982,16.189407740195747,6.255447274452308,1.9257174672093242,157.9345970001741,-8.642060721467715,4.7781665421352955,8.063107734269579
2025-12-12 18:07:37.055408,Right,23.15833423713775,48.70449451226159,35.34338305446727,26.2832670971693,-149.70061896624975,16.346792671647563,33.104713911307044,42.471874972907244
2025-12-12 18:07:37.059387,Right,28.02758809326042,24.282279647653922,14.791066600795602,13.490981246621232,-186.24560318047588,4.656658516192692,17.99172771553276,19.845647929410916
2025-12-12 18:07:37.063345,Right,13.225754651903117,-17.834721455612453,-21.980957714884426,-19.26639552204142,109.34332156087476,-26.375805201510957,-18.185537267228938,-20.234286631952273
2025-12-12 18:07:37.066408,Right,0.8101231862456189,-4.702462571091019,-10.560696250220644,-16.353875076994882,180.0066752481507,-23.32612330250413,-13.415577699328423,-4.909068404216669
2025-12-12 18:07:37.070408,Right,9.33332375275495,34.28422946658975,24.318087907115114,12.608163665696338,-107.9841298709216,3.4324709768843604,18.45577190516633,35.49550448503578
2025-12-12 18:07:37.074371,Right,20.024502548512828,22.614514381435583,15.096338899398688,10.848104342265287,-216.41004323588277,-0.7876221180340508,14.01020361299743,23.940350288234185
2025-12-12 18:07:37.078445,Right,12.000000150728738,-20.587975750357145,-22.67317237658426,-19.863122367816686,57.59958116980124,-32.75503499577462,-21.275411438524316,-19.754656141943997
2025-12-12 18:07:37.083442,Right,0.7446790240355767,-16.64420474007784,-19.582232408909476,-23.041403167459066,202.70143496856326,-36.86157257873856,-23.337316882440064,-15.92791122115159
2025-12-12 18:07:37.087482,Right,8.466483475822315,25.69813947280636,18.16644118012482,6.783927343516552,-50.28114558994275,-7.984400524117518,11.032102943041536,26.809006269235397
2025-12-12 18:07:37.091475,Right,22.30563932840596,27.20004205573059,20.807335998491908,14.23613872682472,-226.61790601385292,-0.05238892650959315,18.710072866808332,28.69237345775764
2025-12-12 18:07:37.094482,Right,18.70142904957902,-13.316455326712457,-14.623542055560392,-12.898506772849942,1.4989859997513122,-25.143648439152457,-11.614438965771114,-11.86515536569641
2025-12-12 18:07:37.098438,Right,7.401530462659139,-17.838957587744517,-20.23733717817231,-21.45987971284194,200.08516360494104,-32.60249808235676,-19.518216147407657,-16.952404404844856
2025-12-12 18:07:37.102502,Right,11.908809423461207,22.51484514981712,13.342575698137807,5.694210944820952,-13.236705310089746,-6.569242914974893,11.805773238331312,22.2965891920976
2025-12-12 18:07:37.106526,Right,23.27593065478868,28.522090889870015,17.67837345736916,15.384239275626896,-249.11329337430652,2.431604709046951,22.025884225557093,27.002367825756664
2025-12-12 18:07:37.110530,Right,15.442835296853445,-19.410948680102592,-25.03463014229783,-17.10328979276528,-69.51659371234564,-27.432081490223936,-13.716910686489427,-21.45896265301417
2025-12-12 18:07:37.115556,Right,-5.015223689835693,-42.246555943049316,-45.7445889042865,-39.91388420241128,194.3010322873015,-45.5657218442102,-36.208426010671246,-43.46478101109096
2025-12-12 18:07:37.119513,Right,-8.462275760131888,-6.759316516814579,-14.411580970147043,-18.556264166611072,57.96518102072878,-20.853842986402015,-10.215690600234666,-6.657150619881577
2025-12-12 18:07:37.122567,Right,4.982889347913442,14.48262206423533,5.337356322204869,1.8068902873783372,-214.865889284476,0.4638263118213217,11.022933398271562,14.9140072630762
2025-12-12 18:07:37.126524,Right,6.765489925513975,-21.08650990946626,-25.41320210001868,-18.895716072263895,-107.95307188427978,-20.72045952933331,-14.928304685163312,-21.753350569975737
2025-12-12 18:07:37.130586,Right,-7.406126013265748,-47.89019028694747,-49.87854845973925,-42.10508281002694,183.82366888734396,-45.64565518285599,-41.64269611362397,-50.25546785034385
2025-12-12 18:07:37.134596,Right,-10.652272928149614,-15.981613918185758,-22.77747487090528,-23.962663136455376,122.78831391799758,-30.535234723174653,-21.34977069285378,-19.676063058017462
2025-12-12 18:07:37.138611,Right,4.636712010003976,15.732406618211826,5.555614619945118,2.7913772976498876,-164.42832676223043,-6.2698656467146066,6.480186043161666,11.524050035739492
2025-12-12 18:07:37.143617,Right,12.832354892707372,-9.89987610312528,-15.926778104578261,-9.434501913732674,-126.58538610201504,-18.149427777563687,-10.002195649896748,-13.663610766430793
2025-12-12 18:07:37.147573,Right,2.3964105167797243,-41.81713524645602,-43.8979281194479,-34.367475789586024,175.50714845123002,-40.6515423305118,-37.99563447183027,-44.314781751490955
2025-12-12 18:07:37.150586,Right,-4.501147079841758,-17.800336482607236,-23.214035312292253,-22.490008708369714,178.0549059523364,-26.94113472254321,-22.508846886565152,-18.759270855225623
2025-12-12 18:07:37.154647,Right,4.138226852752268,17.249680361572246,8.351167536508001,4.406066797197127,-131.42141832991183,0.786383583677889,9.148099515918148,17.6513139805611
2025-12-12 18:07:37.158654,Right,6.914141984125308,-5.11331967818478,-9.420845322507375,-6.540405076699244,-186.78018576871546,-8.63349594543979,-2.306905787329015,-3.5354907929940964
2025-12-12 18:07:37.162655,Right,-8.7836354959436,-46.87395735912287,-44.83520258353019,-38.4537805025393,102.40343274112456,-38.535355091700694,-36.202192915392516,-44.40985654236647
2025-12-12 18:07:37.166672,Right,-19.459732923343836,-31.944896330569463,-31.51301646153297,-33.42658745330846,184.09873850357326,-33.291906663695045,-28.788934864052862,-29.42549201600923
2025-12-12 18:07:37.171690,Right,-7.200389631852886,12.412230235844618,7.6351874547908665,0.25154638766980497,-103.40056041300704,-1.338809712076909,8.130898450493987,13.804715396738175
2025-12-12 18:07:37.174707,Right,5.920259268328664,4.955692918960267,1.3938435379277507,1.9879474204808503,-229.3952969408092,-0.4639810829085036,8.182747699684114,4.571007148908393
2025-12-12 18:07:37.177727,Right,-3.8777209451764065,-40.225481844783644,-38.77032535485341,-30.561075164028807,36.920141562935896,-31.75996810394645,-27.30095330396216,-42.07058881719422
2025-12-12 18:07:37.182718,Right,-20.133982935425593,-41.69169021287962,-41.098958580976614,-38.79880661408242,196.29053728792496,-38.97928442967441,-33.2112601045701,-44.28265261989873
2025-12-12 18:07:37.186728,Right,-16.977223539677652,-2.291163057743688,-6.645692951224191,-11.907952023164398,-45.009006138432596,-13.195718239881444,-2.2009065758429642,-4.9713081720037735
2025-12-12 18:07:37.190763,Right,-5.098839210018923,-1.280274791028205,-4.786714991741974,-4.175757842180246,-225.5244735598444,-7.102681902608538,3.7357719497904327,-3.271031622422015
2025-12-12 18:07:37.194757,Right,-9.02795542869353,-43.9058836437398,-41.65225045641091,-31.07689436970213,6.36447861960005,-34.00936742970964,-28.56438282379895,-44.60342740548185
2025-12-12 18:07:37.199722,Right,-20.146876728798816,-51.11988784810819,-48.52709988384595,-40.12599099423278,231.22384965303354,-41.783676765968835,-38.0997722718912,-51.043705026873795
2025-12-12 18:07:37.202735,Right,-13.120330745497995,-7.62810179817825,-10.597151784773814,-10.029892035782723,38.34328831662788,-10.263507365520809,-4.044652284930635,-8.531428453390618
2025-12-12 18:07:37.205836,Right,5.575426247649375,9.128224279191272,5.201721139824258,8.31457819214711,-210.36923080931592,9.948330079650077,14.31703789306539,5.622268725662252
2025-12-12 18:07:37.210782,Right,7.778580534046341,-27.42326053969373,-25.594202871767266,-14.464000138783831,-58.20106906940964,-10.413306878499498,-13.519623609403425,-33.62649090693594
2025-12-12 18:07:37.214826,Right,-6.112629925626607,-45.37366178438015,-41.14161268370117,-32.991904973356554,195.643454123021,-27.71527940333999,-34.36901173838032,-52.91098886489726
2025-12-12 18:07:37.218875,Right,-10.087244917334829,-11.198356293812594,-11.329802749670307,-13.727899322269764,62.05356188307633,-9.623417892006728,-12.338172747065983,-18.391144638088008
2025-12-12 18:07:37.222899,Right,-1.9261019130090062,6.387543654802407,4.592082611241949,1.5763237779315205,-216.87733059536822,3.9483410975562947,4.007085527223637,0.5777197576632602
2025-12-12 18:07:37.226895,Right,-5.482007802872431,-33.35624458246025,-29.602294891013003,-24.33154949088066,-118.4112996758322,-21.948105517801196,-25.096272847654518,-37.56126441832521
2025-12-12 18:07:37.230834,Right,-22.308571504518113,-63.11084863767201,-55.54461476749066,-50.815226539391006,179.29162741560867,-47.68019491940322,-52.35329853722578,-66.01183058836068
2025-12-12 18:07:37.233864,Right,-25.480346973913583,-29.966592369448335,-26.19804956437565,-32.09980410249682,123.00364943187105,-29.933046563963217,-29.194310775397753,-32.31808638759321
2025-12-12 18:07:37.238872,Right,-9.205440510815606,6.191993191589063,6.489229793960021,-2.409595583434566,-186.4108499662275,-2.4971471056360315,3.050581681147378,3.219002828783232
2025-12-12 18:07:37.242848,Right,-1.4704345662191827,-17.770364438936667,-13.8082511687453,-14.41118278842805,-182.36870339695952,-15.54148784125573,-12.377307109556568,-22.30414323466357
2025-12-12 18:07:37.246915,Right,-14.589059389575652,-53.933956003920684,-46.107155363331,-44.38605805223051,113.94002806962362,-44.96304138981577,-44.89089492243238,-59.894468500990115
2025-12-12 18:07:37.250918,Right,-24.280965860452966,-35.701460406080514,-31.245080219253396,-38.945470978875164,141.28660595936412,-39.18781968976327,-35.536487109491645,-41.76749222011131
2025-12-12 18:07:37.254961,Right,-14.942789878786698,-2.145743047041833,-2.0385875790179853,-13.941276918378207,-148.2030685136802,-14.614721041714802,-6.195279593885061,-6.654952729240904
2025-12-12 18:07:37.258969,Right,-7.055929390491656,-22.31862694949814,-19.14450868649874,-21.54017973583359,-203.25217728146333,-22.212859827573993,-15.86068548125877,-24.252996954206537
2025-12-12 18:07:37.261960,Right,-17.227669295061787,-63.12852008523987,-54.640920768111755,-49.64138151777479,86.93913498180427,-49.79458304771833,-47.58086669083423,-62.33612638080376
2025-12-12 18:07:37.265982,Right,-26.62856642832594,-49.651217635277135,-42.73204751222693,-43.67833534496276,177.31379277822725,-44.128969310053435,-38.96209291863124,-46.724185121493065
2025-12-12 18:07:37.269981,Right,-17.34651357101484,-6.522051680120057,-4.068231434812333,-10.916596343366109,-115.73602431904919,-12.288859638400027,-0.5554008235758374,-2.748399580068508
2025-12-12 18:07:37.274940,Right,-7.83964454236866,-15.079385493871087,-10.349048444066284,-10.52099532532884,-264.5470999289687,-11.504293166450225,0.19990082437107048,-11.692341922844207
2025-12-12 18:07:37.278943,Right,-19.194139890136285,-63.30173441837542,-52.48716423922815,-44.695066411135485,-6.491704149515499,-43.78980011025851,-37.520867066246865,-60.487849880522845
2025-12-12 18:07:37.283014,Right,-34.57233217529938,-67.62091204048556,-57.28507851476388,-53.43284849961492,172.29295505959544,-51.22872037032721,-46.37343549537036,-64.95820554909369
2025-12-12 18:07:37.286024,Right,-28.894583378974858,-26.888493328533514,-22.361951329326985,-24.405200386598153,-53.173175555499256,-21.976144019667117,-15.004805877772014,-24.597037736439233
2025-12-12 18:07:37.290046,Right,-14.726488800546576,-22.353921873269428,-18.673774069389765,-14.561629194380657,-243.66121924557774,-10.828448842839862,-7.416190099840605,-21.401902341833193
2025-12-12 18:07:37.294040,Right,-18.861584476431744,-64.68359493621392,-56.685031600190996,-43.65061866816541,-23.666834260372525,-36.92355856816357,-42.242041120258364,-65.84631592581354
2025-12-12 18:07:37.298003,Right,-32.66031966781702,-74.00079715467655,-66.30031132820295,-57.739595081919106,211.04469006418276,-49.11838050532606,-57.38245947402174,-77.20929262997379
2025-12-12 18:07:37.303060,Right,-28.47721952520442,-29.757916095997643,-27.852451564514922,-29.890689992709667,30.64547078627129,-22.483861208336748,-25.59501123102018,-34.18183998643144
2025-12-12 18:07:37.307084,Right,-11.212363335924238,-9.462406075213948,-8.810868908483826,-9.477203416605334,-226.04521799683243,-4.56425298151953,-4.693937203657697,-14.035575916324888
2025-12-12 18:07:37.311100,Right,-8.9826778360366,-44.01513790991521,-37.89425853472494,-28.997932579044573,-85.31340683490998,-25.45161272402038,-29.27053089443143,-48.08902374920217
2025-12-12 18:07:37.314098,Right,-21.660272321249067,-61.66253032984969,-53.42267184625234,-44.69864669249364,178.21028623657185,-42.0009020394391,-47.93041483221896,-65.42008716989221
2025-12-12 18:07:37.318196,Right,-22.997408998126048,-24.70691484936833,-21.621353902384726,-21.461852017368074,61.619347515836125,-20.44712448210703,-22.324371294824232,-28.937292959271872
2025-12-12 18:07:37.322139,Right,-10.175430123112164,-0.9278460715140682,-1.0117582450402551,-0.338378390923026,-219.13575132971346,-0.543340815926058,0.03361708108423045,-6.251927687728312
2025-12-12 18:07:37.326117,Right,-7.540540366095229,-35.60000939088059,-31.740968122325285,-21.12747412065437,-130.60394996843934,-20.448078383051325,-24.09093402622966,-41.95670610801608
2025-12-12 18:07:37.331149,Right,-18.566381565648044,-64.05586672041682,-57.43020757238992,-45.21993242104509,177.17702523713524,-43.33619214303326,-50.093498429541796,-70.90538542845752
2025-12-12 18:07:37.335144,Right,-17.809253063445794,-30.085948698761058,-27.656171478178294,-25.048382828132162,143.4117577461766,-24.433360742714285,-26.592425923048722,-36.62007217905921
2025-12-12 18:07:37.339190,Right,0.23933126787960646,8.663260341112618,7.745976645775954,6.94710560157182,-161.93868389521776,4.866982831033965,8.1749474283788,3.557123398015392
2025-12-12 18:07:37.342202,Right,7.281935416431224,-14.625327218913299,-11.271662257044227,-3.9844759268780763,-170.9168032066882,-6.647473391094536,-5.210343321359687,-17.39952556463686
2025-12-12 18:07:37.346206,Right,-8.973542633953912,-54.196837840630906,-46.11229404059122,-35.718438103678636,123.29700925899124,-36.224782809254975,-39.44906769637964,-54.85514676102321
2025-12-12 18:07:37.350194,Right,-22.164838045096985,-38.24992628578184,-32.86681183660767,-31.51288557090811,158.02397941852723,-29.787994102371158,-32.54388112350716,-38.2356018113278
2025-12-12 18:07:37.354216,Right,-14.54910590100917,-1.9796171733323717,-0.6322263105685124,-4.656766603449796,-143.06913747286853,-1.923097960800078,-2.515149446859141,-2.8355226344865514
2025-12-12 18:07:37.359227,Right,-7.777692730662238,-19.51875707599538,-14.796962277359853,-11.20849439876838,-224.7442355758194,-7.444864635785052,-11.428105253817193,-21.548686501628254
2025-12-12 18:07:37.363233,Right,-20.874003477387305,-63.170092542299244,-52.69772441722307,-43.07407734127264,62.91406085188464,-38.07038114723764,-47.00600688980194,-65.26433557960263
2025-12-12 18:07:37.367253,Right,-34.353669927601004,-54.29033512125898,-45.459017039393075,-42.46898744526334,185.2095080787767,-37.6749194484255,-44.60774818482605,-55.17582984461478
2025-12-12 18:07:37.370270,Right,-26.801908365712734,-10.17121496573236,-7.205941881977196,-10.296044134713156,-77.21537284793521,-6.987807912217249,-8.33682699540077,-9.969301235767489
2025-12-12 18:07:37.374284,Right,-14.476448357290792,-11.205083226159331,-8.657131141408172,-4.528410372535291,-221.88726716628298,-1.0417247396617313,-3.4529536811096477,-11.562327128107427
2025-12-12 18:07:37.378276,Right,-20.696326430312183,-50.99485922812164,-45.344669321180845,-32.39558627514634,28.889810202936133,-25.69530161243165,-35.01163120858109,-53.398391067414195
2025-12-12 18:07:37.382232,Right,-33.747201161120756,-51.0657517585787,-48.09901288097171,-39.30567649751174,204.06529996177778,-28.9148425789499,-41.05647067548853,-55.394815565334284
2025-12-12 18:07:37.386307,Right,-31.271817355776875,-10.967947208861005,-14.721570437664923,-13.849538043468783,-33.63054614712746,-1.9136987334240985,-11.633072181408352,-15.879775240042363
2025-12-12 18:07:37.391313,Right,-23.080172535552265,-10.13695514043502,-14.121355552997557,-9.817132912852685,-250.91354572938872,2.4838878545087937,-8.160072055427008,-14.13454633278161
2025-12-12 18:07:37.395333,Right,-31.27984041905802,-57.23373566460941,-54.81957496553514,-43.39687343190599,-48.4388869135455,-29.80862200312913,-46.2153702946016,-59.227563967055175
2025-12-12 18:07:37.398334,Right,-46.03041329591724,-70.21572717183881,-65.49733628405374,-59.30303382672719,194.2473700273349,-44.103259875028016,-62.53940106085065,-70.11380105782882
2025-12-12 18:07:37.402355,Right,-41.73743367404677,-26.989287353353575,-26.35214788045414,-31.445245419381536,25.85038982306287,-16.15126133281592,-30.43118480094563,-26.12184694357711
2025-12-12 18:07:37.406353,Right,-25.120040090310795,-7.049762977650971,-7.2279524459227105,-11.784077368334692,-236.50871213725077,2.5608544824208366,-9.734186170171597,-7.179414731326688
2025-12-12 18:07:37.410313,Right,-24.79147105611628,-45.53223564893415,-40.093941954750335,-35.50863369272702,-101.41182045890491,-21.507160089557146,-37.24700920646865,-47.043417619490356
2025-12-12 18:07:37.414378,Right,-39.461507895241084,-69.59579318810574,-61.19394612231554,-57.13864478304458,179.65686768424166,-43.37982125756389,-59.81638393270259,-71.1782524218288
2025-12-12 18:07:37.419400,Right,-40.40562249774666,-34.46286532608792,-29.56582487699052,-35.469983539042005,84.65903283049192,-23.269442719520157,-33.894575349913794,-34.751636045584746
2025-12-12 18:07:37.422396,Right,-24.464255060069263,-5.660256281058537,-1.6381490320709418,-9.446855670277728,-202.57191746758508,0.923902285114309,-6.163684886909323,-4.527390216535423
2025-12-12 18:07:37.426400,Right,-19.75851549005165,-35.543395387678174,-24.69498958568147,-24.801016745113884,-138.10095192844528,-14.280245915120759,-25.87019434762624,-33.45478625234682
2025-12-12 18:07:37.430423,Right,-33.60574269351491,-65.89200082099705,-49.44777022778726,-49.28708433757856,162.32853754509415,-36.890358158008894,-53.33542069572286,-62.83666014021583
2025-12-12 18:07:37.434393,Right,-39.02179702284775,-37.87243748124456,-24.050647847165237,-34.15674349604524,138.54991900533605,-20.380013038837205,-35.038839954046125,-33.87901626034727
2025-12-12 18:07:37.438437,Right,-24.556614888322656,-2.636365279540769,7.880287342850352,-5.849660233208851,-165.84264106011506,8.192135910070647,-4.212185194679478,1.2099673256161623
2025-12-12 18:07:37.442420,Right,-15.023956280805578,-25.58703272639832,-10.956821420077176,-16.251652759005083,-183.16239926991148,-1.844581623281556,-18.71632712076098,-23.11509977132664
2025-12-12 18:07:37.447466,Right,-25.30881695170683,-63.71318282593711,-43.42518390154146,-45.12828718908713,119.48421801419863,-30.11824513438478,-52.47904817027302,-62.246866768065956
2025-12-12 18:07:37.450480,Right,-33.576667028268275,-45.53158637898014,-26.450715546794527,-37.70189843094704,181.1468663669457,-22.96079332278532,-43.67797874577809,-43.823277327392134
2025-12-12 18:07:37.453445,Right,-22.77550344991323,-4.005517937337572,11.552287835169409,-6.895540624143905,-103.69509293522242,7.043468476673297,-9.635402193081973,-2.227558021353616
2025-12-12 18:07:37.458502,Right,-12.117185356248228,-14.275586375399143,3.6597961145162117,-8.910622365932795,-189.9220285878746,5.4197707763378276,-13.80227886805369,-13.956328159736586
2025-12-12 18:07:37.462515,Right,-20.175749163608998,-53.183313700217695,-31.185443449568993,-37.971107540528465,95.68592746456306,-21.94100580254235,-46.810572227303055,-55.05925863557786
2025-12-12 18:07:37.466473,Right,-29.44178470812767,-43.30265876480553,-24.499926396201772,-37.02985588274896,227.49135050991208,-19.83929823802464,-43.963912963474286,-46.709857993111655
2025-12-12 18:07:37.470544,Right,-19.466466081612452,0.8784633911127457,12.763267877024191,-4.709122812888381,-37.718037055141394,12.523470094765798,-6.5045649954117835,-3.047670064108388
2025-12-12 18:07:37.475553,Right,-6.363919516741589,-1.1955044328205986,10.181050121267617,1.51432043056775,-205.96927154965852,19.54264652274651,0.19692231258522952,-4.617794033343671
2025-12-12 18:07:37.478571,Right,-13.163407093401474,-45.28322206784651,-29.71993040565576,-27.298753263123217,30.465021571462785,-6.684762067376141,-31.474756555937347,-47.00025457983429
2025-12-12 18:07:37.481578,Right,-25.852323955674365,-48.96034269037045,-34.604634263931075,-34.3201893167643,217.94671229773485,-11.29333053562732,-37.43716589864198,-48.24142200663482
2025-12-12 18:07:37.486539,Right,-18.601835790883342,-4.9807552667552955,3.4204681735282065,-3.047104269186093,-9.085114935567617,20.182021792241358,-2.4408693839868647,-2.1075555955249
2025-12-12 18:07:37.490599,Right,-2.5521980675839586,4.400836261891527,12.553691791610618,11.007229750910483,-241.883269304868,33.06063201604593,10.159602713865752,8.935129951903946
2025-12-12 18:07:37.494550,Right,-6.806770671573759,-40.29628685568605,-25.72557295511797,-17.1000951508031,-57.943649081782496,4.143328183396079,-24.054881835771084,-33.80199047052156
2025-12-12 18:07:37.498617,Right,-25.394819906388875,-59.727570262461086,-42.38954005832784,-35.32599911974103,191.82253041841068,-14.682483501279421,-44.26046329302335,-50.706294528710714
2025-12-12 18:07:37.502624,Right,-27.82643485278095,-22.331026318352087,-8.639548152488715,-10.641571460608247,39.33480840541779,8.923645255759766,-15.879694287927123,-11.29850076224102
2025-12-12 18:07:37.506641,Right,-13.37395289525739,-0.14748152239917545,12.66884432061488,11.564835943096114,-228.6455714422118,30.58369061553458,7.559103863859491,11.315729263107642
2025-12-12 18:07:37.509658,Right,-9.79728736270772,-31.951779987750342,-13.880744045360188,-5.981604538417741,-111.51066459052527,13.979677607172562,-14.111838210803398,-21.293303128753905
2025-12-12 18:07:37.513649,Right,-21.72720299881621,-51.97628782433458,-31.34213838999858,-23.52144793858679,167.22769645757398,-2.889373313888427,-34.06893924331962,-42.15040076961304
2025-12-12 18:07:37.518679,Right,-24.88034208141471,-16.545028716391244,-0.11455204920639517,-1.0751769963208062,81.22290759382304,17.484077326420447,-9.078034546684648,-6.784271552794962
2025-12-12 18:07:37.522686,Right,-13.91973835130193,11.43963891853491,25.626303966950218,24.919716199394315,-209.07674695427522,39.5538854311817,17.608403692011052,21.693849887080432
2025-12-12 18:07:37.526702,Right,-12.333980929084646,-19.84745351986203,-0.7924414152366808,9.718566301038663,-153.90720948362468,21.683967805129214,-2.797851810719294,-9.40517277548497
2025-12-12 18:07:37.530710,Right,-26.2468011814708,-52.088537610237836,-29.596730088051117,-14.869558452035562,155.73085168736725,-3.8565855989763804,-31.9714761713185,-42.35129666528519
2025-12-12 18:07:37.534707,Right,-30.450976817912306,-23.63788020352513,-5.899419471963483,0.9669816417481343,153.70220879366025,10.624164328997722,-14.785963376150903,-15.350264913511637
2025-12-12 18:07:37.537730,Right,-14.621158167043177,16.02881028131378,28.355847258520953,31.749596312813082,-146.89325219533748,39.53331407637597,18.192038804929325,22.655923609047022
2025-12-12 18:07:37.541748,Right,-3.958012467737717,-2.1327610842417926,12.16608745927806,23.17316990170366,-180.45255610735148,30.62234506925597,7.4232277396004065,3.0387197535383166
2025-12-12 18:07:37.545757,Right,-14.25067342557304,-39.139142053973046,-21.501772221552528,-7.390436439178302,114.06452661408548,1.1358314468889148,-25.151483888792427,-35.12982155526697
2025-12-12 18:07:37.550754,Right,-23.310997517448413,-21.21210632549628,-7.339272458113555,-2.840787599929172,180.87335719377916,5.540902249766077,-17.188785450849537,-18.109437628270825
2025-12-12 18:07:37.554768,Right,-12.380038230268838,22.598311160276353,30.705870032186795,28.26875190004648,-112.14122521779609,34.4881364239518,17.958845233457396,25.307777861627983
2025-12-12 18:07:37.558786,Right,-1.4474812064363505,14.13918439821282,23.646117509586475,28.134636640621466,-225.71481465552642,32.323777764158876,16.12378896057271,17.61005720594403
2025-12-12 18:07:37.562793,Right,-12.474900158282253,-29.243044569499034,-15.179969840191916,-3.1138000776008994,43.68658395418606,0.3790849721426639,-18.284967914216395,-23.419557468194398
2025-12-12 18:07:37.565798,Right,-28.813735898500454,-28.58246239021537,-16.600946579976153,-9.193092626472207,186.27777372009768,-6.5937188441130274,-21.474657702849072,-19.437619881045975
2025-12-12 18:07:37.569879,Right,-25.913151759294124,9.286298068291217,15.239279499863187,16.41799624359919,-63.945892764180826,17.00404839395196,10.004018075916974,20.99765732835658
2025-12-12 18:07:37.573890,Right,-15.068313822946948,7.41495620693604,13.609031138737919,19.89553393323149,-230.4296532599492,19.123354498588014,14.280420948110987,19.52282262502922
2025-12-12 18:07:37.578874,Right,-19.688946995869628,-33.528725243217195,-21.998791015579627,-9.36311266499979,12.064850496264626,-9.533925728102986,-17.561723684244498,-22.890120808555366
2025-12-12 18:07:37.582816,Right,-30.545023280312307,-34.44654119220286,-22.720003288650332,-16.83028153505802,223.68091013994217,-16.23884213940437,-23.07833316948745,-25.700904222256213
2025-12-12 18:07:37.586872,Right,-24.099504730751505,13.243243292603438,19.877793999869027,15.046127510639053,16.277901124771233,14.584710589560927,14.412365610653069,20.63597295712316
2025-12-12 18:07:37.589904,Right,-8.735201454641356,28.030515678208758,34.431974786413775,31.623595839508198,-223.09848900215457,29.41915863365284,31.9864259879796,34.72484718883425
2025-12-12 18:07:37.593895,Right,-10.891770441652625,-12.935006432424416,-0.5564078323732247,5.3040683850958885,-53.77997372398295,2.4806781432198477,1.5005992783990223,-6.356977599054517
2025-12-12 18:07:37.597895,Right,-26.012074616770406,-32.84577671931402,-18.383479124364385,-14.530861271454341,199.41054544724193,-17.82004558395056,-19.559174794176215,-25.823351638231543
2025-12-12 18:07:37.601910,Right,-26.20563243075594,2.0158218440374185,11.838960198016139,6.512190036253742,58.78908615691307,1.4036792701645027,5.187961762938357,9.84669868705896
2025-12-12 18:07:37.606942,Right,-11.27822177359485,21.790470295927662,29.720709790897672,25.43101525606471,-209.71474447020682,18.839596541700303,25.678100770150195,30.461836280152056
2025-12-12 18:07:37.610945,Right,-8.49653591979586,-13.99431535632175,-1.456046581861301,4.12909004037283,-93.90288578287345,-1.096530872338917,1.5590161825384712,-4.642228735330718
2025-12-12 18:07:37.614960,Right,-20.99688119604616,-39.25239683323525,-24.725446368167468,-18.051938817570772,203.32171320809948,-20.364277997761747,-21.066617995555134,-29.53519439887168
2025-12-12 18:07:37.617954,Right,-21.11097974171207,-4.355470926988346,4.7620641183930275,2.619890504360228,137.3942798089165,1.4047912977948727,3.9872728133450437,4.917510519248026
2025-12-12 18:07:37.621977,Right,-2.369111075939145,30.04098957892711,35.21954485891183,31.528093153146983,-164.43367483891598,29.374108357769728,34.73226794409129,37.537434183686855
2025-12-12 18:07:37.625970,Right,6.797287144534494,4.643112301819201,13.634989520804083,18.710754756526512,-142.09232738530045,15.94406167366833,17.27969359662893,9.307349968123162
2025-12-12 18:07:37.629991,Right,-5.692259215727972,-28.9040348991839,-16.289213700620166,-9.105289558501681,151.903540682659,-11.878387832244698,-14.413394832405174,-27.225475019480655
2025-12-12 18:07:37.634043,Right,-14.541678679124743,-5.631502969710709,2.842830307494296,0.25551301123232406,154.66135979461865,-3.6498068084583792,-2.4179771487215476,-6.690536144742509
2025-12-12 18:07:37.639010,Right,-4.465567975224985,31.060977743993135,34.07037215855598,26.418769398498625,-149.1972875541509,20.61039132179394,26.952357759488223,27.21149370324565
2025-12-12 18:07:37.643012,Right,3.596082395830308,12.425436875069863,16.640001556534116,16.425599878577486,-196.254464107557,10.276717068087237,14.114039125466661,5.870815504833445
2025-12-12 18:07:37.646022,Right,-5.309062553664262,-24.4738076105059,-17.78883407743342,-13.115229108094354,99.25824806277592,-18.074555069531925,-19.54150909076452,-32.533558818653546
2025-12-12 18:07:37.650052,Right,-11.138810808344715,-5.31404338172797,-3.2212657199379464,-5.452218357941092,180.37545492781464,-10.47332419311715,-9.941208426229423,-12.955198684689094
2025-12-12 18:07:37.654008,Right,2.4418946181976935,40.90542751801331,36.187403696636466,29.273150777944466,-113.11686447957436,22.14371567117996,29.556281445338755,34.76127238416666
2025-12-12 18:07:37.658034,Right,15.111541662517993,32.96819804331244,28.65777250213796,30.002913470676503,-242.828753166581,21.333169717134297,30.812652676737343,28.164989393735596
2025-12-12 18:07:37.662071,Right,5.568623479141024,-13.860470268957215,-13.899603172569186,-4.637079565827662,27.16691591411154,-12.773832945791582,-5.271013661049437,-17.570127922874235
2025-12-12 18:07:37.667039,Right,-9.063469393408013,-16.914548011745865,-18.719503223412175,-14.892529444288812,194.0920949209317,-22.27142395318515,-12.40064056229312,-19.21780381359349
2025-12-12 18:07:37.670110,Right,-3.7100880227862945,21.994374368843637,14.27987064462286,10.789755336161761,-43.46948898061055,3.0858819315781147,18.445619654818074,21.43340299574811
2025-12-12 18:07:37.674057,Right,9.452983301769564,23.455185575494397,15.66410330540748,17.717477984984725,-226.18720948984173,10.242988584444902,25.041008175583556,24.50509856455028
2025-12-12 18:07:37.678124,Right,5.138410447503702,-18.221986259324694,-21.030599149511545,-9.955215348942147,2.219171803727477,-15.761942076636842,-6.847096704599608,-16.028478647487646
2025-12-12 18:07:37.682148,Right,-6.6005104005744215,-22.90993792390691,-25.977860595266975,-18.47670197793923,225.4875949850184,-23.560880358721988,-15.300595659016835,-20.41252471864027
2025-12-12 18:07:37.686162,Right,0.9804738735147112,24.69551446979858,15.329562679362425,13.788493987116453,32.63726136846253,6.650040087914022,21.012082008908692,26.010472144334926
2025-12-12 18:07:37.690194,Right,20.200752530374302,44.20822030349336,32.53763996706766,33.59455244706987,-212.16648045238708,23.58693636528733,40.512400300318404,42.84459141408479
2025-12-12 18:07:37.695126,Right,21.319711908472527,7.4472317294112145,-0.5061018267188047,10.324613552278606,-49.41197870574433,-0.7351400699863007,11.591600301502694,3.2941439899095712
2025-12-12 18:07:37.698134,Right,6.120076032590077,-10.727944650870995,-18.61386625272644,-8.175598348747371,216.71006844264593,-18.965360960206453,-9.50313895740328,-16.200057354039018
2025-12-12 18:07:37.701198,Right,4.0065780595014076,27.13838216761178,12.744803078789118,14.58577381262694,86.8191616083659,3.602042016278574,16.509956422472897,21.865776794442354
2025-12-12 18:07:37.706232,Right,18.46780345472689,51.92801111744302,34.178571701802866,36.08624079951369,-200.33876901200347,24.871339168157647,39.793718541010094,47.0192561762542
2025-12-12 18:07:37.710219,Right,22.94868854269498,18.40569030946972,4.818659365097119,15.107022763930217,-114.50666453897611,4.941590305823411,15.402521131009053,12.74722815563473
2025-12-12 18:07:37.714227,Right,11.930807189267398,-9.688732436429746,-20.930806937361922,-10.679262368958007,175.45267450392748,-19.634410053289685,-13.108092143398608,-17.482932347535098
2025-12-12 18:07:37.718316,Right,10.163273242665127,20.257458339840923,3.5957070396107156,4.493188342874419,120.08880668937309,-5.215735194291483,3.3422965334702894,9.432346809604496
2025-12-12 18:07:37.723277,Right,23.702475675482674,49.987664465815214,28.418750010907388,28.123870316487228,-178.94770163536668,16.497266498976387,26.589136790487828,35.950383221721495
2025-12-12 18:07:37.726206,Right,27.17020950247752,19.516642567794406,0.6292608829462552,10.497676066423082,-156.1589989343247,-1.4491832179901394,4.112877182562443,3.0798904366420174
2025-12-12 18:07:37.729219,Right,12.123878227271234,-18.999732384459094,-34.56725287374866,-21.07845356337748,159.62045447550554,-31.46287223138097,-29.590781969915042,-35.91813205674589
2025-12-12 18:07:37.734279,Right,4.983559769558269,3.0592206745573094,-16.120220449520275,-12.020242071510438,195.68785965545794,-21.168969520249448,-15.075256838802488,-12.30957233420304
2025-12-12 18:07:37.738311,Right,19.546913989090626,43.80063298774894,20.07896353083561,18.607590107176293,-98.95534015264457,9.899346252535906,21.668525520845833,30.84452369497012
2025-12-12 18:07:37.742304,Right,31.199324043447632,28.846504573082484,7.706863175026228,13.757116777484043,-163.55290838974906,6.539577337240189,16.28905050530193,18.0497145786876
2025-12-12 18:07:37.746266,Right,20.864498948565824,-11.700184257359297,-28.43823657383473,-16.485032327382214,124.243961495431,-21.00130768053168,-16.91044219524065,-20.938379032291778
2025-12-12 18:07:37.750344,Right,8.75252855617714,-1.387421776921201,-20.951541124621144,-15.330937486349285,222.1927057539615,-18.189528401373536,-14.161545265945279,-9.897732000208634
2025-12-12 18:07:37.754329,Right,16.36255440087416,39.33686355450291,13.641095378825412,14.028322812253464,-58.67108959872348,11.24694954680308,18.474472289743062,30.513002452073124
2025-12-12 18:07:37.757303,Right,27.322803998247878,32.26950941118048,6.69615292434537,14.892801569651056,-197.62449192737768,12.810268539615208,18.02943779535326,22.681279701034327
2025-12-12 18:07:37.761360,Right,19.259811905095177,-10.985402707189223,-32.60791535493627,-15.835290803228418,63.19151579402023,-15.899792053669444,-15.726623616894358,-20.588214927267018
2025-12-12 18:07:37.766366,Right,5.977554417821949,-10.279956693807208,-33.54662080872731,-21.316250057991056,236.48981627841204,-20.35716302203764,-19.285389084402595,-18.883886814503057
2025-12-12 18:07:37.770325,Right,10.660257273233697,32.235131347157676,3.413186949092051,8.342174184776013,1.6724963159467734,8.142463591033447,14.503959366912568,24.504194246313546
2025-12-12 18:07:37.774415,Right,21.63114761988686,35.20847197275907,6.813447743450524,16.97575233039788,-194.5367251962889,15.533597839246795,21.586013854161138,27.39422783412374
2025-12-12 18:07:37.778348,Right,14.9899677793087,-9.149087934945328,-31.758215208810725,-12.144580690601288,25.770250144014426,-13.252522611295717,-13.245910076665496,-17.539875303489225
2025-12-12 18:07:37.782434,Right,1.3021198779765655,-18.778956560088773,-40.84404901877133,-23.957066900196878,261.665313289388,-24.65561572916522,-26.223217838713026,-27.682430579200627
2025-12-12 18:07:37.785428,Right,7.365594445803254,25.950992033629973,-2.0888647544670675,5.994543000128033,79.01184520654715,4.242561097649741,7.605469916223228,16.54847477776707
2025-12-12 18:07:37.789455,Right,26.20542345306376,45.35768245599593,15.2317899456757,25.377583419163784,-180.43913332718876,22.494857601694093,27.81827778238403,35.555418529455665
2025-12-12 18:07:37.794450,Right,28.585344333381272,7.93731297800241,-17.361372201427002,1.5549243117129663,-37.9706347820611,-0.9367446509877482,0.13798362667057518,-1.787756352615233
2025-12-12 18:07:37.798476,Right,15.163555694497063,-12.77612317506464,-35.88378580017525,-18.874028931579232,230.2818974119582,-20.835212715735906,-21.57382132190787,-22.116609587736775
2025-12-12 18:07:37.802486,Right,13.578593381835617,23.380059096583864,-4.280955855330831,2.4476384572753886,114.04287775344346,-0.7428195351803879,3.063918201555225,13.863157133156164
2025-12-12 18:07:37.806505,Right,26.97383948947345,48.8325435166671,18.68813847693673,24.774310669286933,-174.81040123989078,19.91613898574178,26.344812620569428,38.25316620555054
2025-12-12 18:07:37.809510,Right,29.4004680886228,15.913592369904109,-9.681712260204222,5.514414749812204,-99.60711865016128,1.0015708709415776,3.285503905209225,4.397206165341004
2025-12-12 18:07:37.813521,Right,15.291966862981553,-13.249930444581878,-35.548547604234045,-19.62114569782716,194.64216861908426,-22.66481753741209,-23.31410537523334,-24.482719290034993
2025-12-12 18:07:37.817513,Right,9.733538651570598,16.733337353375646,-9.372233151989349,-3.815591780932664,150.73255641606374,-7.101220309317796,-3.2580783893322405,6.688946013286568
2025-12-12 18:07:37.821480,Right,20.696152935784085,49.95791508949878,20.776766967108415,22.419358590226693,-157.3139242138168,17.4224367078441,26.144144016724567,40.929407157419064
2025-12-12 18:07:37.826555,Right,23.508150463147103,23.080668518668062,-1.5290457930350385,7.721859309973297,-159.24399692501174,2.5296374801873753,9.13508661795754,14.722451756648752
2025-12-12 18:07:37.830567,Right,7.31355962788075,-16.343449648467868,-35.96175304397184,-24.114528205283023,148.17208712809952,-27.189387769885798,-24.076934615395885,-23.648060503218403
2025-12-12 18:07:37.834567,Right,-3.350997931944221,1.736606465152363,-20.661898412046867,-17.995719072480824,196.06231353275507,-18.789454733907405,-12.736060756365987,-3.890239182865116
2025-12-12 18:07:37.837588,Right,6.778200846549225,39.71250962108206,12.75085285669229,10.56329176964482,-95.06811366022157,11.165794273058054,21.915762311532376,35.780670951842694
2025-12-12 18:07:37.841628,Right,15.177700933740198,22.946366340815985,-1.3613987796834408,5.168556245029322,-170.8381826933546,7.3182605607908044,16.189491913795223,20.307797913394097
2025-12-12 18:07:37.845596,Right,2.8868941594128046,-20.595453874654595,-39.615569076820975,-25.716618232328074,117.09092964108277,-22.186664305687373,-17.868331787693535,-22.030038248371056
2025-12-12 18:07:37.849571,Right,-10.225645616593283,-11.853760964329012,-32.21439916662712,-24.13928909070819,231.9071558999749,-21.569970059115803,-15.343547079372541,-12.030362506739948
2025-12-12 18:07:37.854628,Right,-1.9275302571750217,32.40037695529645,7.7178359488516435,9.13832298411944,-45.35395129096287,8.506913744033227,20.288116171518936,32.824184505027006
2025-12-12 18:07:37.858631,Right,11.596071010442756,30.853709386376067,8.75487977330522,15.271367446826844,-206.1096852395567,12.622359314798814,23.60731480978052,30.67603002198757
2025-12-12 18:07:37.862607,Right,5.973171826457474,-11.66088486165063,-26.557275658920844,-14.359030731768144,36.95190853969689,-15.832882943795994,-11.04865923094394,-13.007354921178376
2025-12-12 18:07:37.865656,Right,-6.989817393716294,-15.197797066639396,-28.57682914194993,-23.915421815849186,217.2542967004665,-23.146722788118495,-19.96480388229213,-17.245665976343844
2025-12-12 18:07:37.869667,Right,-2.663429052473475,25.058710110646643,7.9548112109841895,2.069852554195677,-8.509151698126516,3.6745810328920925,11.006088709092182,23.041049931939597
2025-12-12 18:07:37.873616,Right,10.365330411115792,31.25658504219973,14.864271424266917,11.35502901628388,-217.48144402854814,13.13295212797857,21.868693716868165,29.580760901688336
2025-12-12 18:07:37.877673,Right,7.360623209027835,-9.500795601477876,-20.390995416053556,-16.343934216151865,-14.537247313415719,-13.608756960682513,-7.67524584986495,-11.00574220555427
2025-12-12 18:07:37.882691,Right,-5.7102242791143,-20.547746163127158,-30.888317072785867,-30.865221354161804,225.3068209855628,-27.525639545474405,-20.68232252565508,-22.55941072465248
2025-12-12 18:07:37.886716,Right,-3.7013947900350104,19.915932970223366,3.785665003419126,-6.216949195676534,57.582077615410526,-4.159852353881433,8.608047523269306,16.280434611747296
2025-12-12 18:07:37.889739,Right,9.974356707390143,36.95747749481052,18.711094937139933,10.093603252427783,-198.6442711382806,10.263129774006302,25.069266548837277,31.04698250657566
2025-12-12 18:07:37.893751,Right,9.416186042400113,-1.1713209960162203,-14.75963128933472,-13.934469024275131,-56.02266626729397,-14.206269713278743,-4.0497689416201865,-8.44844505605397
2025-12-12 18:07:37.897749,Right,-4.728306557157339,-22.95924337908218,-34.43709748021138,-34.17485984798623,228.18645997259955,-33.98957391232943,-26.067105472038747,-29.562420204534646
2025-12-12 18:07:37.901708,Right,-5.623447100372687,13.08425498881661,-2.8974255975790584,-12.712925127595554,128.86053179838927,-12.71395952939747,0.11086317169065296,8.552488601479126
2025-12-12 18:07:37.905789,Right,8.936834777246986,39.36862211669904,21.238341497579313,9.532572123366663,-167.69509888489483,9.348534438105162,26.05469674932374,36.72128116612657
2025-12-12 18:07:37.909791,Right,10.595596456711064,3.4154565851495136,-9.308885464827654,-12.844475509844415,-109.54517046752517,-11.926199303204157,1.8955212463215503,1.7422475047660555
2025-12-12 18:07:37.914762,Right,-7.254437837261321,-34.00270185831323,-42.30343638003433,-44.51933380965511,194.55662689660312,-42.5877636452542,-31.061683895868555,-35.109362331819284
2025-12-12 18:07:37.917913,Right,-15.796270481087959,-9.893659574809135,-21.427303548462987,-32.414347702944724,182.51094641172313,-31.842456361867335,-15.489128115807489,-10.166492540180116
2025-12-12 18:07:37.921851,Right,-2.050611498397302,26.562352475333682,11.413278916138552,-1.1960175922904455,-111.80302650279555,-3.374158589673243,18.087823289314656,27.513950279044366
2025-12-12 18:07:37.925866,Right,8.931346099223447,7.829807428823187,-3.8711549544987065,-5.299755475971324,-129.06864681770094,-8.47350002146868,10.427359956986948,10.21458533627083
2025-12-12 18:07:37.929885,Right,0.47155388423834665,-26.88423693000186,-34.124983131588124,-28.696901074833477,162.50673593370084,-30.618276680743293,-16.767299599482612,-22.989358460787116
2025-12-12 18:07:37.933880,Right,-7.1385268978401655,-8.009440917212487,-17.46972812684362,-18.525652470306795,206.8081476264233,-19.396705809720515,-4.847732770606854,-2.7911081621332414
2025-12-12 18:07:37.937874,Right,3.2151155192586884,32.219123708915504,19.350809334099267,13.39344133214172,-94.72781618450608,12.227462278759958,29.361336374957318,38.11659956135918
2025-12-12 18:07:37.942896,Right,13.199645282605161,20.17858821738446,11.139701351085932,12.40991529996495,-192.08364285713105,10.943228598835958,24.63839626620029,26.03853085154151
2025-12-12 18:07:37.945886,Right,4.299147745395203,-20.479030613802024,-23.23519993846071,-15.976231023592618,88.04506951998701,-17.07641399816748,-9.23076615491027,-14.953195159210736
2025-12-12 18:07:37.949893,Right,-6.839260598198052,-13.098013657763659,-16.646898718373905,-16.504533565811357,217.61235780525385,-17.64638334735446,-9.487587785435608,-8.123094512526222
2025-12-12 18:07:37.953859,Right,0.007989938801983953,27.22331554541779,19.113106797173714,11.227790621337476,-47.0444892509513,9.500375843362235,21.30364300857309,31.06587966522602
2025-12-12 18:07:37.957939,Right,10.1362728225522,21.13297452610459,14.75011481740572,11.598183768561853,-210.3384946398328,10.269279781868136,19.689929779746308,23.58821422283654
2025-12-12 18:07:37.961933,Right,2.4156741493097798,-24.526950262399623,-24.649392248497747,-20.520176661916935,35.05095038615764,-20.378735001620953,-17.809149039148906,-22.460918624692567
2025-12-12 18:07:37.965942,Right,-8.777196394104976,-25.897644658454738,-25.43173155434033,-26.160542153218444,231.25805280971326,-25.657431579029435,-24.420351521369412,-22.667772846614753
2025-12-12 18:07:37.970955,Right,0.7663152567729412,22.70130735046405,18.376026802600563,9.096781854647702,8.990842825354775,8.25338465477762,13.961046315804197,27.486711623898373
2025-12-12 18:07:37.973910,Right,18.201265723345387,36.04353356028878,31.68296405874935,25.555225407420494,-221.793463417991,24.296001952722463,30.575704744584073,41.34357142105
2025-12-12 18:07:37.977019,Right,14.38735879595879,-6.601360567014126,-5.216327876676587,-3.580307070666777,-34.93298225586477,-2.5743993622311336,-1.3126477883542975,-1.800688668521616
2025-12-12 18:07:37.981977,Right,-4.0288509038646225,-25.33575335293972,-22.39861229207054,-24.901890568770796,219.8923837498187,-21.032912393437527,-21.289804846644074,-21.06585848665236
2025-12-12 18:07:37.985994,Right,-6.578654491059751,11.718063050453566,9.77203771537188,-3.31327195477661,73.3965180892119,1.3641841461067088,5.713037546216583,15.882777443772284
2025-12-12 18:07:37.990008,Right,7.333098839952072,32.26724607922006,28.772951272502723,16.781554363330542,-188.50004555260603,20.604750552587177,27.081904850441788,36.53075373489628
2025-12-12 18:07:37.994060,Right,10.376741671884702,-2.554392651327362,-0.6809445664866871,-2.4223341263018483,-64.73390024414039,0.49791086694342823,3.1607616958026483,1.8696604483975534
2025-12-12 18:07:37.998040,Right,-1.2686614393087439,-26.21994144956807,-21.239849944305206,-22.309483355846623,221.00612497512338,-20.53234901429505,-19.35268322417869,-21.514197136866642
2025-12-12 18:07:38.002034,Right,-2.1989227178264628,7.164391896760208,8.299766450256357,-2.533416834203308,138.94586523378166,-2.7649692277082067,3.6788795628363005,12.130460432934342
2025-12-12 18:07:38.005052,Right,13.24015841560049,36.43158098297681,35.232887604709504,22.10859191615964,-155.1981012647666,20.530889454126736,30.785260333967017,41.48447423145444
2025-12-12 18:07:38.010064,Right,19.50830025833875,8.022975392348599,11.576448473841083,6.875034242140828,-111.67602728548445,6.544645133526501,12.950881405397013,13.354605397484193
2025-12-12 18:07:38.014065,Right,7.512392812523103,-23.357618049498342,-15.818334626708747,-18.235637163365936,183.65446644180338,-15.87818984755586,-13.943293791733595,-17.112465810088906
2025-12-12 18:07:38.018103,Right,1.286305817396169,2.2161324428143416,6.51547944379854,-4.52124405412178,169.34194680979454,-1.0133848133204992,3.237170385396894,9.67314820332831
2025-12-12 18:07:38.022091,Right,11.917639320224225,35.75146150108958,36.93687061557466,22.798589364134386,-138.26254261119539,25.569897846298318,33.440799764201074,44.0280018560552
2025-12-12 18:07:38.026115,Right,16.412907432017164,10.075484609575142,15.937807739685013,10.769290842034025,-170.09075431941164,13.178979487183824,18.27741098803017,18.73586113822057
2025-12-12 18:07:38.030069,Right,2.1064267722304066,-32.872781764022875,-21.050710773770334,-21.14012433670723,134.56830902239562,-18.273929125157338,-17.771666873528375,-23.98377522701412
2025-12-12 18:07:38.033126,Right,-7.385103107523719,-17.51497614481559,-7.501029898921843,-15.171331489767908,213.5920037335236,-13.069441180817648,-10.792834033385589,-8.82687991964849
