timestamp,label,FC3,C3,CP3,Cz,FCz,FC4,C4,CP4
2025-12-12 20:55:13.789748,Right,2064.8711713888824,2439.639826069231,2429.4742226081744,2073.0737505654483,1116.9327407015994,1842.0951530450036,2197.696431163124,2621.756756422778
2025-12-12 20:55:13.801794,Right,11122.25520338377,13141.157286776302,13087.550023216776,11165.313309782927,6014.520431710272,9923.256816606085,11837.749221318172,14122.480281417393
2025-12-12 20:55:13.806879,Right,25490.759336702686,30118.784553748235,30000.624203435233,25585.92615329304,13783.385013888463,22746.438495380746,27130.623249744753,32369.094795998462
2025-12-12 20:55:13.810872,Right,31891.119928554654,37683.736339247844,37548.262633861,32004.691594619148,17266.917181221263,28466.347889820365,33942.61827586016,40501.780820149186
2025-12-12 20:55:13.814873,Right,21630.94576752682,25565.189286217836,25498.00765517528,21704.203055678096,11815.819122764115,19323.780138584785,23022.01530816222,27481.48791576024
2025-12-12 20:55:13.818908,Right,2535.866354109705,3006.915909751813,3045.4592077061825,2544.0073316080234,1653.33553288244,2294.2152700840525,2698.087630630209,3241.136363932601
2025-12-12 20:55:13.822865,Right,-11842.942336263979,-13982.588622098207,-13873.405582571519,-11884.491119646118,-6016.850365797014,-10533.628394833591,-12606.370133279881,-15015.222554819775
2025-12-12 20:55:13.827871,Right,-15461.516382741975,-18262.446293061308,-18145.2531359797,-15523.58941494138,-8024.64739146817,-13765.13872371224,-16459.304987012118,-19614.35084971052
2025-12-12 20:55:13.831881,Right,-11043.342497356876,-13047.451427634864,-12964.562899028359,-11096.643125710776,-5757.868887298246,-9828.517780861817,-11759.225863143336,-14012.756581001391
2025-12-12 20:55:13.835880,Right,-4744.840277761221,-5608.127462580451,-5565.942451782525,-4770.847097612743,-2394.123513293598,-4214.653825471585,-5057.11041458504,-6022.591542751412
2025-12-12 20:55:13.839915,Right,-1327.3281632592552,-1570.083152240375,-1550.746458417736,-1333.2931964998133,-512.4949925901601,-1168.8338458562503,-1419.9543125014752,-1685.7028140311595
2025-12-12 20:55:13.843936,Right,-2048.4616660749307,-2421.8584882910363,-2403.8974898394663,-2060.0429235624615,-908.1825740033528,-1812.9636227972806,-2187.801152060274,-2600.8017813448096
2025-12-12 20:55:13.847997,Right,-4902.687731831102,-5795.007049656822,-5769.078294749954,-4932.5083576497855,-2506.1805083204526,-4361.105708822492,-5227.448593433481,-6225.764003688586
2025-12-12 20:55:13.852946,Right,-6733.039624487865,-7958.362049303949,-7930.845994140138,-6767.88320528355,-3507.7269651063834,-5998.281293070875,-7177.838269947679,-8552.711949569639
2025-12-12 20:55:13.856973,Right,-6005.2597639346495,-7098.49366894085,-7082.309846730088,-6029.811865080381,-3083.9125569334137,-5352.271473406116,-6404.099460086552,-7630.787897268776
2025-12-12 20:55:13.860989,Right,-3944.357764272834,-4663.606045444263,-4664.6029999976745,-3961.8489653298166,-1992.9031398192164,-3512.704091298161,-4209.86360442976,-5014.768595820409
2025-12-12 20:55:13.865949,Right,-2859.7748397253454,-3382.7237834220286,-3394.7150397464866,-2879.7778874522774,-1480.8845072359545,-2542.2253283200553,-3054.2789529886795,-3638.994184479001
2025-12-12 20:55:13.869010,Right,-3501.885536116897,-4141.707908519893,-4154.883464410435,-3522.889130342286,-1841.3101575672626,-3114.7064067033352,-3736.3339188406244,-4456.270384832867
2025-12-12 20:55:13.874018,Right,-4483.340185538051,-5301.466667961213,-5313.696257502073,-4500.38547271525,-2311.079336999217,-3992.6256205951795,-4779.0815520245815,-5702.826641599182
2025-12-12 20:55:13.878030,Right,-4278.155069878208,-5060.280888356268,-5077.453540172661,-4295.866090286756,-2190.0100428150618,-3811.7910600206815,-4559.042931902106,-5441.203483696561
2025-12-12 20:55:13.882061,Right,-3132.676796889282,-3709.130203075707,-3735.0824570106342,-3156.7031352227787,-1653.4536083868006,-2791.696523293387,-3339.615132506937,-3986.937675257912
2025-12-12 20:55:13.886078,Right,-2510.2415731754154,-2974.848495271872,-3005.0787762959953,-2534.7549331842456,-1371.4406059880275,-2239.605334253749,-2677.876015875605,-3198.4894261765294
2025-12-12 20:55:13.890032,Right,-3017.32677452825,-3573.102382229641,-3600.5639323124196,-3034.5751139946515,-1601.7360227010795,-2695.8310423740186,-3217.7704211286036,-3843.1906873537228
2025-12-12 20:55:13.895086,Right,-3660.650601162226,-4332.450167232426,-4356.709110138472,-3675.0071154413745,-1910.4742073335801,-3271.600611795555,-3901.929900816758,-4658.997908008983
2025-12-12 20:55:13.899094,Right,-3317.6437990866834,-3928.4280378073454,-3955.3913949541748,-3336.4530878477963,-1775.6720100496896,-2965.4098341717618,-3536.7087045484222,-4223.235186722595
2025-12-12 20:55:13.903080,Right,-2285.721589156892,-2711.0212560936343,-2744.2438424036372,-2303.8409498000983,-1272.3215096737258,-2044.754370733397,-2438.6609431757824,-2914.783000663854
2025-12-12 20:55:13.907102,Right,-1805.9709044705378,-2144.3279283540323,-2180.375279085012,-1814.6498516344,-978.4603541474789,-1616.7220050935866,-1927.286565974122,-2306.7906199896242
2025-12-12 20:55:13.911051,Right,-2322.770411522826,-2753.7853697590763,-2787.5517471398925,-2327.4104080594843,-1207.9857077406486,-2075.594334358,-2475.102719964809,-2961.7567793352064
2025-12-12 20:55:13.916123,Right,-2912.9481890251627,-3450.3233062051004,-3482.0028206630377,-2925.0271089755697,-1566.385241574666,-2598.3355612716405,-3100.8587045086315,-3709.9844008919317
2025-12-12 20:55:13.920127,Right,-2599.3434388804017,-3079.221954182489,-3113.1626146183116,-2615.144445436308,-1469.8969412733568,-2316.6795139240567,-2765.465433964506,-3312.740864120424
2025-12-12 20:55:13.924195,Right,-1671.5318747798447,-1981.5697613949887,-2019.4570554894162,-1677.3167600436136,-964.4890318619437,-1490.1512277347501,-1776.600139454822,-2135.3687394582666
2025-12-12 20:55:13.928148,Right,-1230.3544482123107,-1458.7965537152486,-1497.1555304410867,-1226.7962758843787,-681.0469045782229,-1098.3763391929679,-1305.7560123490402,-1573.384031260386
2025-12-12 20:55:13.931152,Right,-1669.3038336997852,-1977.3433081387775,-2012.3018551719142,-1671.5254632557044,-940.6038075688411,-1491.257650763495,-1773.0360042033717,-2128.7714522873284
2025-12-12 20:55:13.935110,Right,-2192.267810554942,-2596.0956389214844,-2628.308183899964,-2204.5086634774925,-1290.0537057087058,-1960.7037875062088,-2331.865617650794,-2793.8096512578195
2025-12-12 20:55:13.938174,Right,-1947.8287039187271,-2307.3114764402853,-2340.706291462877,-1957.3706006474094,-1163.3064891403774,-1747.7829614219954,-2074.5775483992184,-2486.0208042383892
2025-12-12 20:55:13.942174,Right,-1162.3503468942363,-1378.3189600539627,-1414.8595388616668,-1162.6283607304795,-696.6794887362048,-1051.0837672549533,-1240.0971869666828,-1489.4897538443329
2025-12-12 20:55:13.946145,Right,-764.8145500413375,-908.1162604134297,-945.1750163269462,-765.5941717355745,-498.2933694520034,-696.7476224300917,-816.8158658023458,-983.7934615279082
2025-12-12 20:55:13.950199,Right,-1107.8819365708623,-1313.4625738239847,-1346.712889421382,-1115.369267854141,-752.7581754449639,-1001.119734750595,-1180.6419932354474,-1418.67673662398
2025-12-12 20:55:13.954198,Right,-1545.990665514022,-1830.3332912444603,-1858.628180800355,-1550.8115939765703,-1001.8705985842971,-1390.8966054387856,-1644.648447643849,-1974.1730446063448
2025-12-12 20:55:13.958231,Right,-1364.2369786534691,-1614.3324902731692,-1640.664166413364,-1359.2593279675348,-853.5167674286058,-1228.1646592433099,-1448.6532773697982,-1741.5069941997062
2025-12-12 20:55:13.962225,Right,-724.9061855770415,-859.1146285296418,-886.3569601343479,-719.0785031355917,-506.4159760919865,-657.1408720982727,-767.2277430621907,-928.4327597203664
2025-12-12 20:55:13.966196,Right,-380.0981238564709,-453.3931072137784,-480.35464149562176,-382.66776340827346,-386.10260454320814,-350.5565442861989,-401.604770183214,-492.05376610788517
2025-12-12 20:55:13.971264,Right,-632.7512610976119,-752.6950869477587,-775.8442534978967,-637.4214911116287,-544.9137068174896,-579.9732703192858,-672.1709587083897,-815.0535260594916
2025-12-12 20:55:13.975264,Right,-981.003137662774,-1162.796112007578,-1181.219340495998,-978.6143368959893,-677.5640649494599,-895.0916082265903,-1042.2005129861645,-1256.0738415470114
2025-12-12 20:55:13.979309,Right,-852.3397177529405,-1008.7555708141299,-1025.2114181042416,-847.2331525213667,-584.74953414622,-781.601030546648,-902.3439912571921,-1087.9274561734637
2025-12-12 20:55:13.983300,Right,-359.144276083156,-424.5600003199652,-440.9833082550904,-358.80453107185895,-378.80680610460695,-340.110795740562,-373.930162183824,-456.7376292202389
2025-12-12 20:55:13.988358,Right,-81.02074747608276,-93.89248194382526,-107.93195298156934,-79.73750406078761,-268.86372983211186,-90.41427054331871,-74.28097059897846,-99.53759317134973
2025-12-12 20:55:13.992352,Right,-259.33594652445754,-301.0415645739413,-308.8413759448449,-247.66670662543038,-316.7505038555828,-248.0558497988386,-259.6409767754376,-320.75484709604643
2025-12-12 20:55:13.996336,Right,-521.8494306764915,-607.8603059008019,-609.0119489538483,-504.36853932077065,-414.4050419139094,-479.51003985782154,-534.8126526530832,-648.261599214864
2025-12-12 20:55:14.000312,Right,-436.5745180763188,-505.84983422001824,-503.4746107502724,-424.1986452002893,-410.2474940252141,-400.66824673104566,-442.39218787365826,-537.8028097336646
2025-12-12 20:55:14.004366,Right,-73.6960728764534,-77.15922081656754,-73.50349978124723,-64.57542010775069,-262.2590575006907,-76.88961241347715,-57.45457876648288,-80.0503619404044
2025-12-12 20:55:14.008372,Right,153.64526809603558,191.93030691205058,197.96220068330877,169.00859790566028,-102.35742429742822,124.12417074220139,182.596429508063,204.5710927846958
2025-12-12 20:55:14.013362,Right,64.44110523021664,87.38825788887334,98.03222250097315,83.77609087814926,-95.46566003802582,44.47708313376643,86.75063209561631,90.08518711762736
2025-12-12 20:55:14.017386,Right,-99.32141021528514,-106.07280078937765,-90.28919126983965,-86.6969449336757,-209.69649369327817,-99.6758374243509,-88.21780930904788,-117.44064420761424
2025-12-12 20:55:14.021354,Right,-48.48648629698437,-46.14987933362136,-26.20160784010659,-41.3352570089919,-234.1074067010195,-53.7146905818372,-35.29099580532056,-52.934335851925425
2025-12-12 20:55:14.025424,Right,184.95393749342475,230.91566604615946,254.28224815013527,198.5827517046855,-80.37304165971,153.15448184960405,212.52704960637493,244.39215546759078
2025-12-12 20:55:14.029434,Right,349.2780683710589,427.01575508683163,453.77536685999075,370.33877725141065,73.9827520805411,299.7253477627237,387.963407280884,456.29389097016247
2025-12-12 20:55:14.033464,Right,324.0845075706311,397.73563012602244,428.0082666357557,340.27631675576777,52.53409558083513,279.81011805889284,361.503591939967,427.3775909465694
2025-12-12 20:55:14.038469,Right,235.1975963356458,291.77316274438294,325.5407038712583,243.14023980242519,-50.645408533571754,202.5381501114989,266.1094235108235,314.9224303159631
2025-12-12 20:55:14.042496,Right,249.13959886546945,308.0584888673111,345.0915113602023,260.6657702886296,-32.44158627267461,214.60229583414912,280.35894146319333,332.49285299565963
2025-12-12 20:55:14.046500,Right,373.30965322846896,455.89663968894456,495.3648893136997,394.1811006848875,98.47487695010204,324.8806421413319,413.3017890024785,492.42541481809167
2025-12-12 20:55:14.050507,Right,493.1583006572764,598.061033681166,638.6435697272536,512.9410085980926,165.04935390326864,432.75593281495094,541.5628071921092,647.3272663713142
2025-12-12 20:55:14.054530,Right,530.7759283296764,641.574718489399,682.634286697983,541.7720158427255,123.51692548372012,466.32368000326096,580.26454990395,694.5080200356024
2025-12-12 20:55:14.059531,Right,509.60391379898647,615.5108382184699,657.6985377363744,519.4367920344521,102.92247331464296,444.55793218984036,555.0151928866107,664.7662428281619
2025-12-12 20:55:14.063548,Right,495.80417518829927,598.7713251224195,642.7582026995951,511.15118505083956,157.8117782470872,428.7449934813485,538.1210139670584,646.0234455464524
2025-12-12 20:55:14.067571,Right,528.7837568760442,636.5863254410797,681.7006295141764,541.8230229664769,197.84933911910048,456.63876278718817,571.441414384637,688.2033384895185
2025-12-12 20:55:14.071578,Right,603.0766823111335,721.8675100668916,766.7145700997789,606.2429494111566,187.7105522065831,522.577327577601,648.1354927644134,780.984740357555
2025-12-12 20:55:14.075605,Right,678.7560129757621,809.0043851607479,852.8903503941838,679.5574969754089,211.26354841780267,589.8901463139046,726.7449287414784,873.677716438775
2025-12-12 20:55:14.080638,Right,706.2118242434226,840.5430401921622,883.5095327921445,713.8542806970072,284.55791322015284,615.8042635613238,756.210884859669,906.7396255900967
2025-12-12 20:55:14.084779,Right,673.9280420013238,801.8923705728375,843.8945740784984,682.8390535048093,299.89191103442863,590.5615183729678,723.2246331085917,865.9096310016466
2025-12-12 20:55:14.088647,Right,639.8052809052751,760.4584111261647,801.3949014429818,640.9750357563025,233.13294030624093,562.381345214264,686.5827991453698,821.039730527671
2025-12-12 20:55:14.092643,Right,680.5540278031258,807.5845702284714,847.7235245344928,679.0941477519227,221.94490476808278,596.5492382684024,727.2827769731521,868.1972260369221
2025-12-12 20:55:14.096679,Right,790.9322569341748,937.6201002969174,977.1046225159662,796.3275889336946,333.18965457496233,690.6738904148806,841.4406963767251,1003.6357155242004
2025-12-12 20:55:14.101615,Right,867.1837044590502,1026.653946872335,1064.9083800617373,874.1370008641388,423.9940398328472,756.8829712365987,919.42290885892,1097.1235183520475
2025-12-12 20:55:14.105710,Right,829.2924920681398,979.1424190384569,1015.6012763956096,825.6524965497665,369.54894271856756,724.2049880513805,875.5031081603374,1045.105752088013
2025-12-12 20:55:14.109638,Right,739.1214987257263,869.9040693800198,904.9646223812597,727.5416599067394,278.81367583872634,644.6546399200452,776.2487074070377,926.0580897091422
2025-12-12 20:55:14.113697,Right,738.2603029215243,868.6085815449478,903.0397134807426,732.2440816548187,319.08481619347003,643.9157738584909,774.4410886766855,923.6210803029826
2025-12-12 20:55:14.117754,Right,858.8199909409741,1012.7867440747796,1046.6687890097965,860.3431842315476,444.03056645495235,752.9316070436034,904.5060074839275,1080.433959518792
2025-12-12 20:55:14.121639,Right,961.7743498727214,1135.9038227017736,1169.069120539818,960.7068564957008,480.1750016163569,847.6159778523725,1016.1320849301992,1216.2672853505937
2025-12-12 20:55:14.126672,Right,914.4006352827419,1080.4430917977588,1113.396394987125,908.9972223418299,407.06556843291037,806.7948506395333,966.5115761607885,1158.676649676403
2025-12-12 20:55:14.130852,Right,781.6048293616623,924.014520423254,957.1646133488975,781.3143492932431,364.5165340336971,688.1374117267551,825.9384462123271,991.2766042021103
2025-12-12 20:55:14.134685,Right,753.7022891317029,891.346246982459,923.5323030361906,760.0736485078232,416.9283127237577,664.169042591704,798.1303221421549,958.3338499848032
2025-12-12 20:55:14.138701,Right,886.4817529544234,1047.2814598026453,1076.4414293335285,889.1376720025437,483.2735231159604,784.8174427575432,941.0455901673995,1128.9928718152223
2025-12-12 20:55:14.142707,Right,1011.9365735223982,1194.023174899863,1219.6929482785054,1007.7155529608717,495.27875102771213,896.8169505482074,1074.299970801454,1287.0613409512443
2025-12-12 20:55:14.147774,Right,962.508437229204,1135.7075898876647,1159.6969840945676,961.7161668251501,475.8261950793676,849.8314036857337,1020.738645233796,1221.7765421406366
2025-12-12 20:55:14.151896,Right,807.6892960610567,954.506843120791,978.4523475641618,815.2669423198095,454.72651664185105,709.8984027426923,856.4009128172183,1025.3656677684048
2025-12-12 20:55:14.155816,Right,764.5958472460043,904.7642215319211,928.0479073186871,771.2410699807806,435.48829817411024,673.512229188229,812.1312155475607,972.8207380594686
2025-12-12 20:55:14.159863,Right,896.7948548732093,1060.7668834658107,1081.7046382146655,896.4869729974307,446.87709110829746,794.4822189633269,953.7770045790821,1141.1263315498363
2025-12-12 20:55:14.163882,Right,1022.505484518595,1209.3270263436716,1227.3794352848781,1023.3429563679965,505.8219583284226,906.9761215125909,1087.5449655319098,1299.4744080447126
2025-12-12 20:55:14.167895,Right,965.2785861354787,1142.793157586013,1158.2983193817781,973.3480204449734,539.3101558512426,854.8781096905004,1026.9749582773075,1227.262542610173
2025-12-12 20:55:14.172828,Right,799.26724956627,947.1808823605534,959.698200113955,806.1556853152579,475.01676462963223,707.290685501881,851.2454642363591,1018.8437627296662
2025-12-12 20:55:14.175826,Right,747.4468613736099,884.5775327066658,893.3091941527091,745.2526360254269,393.6948183166096,662.057708103559,796.3156503380742,953.4855158689898
2025-12-12 20:55:14.179842,Right,875.1531435262877,1033.188647989533,1038.9521969036432,871.053965592524,434.8244478740962,774.9435084346915,931.3031891711289,1112.777918687556
2025-12-12 20:55:14.182853,Right,1003.3436133742798,1182.781578020309,1188.070203704876,1006.0794734098017,554.6895201955922,887.7374934162945,1066.7672949355328,1272.451729099732
2025-12-12 20:55:14.185914,Right,955.9288852439495,1124.7851500633406,1131.7471079638926,959.062262308551,563.9114458109834,846.4647658866597,1015.5619833805831,1210.8121123628225
2025-12-12 20:55:14.189915,Right,795.909631465096,933.0118807523977,942.2335500813788,789.3860399367986,435.2994527745177,706.2659832100617,843.6187543221749,1006.0837491434067
2025-12-12 20:55:14.193921,Right,731.9658551968168,855.133950700867,866.117043756647,720.8807595953112,369.7513977024355,649.8928024383495,772.8404476987198,922.2913245540112
2025-12-12 20:55:14.197946,Right,834.132505588932,975.015942406375,986.9162372068968,829.7123753932538,476.2720029054908,740.1121463851305,879.1469453864265,1050.5724932677113
2025-12-12 20:55:14.201940,Right,947.3151862946106,1108.602151283063,1120.6214542679954,946.5786328895483,588.7923083942151,841.7976422023494,998.2855140331667,1195.1636406891048
2025-12-12 20:55:14.205973,Right,908.4020183442626,1062.156680773478,1074.0162226888351,900.1587491029641,534.7109026332037,809.6459424677305,956.128452929086,1146.747641227208
2025-12-12 20:55:14.209962,Right,763.2351628942415,890.9589973294642,903.0646419881377,749.3792324077804,409.39365693641594,681.4062297915807,801.4440664915601,962.3925624147523
2025-12-12 20:55:14.214911,Right,695.7791808500187,813.8282144989353,826.5300594526343,688.533596687601,406.2645517716883,620.105684494134,730.8615845814347,878.1777907575015
2025-12-12 20:55:14.218984,Right,777.1609176801285,913.4870991613716,926.4570954362862,777.5267378771678,506.30835091957124,691.4987874388462,819.7030941693811,985.7932644532993
2025-12-12 20:55:14.222938,Right,875.8200567997992,1031.9961054350715,1044.9092945747543,873.1140051647089,538.4683395173633,779.7660328828497,926.3601694407407,1115.2325281349476
2025-12-12 20:55:14.226952,Right,842.0007823992055,992.5956377971452,1005.9259304625448,834.7908072277205,467.43450468510855,750.3484177136561,891.2612810097635,1073.5902730859816
2025-12-12 20:55:14.231014,Right,709.1745329088299,836.8829583816696,851.0016782516614,708.2783710928634,417.11509470792953,632.5991498494986,751.6227659077849,905.0154583414551
2025-12-12 20:55:14.234056,Right,641.2057070448063,758.6024649632163,772.2601850905921,649.4464214957552,443.2310721440008,573.9083537473343,682.3485773055581,820.0387099706568
2025-12-12 20:55:14.237042,Right,706.4552198813763,836.8682195835281,847.7673185011372,713.2951041168999,472.03965161996894,634.9416039600037,754.3718121791026,904.1435556039214
2025-12-12 20:55:14.241068,Right,791.4047353602946,937.3163522179238,944.4743678069208,792.2440428656992,461.1886206759373,711.6846032467438,845.4486501788488,1010.8883916740306
2025-12-12 20:55:14.244042,Right,763.9982228467707,905.1475800483022,909.6762501257472,767.5991521779215,452.8519410066074,685.7120254515903,815.9789007731015,973.862622856861
2025-12-12 20:55:14.247005,Right,651.28942284605,772.1762000897434,775.3911400400102,661.5213959065732,456.3323018384399,584.4743703131098,695.8523779549869,829.8575585263316
2025-12-12 20:55:14.251078,Right,590.1004202606855,698.5420491399709,700.5193052708637,596.855687602656,429.6679081142647,532.3751588081941,629.8651150806108,751.6974056903273
2025-12-12 20:55:14.254091,Right,635.216816449305,749.0841475182679,749.755997518776,632.1614530796651,392.02295936411247,576.5776385880308,675.5212397970026,806.8229089579545
2025-12-12 20:55:14.257097,Right,695.9063919980545,818.5261700841365,818.94574392098,691.8567621961702,409.73873488395475,634.2505091524217,737.4425568458391,881.2361783173401
2025-12-12 20:55:14.261121,Right,672.3798002989497,789.3104865850182,790.6527573259082,674.3784655091586,456.13712239661254,617.4130900870077,710.4739287205739,850.5511712029111
2025-12-12 20:55:14.264094,Right,587.3358018897707,686.1748165768804,688.1327323915903,586.5661388991866,433.5330732790753,546.8830913808197,617.2913225574885,741.7783455930185
2025-12-12 20:55:14.267142,Right,539.6296750371112,625.0363335821312,626.195907382411,526.7342773630517,354.7148427318316,508.04092041251715,561.3279209967004,676.5679042611737
2025-12-12 20:55:14.271090,Right,566.2484624442877,651.8099634731188,651.2692941259593,548.1813343394315,344.06266057875473,531.5183472022181,583.1958012884716,702.708242879482
2025-12-12 20:55:14.274154,Right,605.3386972480221,695.4875619362574,693.3285076752072,592.8969051807653,421.61001655994914,564.3620754745789,619.9253861069446,746.7879544694442
2025-12-12 20:55:14.277170,Right,590.106653267052,676.2849255736219,672.7972342576832,579.3707260313677,452.36770414118655,550.7067081275163,601.193188246456,726.126435423037
2025-12-12 20:55:14.282121,Right,530.7943441679236,604.8837664270541,600.269279524684,512.4348832756514,373.0778341642581,499.41456589184236,536.5702978161862,651.0658496087417
2025-12-12 20:55:14.286204,Right,485.78820299135987,551.1991044251481,545.8930128265638,464.110027563991,303.1024037366733,459.5507639381103,487.69985949771944,594.2782773858635
2025-12-12 20:55:14.290301,Right,482.58891577471513,548.9228412165539,543.2443451994332,468.46598823566455,337.2727315379889,455.3873182280222,484.69495004671626,592.592579594464
2025-12-12 20:55:14.294204,Right,494.50075903662946,565.0954620310804,558.5470194503432,485.7101101173321,385.871647601889,465.550105304108,498.89538076671306,612.164155254839
2025-12-12 20:55:14.298253,Right,484.3466302822344,553.8542137456825,545.595710221678,470.4428929311689,342.1818205306772,456.9942508058157,488.943284092471,602.0410259312484
2025-12-12 20:55:14.302280,Right,447.6256199555937,510.6388882754836,500.7642527561402,430.2155053531751,269.534024742723,423.34120586991776,449.79213138401974,555.0009155516746
2025-12-12 20:55:14.307305,Right,409.12526129116304,466.5898867268115,456.13716219342314,399.3701265726704,276.4481577668921,386.71204067207873,410.1046101053944,506.45164486195426
2025-12-12 20:55:14.311221,Right,390.7232921811519,447.1339904188644,436.6004352077143,388.49520909180865,320.6417976975208,369.0922649250133,394.1844560779864,486.9334702047054
2025-12-12 20:55:14.315362,Right,390.65871790458914,448.3531906858552,437.0766928278608,384.3196177978534,298.28191465802956,368.77652513817884,397.76136926270556,490.6434262722032
2025-12-12 20:55:14.319315,Right,389.6403996174922,447.43581953283865,434.85985622217413,377.14117492188234,239.58647315006237,365.4662747774273,397.8738418662688,489.08281606959645
2025-12-12 20:55:14.323352,Right,371.6315781594021,426.9385359127773,413.5337629780406,363.710506507894,244.7946743138018,344.38087068800814,378.0166012553964,463.8666559631238
2025-12-12 20:55:14.328339,Right,338.7581590322079,389.5164408261189,375.88273958920036,338.50147775246296,289.4200005943421,311.2517497391673,342.3135310478974,421.6810805866262
2025-12-12 20:55:14.332298,Right,307.634293234325,353.6639165284578,339.7122204467887,305.0036251784768,270.4191588864196,283.5553187907208,309.22301940456964,383.42104457702953
2025-12-12 20:55:14.336357,Right,292.11830185493454,336.0171982088359,321.69871901662555,283.78628231969196,205.50141443457687,271.5662953922292,293.8715071375482,364.5974940622691
2025-12-12 20:55:14.340358,Right,289.5927960159024,335.1511190208839,321.02433508075774,286.72009903460275,204.76499473047443,270.357260895893,294.47505889856257,363.11284430872183
2025-12-12 20:55:14.344384,Right,282.94364296644926,331.0282602936495,317.3617250591051,291.87594008550514,261.44176542939385,265.7030587326735,292.87969382631127,359.6629759060452
2025-12-12 20:55:14.348420,Right,257.0445526074618,303.95397600904107,290.1277776537463,268.34961951500736,255.5368163898238,245.56142053485382,270.9969311247114,333.301164317294
2025-12-12 20:55:14.353403,Right,216.75162706139963,258.6726419592742,244.28562416520435,222.67093611543532,173.04284800210735,212.45546658919193,232.512030591839,286.17665803141426
2025-12-12 20:55:14.357455,Right,186.6891319261631,225.06274899526034,210.82657312857918,194.53404523967765,137.51427998539293,186.1389153447235,204.60242820577696,249.27808318380266
2025-12-12 20:55:14.361440,Right,185.2144605043577,224.86832662881352,211.48410782672,202.01673077745363,190.259003713727,183.72382152755745,207.29156188725028,248.375441723736
2025-12-12 20:55:14.365407,Right,197.81837859994266,239.54302610002924,226.51835661090445,215.40546624339186,217.61386928410502,193.77888207352953,222.675179829821,264.5446913532214
2025-12-12 20:55:14.369460,Right,188.3398640836822,226.49061145074666,213.12717579945456,197.36110018612817,155.33549563982524,183.37945527181728,210.32523888442665,249.47178082366008
2025-12-12 20:55:14.374462,Right,144.6577878225944,174.15401857893448,160.99659974966198,151.749449544237,97.56812910287408,140.82641588232946,160.00995277392212,189.72093474143185
2025-12-12 20:55:14.378475,Right,100.95056602696422,124.72415480599739,112.91848442156333,116.89586004201556,121.39414227718953,98.50344307679916,112.72731094586197,133.9740521593485
2025-12-12 20:55:14.382494,Right,96.22722885204712,122.6012612656923,112.32630600000266,116.63126179791288,155.3375633652322,93.4142662389786,110.54528484866023,132.34870934020728
2025-12-12 20:55:14.386446,Right,117.4106576833874,149.92825831845403,140.47565920371562,131.1815168770845,121.6375341854291,112.42469993553823,135.9022289539571,162.96500421629753
2025-12-12 20:55:14.390511,Right,111.82402898883447,144.5788451639819,135.38814890250796,121.21072715433547,74.18687975552166,105.88710938574513,130.55988437862834,155.71689283312298
2025-12-12 20:55:14.394522,Right,61.76511926483363,86.71088718395913,77.14726098324172,76.85413921502186,82.96651077258866,59.14663984894287,77.34926960122539,90.63030183862429
2025-12-12 20:55:14.397551,Right,14.59823820355814,31.618007186974864,20.247300868679304,33.42457171273418,100.52043169841636,17.49732466856949,28.51535989542026,30.54094646545127
2025-12-12 20:55:14.400541,Right,17.635273152438458,34.198950219433755,19.753460062725935,29.560362359159626,64.07848937431118,22.155851929739583,33.395431058481336,34.188786854210775
2025-12-12 20:55:14.404552,Right,48.54762300773291,69.22650176449679,52.37687732168706,54.143310684827156,24.984343364543747,48.87638309050817,66.2322739721858,71.50157663860591
2025-12-12 20:55:14.407499,Right,44.55414974800078,64.27320343826432,47.34319912228966,54.18312793946825,48.146475259331055,40.995518073264975,60.20847623894224,64.4840625069337
2025-12-12 20:55:14.411570,Right,-8.605146942602005,1.8931058547459543,-13.361037028837018,4.9881379984435625,76.36530620546546,-9.950570378743578,1.530638592550531,-2.98615237721242
2025-12-12 20:55:14.415593,Right,-55.79557210498024,-54.543862281308975,-67.97591301047942,-49.601423520827666,32.86743484681938,-52.63287562871119,-50.74084822955774,-62.48644532554317
2025-12-12 20:55:14.420626,Right,-50.06720160623081,-49.09618791565299,-60.92861128121149,-52.935805283952504,-23.596750711323693,-47.418610304186586,-46.36071421595989,-56.161306526104454
2025-12-12 20:55:14.423622,Right,-17.464672577916645,-10.357674351835158,-20.004695088311564,-16.93426675692899,2.4772147628536914,-17.925537536561023,-10.76416893186979,-14.687685854558367
2025-12-12 20:55:14.426623,Right,-19.371096187416697,-10.730108900694177,-17.37081500829663,-9.47557042867993,58.87702688752324,-15.971073990716832,-7.731776755070314,-13.20543601718964
2025-12-12 20:55:14.430632,Right,-69.15334163827356,-68.15122012182837,-71.66680797334993,-58.609916777320905,27.785357960296096,-53.82877855625702,-54.1440253307228,-70.82039621466538
2025-12-12 20:55:14.433645,Right,-117.556895674119,-125.07015246263472,-125.85255637406954,-111.42981153403525,-57.45031545529491,-92.64306498126825,-101.44146896680468,-128.8966653025127
2025-12-12 20:55:14.437649,Right,-120.61002536243177,-127.88520352271735,-126.44732829087297,-110.64769755635643,-60.683700458699604,-95.99339253644575,-103.4743276774825,-131.45350373449037
2025-12-12 20:55:14.440669,Right,-95.54749086266384,-96.59207945904927,-93.96824277791893,-77.33302423433634,15.736547111679101,-76.47217632006505,-77.24367824554793,-98.23634360131109
2025-12-12 20:55:14.443674,Right,-94.30494802829344,-94.57561599084875,-92.3449154010741,-78.31935777171748,30.544953998643905,-77.45802413424826,-78.01763036212651,-96.61096575664124
2025-12-12 20:55:14.447687,Right,-134.145179129584,-143.08134413155494,-142.23906910349615,-128.92472832082422,-49.01449499092996,-115.35205509266234,-124.88938924737158,-151.57666402039467
2025-12-12 20:55:14.450687,Right,-176.299897921097,-194.2837691985187,-194.68515698894043,-174.3468425659521,-93.22243788433843,-156.69906994808116,-175.49753034627065,-212.15080763498554
2025-12-12 20:55:14.453701,Right,-178.3152181731275,-196.40140742302174,-197.911080914404,-170.74811150159803,-42.18864704601583,-160.74615745749907,-181.88780168072844,-218.82973067686544
2025-12-12 20:55:14.457721,Right,-150.88385605538497,-163.16848588633002,-166.5327146842901,-143.29699675446318,-5.359738891827874,-133.4462436941394,-152.56000375348958,-183.07790086428577
2025-12-12 20:55:14.462726,Right,-144.59625169106585,-155.6861807788373,-161.43694557443087,-144.8238636325259,-59.19760922191199,-121.68339786531578,-140.6050181772589,-171.92314577911748
2025-12-12 20:55:14.465742,Right,-182.5469655840934,-200.45019393168332,-207.80017375393072,-184.2556257377364,-117.02681436682178,-151.8467121357753,-174.4020422716858,-217.2390688676678
2025-12-12 20:55:14.470771,Right,-227.7619665015227,-252.81167025609466,-260.7549893329342,-221.2446557535659,-95.24187957863614,-193.07787374878535,-219.7266780589489,-272.2718308187905
2025-12-12 20:55:14.474798,Right,-231.96735859540422,-256.82621331671544,-265.71103396541366,-221.88971125005628,-57.74909266756731,-199.41212986260507,-225.49149018662865,-276.19824861238885
2025-12-12 20:55:14.478782,Right,-201.56791176648858,-221.4991584777017,-232.4010699856044,-198.41488511740135,-83.41932566430478,-175.157611960356,-195.19584288617807,-239.00708474050953
2025-12-12 20:55:14.482865,Right,-188.81589286420603,-207.87993008874946,-220.82888810871373,-189.97388909812616,-121.41676003222528,-168.34062751623662,-182.94914264175804,-227.35705011750724
2025-12-12 20:55:14.487857,Right,-219.146172935918,-244.570249962675,-258.40404642411886,-214.72994221910267,-101.35800183974789,-200.55531442607935,-216.41278170122314,-270.4709660779117
2025-12-12 20:55:14.491923,Right,-257.36045146293327,-290.4347517340284,-304.14627092701267,-249.57990723205148,-72.7523413443414,-236.41942776423093,-258.254576187559,-320.75403034341434
2025-12-12 20:55:14.495860,Right,-259.7316905993648,-295.0583791923418,-308.24975834137877,-259.19792084683286,-103.5062345000697,-236.0305003331523,-261.26726949018484,-323.53423494931485
2025-12-12 20:55:14.499891,Right,-235.04288521246053,-268.1050564140605,-280.2196206488443,-240.62317087758856,-140.1735685880194,-211.43596922904544,-234.37183154327795,-291.8287886457547
2025-12-12 20:55:14.504814,Right,-227.98750962002669,-260.66974264344026,-271.0079655996378,-228.00378545607964,-107.90440507319727,-205.91452051026863,-225.81633611764119,-281.6725315979711
2025-12-12 20:55:14.507863,Right,-253.88416925314232,-291.1709869038168,-299.96493258533883,-246.91455284763651,-62.04945009910443,-231.1876463489607,-253.36303559524822,-311.99075175980397
2025-12-12 20:55:14.512893,Right,-280.7822711373592,-323.62618935565115,-332.01458105581696,-277.64065450678754,-92.8672506866751,-255.75102140629315,-283.78513445029967,-345.08117238324485
2025-12-12 20:55:14.516897,Right,-279.0122610084363,-323.0243942347588,-331.5096560542006,-282.41716562077636,-152.64215979347864,-254.3939476943342,-285.11657136984286,-345.6137755034142
2025-12-12 20:55:14.520910,Right,-260.7136388027284,-302.15712750467355,-310.06705159452395,-260.57954612682806,-135.7433858294271,-240.06283616134897,-268.9914585056249,-326.2836643504852
2025-12-12 20:55:14.524984,Right,-257.01950855215546,-297.76925525194383,-304.72789623204153,-249.9015076084761,-74.35676948494199,-238.42887762235478,-266.72923690162133,-322.5587887468282
2025-12-12 20:55:14.529941,Right,-274.6805998929194,-319.5815067126532,-326.46841727753053,-270.89908218802884,-85.13418445532261,-253.03732541683712,-285.1982413280057,-344.1000613475626
2025-12-12 20:55:14.533111,Right,-292.6235951560666,-343.151213910518,-350.907564683439,-297.57724955352023,-156.1218455918497,-267.32549267666764,-303.946145700902,-368.53345150273526
2025-12-12 20:55:14.535979,Right,-293.65027961862506,-346.4211463405518,-354.8123411270208,-297.91284579821513,-165.3655317286466,-268.83118780341465,-306.1169382403896,-374.41667875793064
2025-12-12 20:55:14.539991,Right,-283.7300135156838,-335.3239461189951,-343.6998735937523,-280.46656730698305,-101.95642461055104,-261.18893635610584,-297.5766688431031,-365.61026214348385
2025-12-12 20:55:14.542999,Right,-279.84551999971154,-330.90455870103324,-339.36867272882955,-277.21179207606474,-85.6915886969291,-256.94086001164396,-295.4710997833172,-362.2922554873512
2025-12-12 20:55:14.546004,Right,-289.68081414926564,-343.032301358704,-351.86023156368174,-295.05516988938325,-149.14383236129652,-264.73067387679475,-307.28179656225257,-376.13202877592994
2025-12-12 20:55:14.551015,Right,-305.9429270386754,-362.17154415667756,-370.75487026630435,-311.52381291391794,-181.51257672120846,-280.96150271221995,-324.615657804301,-398.10753313585883
2025-12-12 20:55:14.554053,Right,-315.2309242275078,-372.0499250558205,-379.5576325284783,-312.121538252919,-133.5636708639213,-291.98845954198623,-333.4552683366346,-409.30747768486617
2025-12-12 20:55:14.559042,Right,-311.6744467759854,-367.3197476230562,-373.9384335404611,-306.30242108978564,-103.49457707291003,-288.81521974146017,-329.2795317164855,-402.8763448461541
2025-12-12 20:55:14.563047,Right,-303.50718920555664,-358.82413252815604,-365.3378357347101,-305.74426942673745,-150.21727203638875,-279.0328200906224,-321.90254043228924,-392.3745672185905
2025-12-12 20:55:14.566065,Right,-303.5718715257826,-360.2586155363242,-366.9070856515318,-308.71044707339024,-186.13957058139204,-277.1974198919488,-323.04752490646206,-394.19514603959396
2025-12-12 20:55:14.571064,Right,-313.30864089063834,-371.59632738272194,-378.34935700520873,-311.47537651867606,-146.1163796022447,-285.11851324304007,-332.0817379861255,-406.54878779745195
2025-12-12 20:55:14.576020,Right,-322.0322875564452,-380.87591670284746,-388.31884612486465,-317.2903763676295,-111.07679230628128,-291.8186085637426,-339.3555689578643,-414.8013137842063
2025-12-12 20:55:14.580085,Right,-322.76681112044025,-381.28820806893054,-390.03063627693336,-326.04017079784535,-154.37473942701763,-292.1061440706253,-340.7768021617085,-413.5385868176818
2025-12-12 20:55:14.588116,Right,-321.0494550911244,-379.026800384745,-388.4839524241979,-330.03969102253905,-202.0969212179334,-293.0762340015499,-341.77404553769156,-411.58996296755504
2025-12-12 20:55:14.592137,Right,-324.53986652439926,-382.2287054139306,-391.1939925994957,-328.2130360925803,-171.6723681515723,-299.9944087091717,-346.8600303781568,-415.79878638806986
2025-12-12 20:55:14.597086,Right,-331.1928161564865,-389.4574483965407,-397.80660090071615,-330.4350731151062,-128.70008283661446,-307.1729735113331,-352.8038706568768,-421.7185535469325
2025-12-12 20:55:14.601155,Right,-334.15761178568937,-394.17977681412594,-402.93928502569906,-339.9313164547202,-165.47809405447333,-308.1971310566296,-355.17068615707103,-423.6492583209183
2025-12-12 20:55:14.605165,Right,-332.91254150733585,-394.9187427397119,-404.7054689312936,-345.2980645116768,-226.2006895613158,-305.58962673012866,-354.99955859192414,-423.39774162945105
2025-12-12 20:55:14.609175,Right,-331.693424353085,-394.43903583521023,-404.8709875899949,-338.9437708656769,-206.77596381257172,-303.7805147898034,-354.6710353222443,-423.70638887991663
2025-12-12 20:55:14.613192,Right,-331.0803642832325,-393.3284542388283,-404.0882538475562,-330.53260022966424,-146.1478666982439,-301.06143683579285,-353.1437649941654,-422.4119421343785
2025-12-12 20:55:14.617196,Right,-329.4378702453687,-391.3887944240705,-402.87432326568523,-331.4676646576845,-153.84039601086988,-295.68047419487266,-349.9828362960252,-419.4048236879753
2025-12-12 20:55:14.622222,Right,-328.58477699244395,-391.0400096879457,-403.5364779487718,-336.7137915539788,-208.59753133586491,-292.1343574523926,-348.5365326242754,-420.1003210939234
2025-12-12 20:55:14.626240,Right,-329.3887413534685,-392.0454216253711,-405.0419419069658,-334.07944484293694,-201.7035174353514,-293.0341129419394,-349.57500617118785,-424.5875912765041
2025-12-12 20:55:14.630246,Right,-326.38077275455,-388.016284831916,-400.9944082321599,-323.7922468437464,-141.08638996718219,-291.84974237380084,-347.3576020837063,-423.0641764672473
2025-12-12 20:55:14.634258,Right,-316.5336020810064,-376.79600375751033,-390.07500663772225,-316.5403491186444,-135.28870694487705,-284.0826590093202,-339.62686637055594,-411.9940870689461
2025-12-12 20:55:14.638286,Right,-309.2552720531239,-369.3146606692462,-383.32353885972407,-317.3380619621603,-190.7325825863809,-278.9670437275199,-335.55092360416893,-405.24673391052056
2025-12-12 20:55:14.643267,Right,-315.65879989537643,-376.7276095672278,-391.03382597723976,-322.437965636258,-202.00296544353478,-286.8308651957195,-343.37146654201206,-415.47322046163026
2025-12-12 20:55:14.647275,Right,-329.3426440412295,-391.0081604953157,-404.9919414721662,-327.5390122162644,-149.9649332021363,-299.31198188720737,-354.56075423787115,-431.40120064246
2025-12-12 20:55:14.651325,Right,-331.49508856685134,-391.85359139123466,-405.828186764149,-328.8488114204956,-134.73897443668102,-297.79821842967067,-352.2966117137694,-430.1219444074668
2025-12-12 20:55:14.655326,Right,-317.4742975946865,-374.939032853581,-389.715229056892,-321.60262389626587,-184.36585722054588,-281.1406404374284,-335.60730945382966,-409.844367989921
2025-12-12 20:55:14.659327,Right,-304.68746699322946,-359.7288628682727,-375.54142898053396,-308.42852050613146,-201.78301808729884,-268.84889057220425,-323.14233765978133,-393.7155450109858
2025-12-12 20:55:14.663356,Right,-307.5074474274297,-362.4457370529417,-379.1268773265183,-302.4203825847362,-149.96576504287077,-273.02982072124723,-327.85596942395205,-397.48788956634235
2025-12-12 20:55:14.668354,Right,-316.34099675237667,-373.0235026186565,-390.7811907295836,-309.22232294495916,-124.51574191017426,-281.90401497815037,-338.42921215028036,-408.31106488150544
2025-12-12 20:55:14.672379,Right,-312.83266000886215,-370.6966333137825,-389.8356320161838,-314.28795360261574,-174.021021467197,-279.03625836304855,-335.8282865949441,-405.0674865799956
2025-12-12 20:55:14.676394,Right,-297.7688455930911,-354.9282953912625,-375.0579054094851,-303.9087974434369,-205.75785861277836,-267.4837922236766,-321.0251697083004,-388.76156226708554
2025-12-12 20:55:14.680346,Right,-289.25527552940184,-345.45868328760844,-365.89732711785473,-290.22488901071483,-158.1888314439566,-263.07103707210626,-312.5801523011178,-378.8134339534445
2025-12-12 20:55:14.684419,Right,-295.67419077298837,-352.9274552129209,-373.9028500597924,-294.4971191358054,-119.21337877376936,-269.98174767155433,-319.0699434198905,-384.2041427277727
2025-12-12 20:55:14.689444,Right,-305.1095215495443,-364.60717505658977,-387.1604061938124,-311.3191911294707,-164.5425715991587,-276.5104404402082,-328.3969025167171,-392.8389776961412
2025-12-12 20:55:14.693432,Right,-303.7697102096863,-363.46181004773825,-388.00038663460873,-314.06973058881704,-214.21532618519268,-273.20713332289597,-326.4057876889128,-389.84868742048275
2025-12-12 20:55:14.697475,Right,-293.18614987656474,-350.02250044059474,-375.80249422357883,-296.0403116782545,-177.56049734161934,-263.0717433219543,-313.9513420331641,-375.31389552750625
2025-12-12 20:55:14.701482,Right,-284.9692859945935,-339.0104310322786,-365.18188143265434,-281.1638673138805,-121.11875370089547,-254.4203319240478,-302.42576977814315,-361.79663152759895
2025-12-12 20:55:14.705492,Right,-285.86171710159397,-340.26960199698806,-366.5801483921241,-286.84755364229204,-147.2369903831859,-252.66663468349725,-300.2839611492818,-360.13523355370853
2025-12-12 20:55:14.710490,Right,-291.3136746796081,-347.9631261306349,-374.2301686560968,-298.27655663061887,-205.76446244621184,-256.9571559323813,-305.0955463209539,-367.68678734556306
2025-12-12 20:55:14.714538,Right,-290.3987807602971,-347.3036371928174,-373.09550017572474,-292.9585154571687,-186.56186175704352,-259.05476411274867,-305.5363360394258,-369.4427870120853
2025-12-12 20:55:14.718521,Right,-277.1621394516551,-331.393529700581,-356.74499809369445,-274.0136872265721,-121.74114592789556,-250.55714215053013,-293.9382275188109,-355.33965078997426
2025-12-12 20:55:14.722524,Right,-259.37007503263885,-311.08506721269805,-336.75166756962426,-261.98698091699043,-124.90556697614375,-236.0323291136301,-278.0598009596579,-336.03753469209187
2025-12-12 20:55:14.726553,Right,-251.83814996422734,-303.6154822483659,-329.91539014782757,-263.7494959595497,-182.8534271636454,-230.73011576203862,-273.48340406117495,-331.618447273504
2025-12-12 20:55:14.730575,Right,-257.28129992762115,-310.157796385698,-336.24296947021503,-267.13205336302053,-184.65945422303048,-238.60427248169435,-281.5994089805754,-342.7255526727531
2025-12-12 20:55:14.735608,Right,-260.77522327541374,-312.9046558017144,-337.8676748047583,-262.13047677854775,-128.09226444206433,-243.26381898851832,-284.95953766221646,-346.71388219308574
2025-12-12 20:55:14.739606,Right,-250.14654516935116,-299.5701947181951,-323.45797605777625,-251.72795664670411,-118.6154744757805,-231.18496311613126,-271.4121216958156,-329.5152541761054
2025-12-12 20:55:14.743597,Right,-234.56569609913277,-281.7896786154015,-304.7553574080812,-242.74139225838007,-169.78159619413782,-213.3978919063229,-253.0569786663982,-307.2108992403373
2025-12-12 20:55:14.746620,Right,-231.74622955831,-278.86768071888946,-300.2308612297056,-238.5493073152611,-181.02292404870968,-209.7167203075369,-249.59444059513044,-302.9496919340454
2025-12-12 20:55:14.750628,Right,-240.7546397045371,-288.8057729349239,-307.98609186767135,-239.83483525796328,-129.48282648655004,-218.7898524593911,-259.492784140748,-312.9528886243934
2025-12-12 20:55:14.753633,Right,-242.2050309329643,-290.10358203866053,-307.90465972875245,-242.51320171559928,-111.9700644017721,-220.91031344630755,-262.6219804052962,-313.1519892985234
2025-12-12 20:55:14.757623,Right,-227.4056187933893,-273.51426761841867,-291.39971316221636,-238.28869168501114,-159.60002441713004,-208.6658930060221,-250.25255716918036,-295.64057128853165
2025-12-12 20:55:14.760664,Right,-211.90602086338913,-256.22836623655166,-274.6181372490246,-226.7181459517451,-177.34975476859836,-197.05353597464273,-236.82383847777965,-279.2010649557924
2025-12-12 20:55:14.763673,Right,-211.7674582033069,-256.0754137879703,-274.3907913155854,-220.23280833254103,-124.77082301909104,-198.5649644463556,-236.7254302170477,-279.6298541503493
2025-12-12 20:55:14.767713,Right,-219.5922663611709,-265.1476781895617,-283.1442701674532,-225.69945020671003,-96.23441614312469,-204.1196986938594,-242.63959572958993,-286.59100696933456
2025-12-12 20:55:14.770696,Right,-216.91999399708584,-262.57526431186125,-280.3686461522011,-229.3139889507438,-144.86535301807453,-198.5240856037126,-237.58919121493818,-280.4517674156232
2025-12-12 20:55:14.773705,Right,-201.45323088834994,-244.75248966587242,-261.79710463120136,-215.32482121139765,-179.29953761663637,-183.0312915837858,-220.1681612820248,-260.3196351064835
2025-12-12 20:55:14.777726,Right,-187.44428038253682,-227.59145438414998,-242.8811277692439,-192.64728240616387,-131.21248877519974,-170.58881161140744,-204.8418133589439,-242.08074901730288
2025-12-12 20:55:14.780743,Right,-183.13347653095843,-222.02757465629838,-235.23667793988716,-183.48125697288197,-83.5028042436752,-166.0511908577173,-200.2335617642966,-235.04086402291432
2025-12-12 20:55:14.783757,Right,-181.96948164259084,-221.71748671669047,-233.1170902431477,-189.07876270945417,-117.57711093459511,-163.10741755238269,-199.71109212306328,-233.4186014427105
2025-12-12 20:55:14.787738,Right,-176.1636173586594,-216.1847072603996,-225.49501517624594,-188.46055535948835,-161.6158935163403,-156.7384293851792,-194.11305871262448,-228.3889199377736
2025-12-12 20:55:14.790791,Right,-166.66414544847794,-204.4378344018478,-210.79052532848436,-172.2336622120347,-123.06351381808054,-147.71807034051744,-183.02536031894851,-217.82416048517916
2025-12-12 20:55:14.793853,Right,-157.61626193736447,-192.21125268831383,-195.32954714249354,-155.73504831519676,-60.66611983961775,-137.2222890771227,-171.3805746808066,-204.79841949406546
2025-12-12 20:55:14.797857,Right,-150.4139899124275,-183.80703456525225,-184.23245181608945,-152.20302036672365,-76.6971141997492,-126.45008185657207,-163.02793485706206,-194.00266124715563
2025-12-12 20:55:14.801844,Right,-145.21288817486493,-179.6407983727986,-177.59141250664834,-152.92534196801716,-129.67654514531023,-119.27556259644916,-159.21812050783774,-188.60074877925217
2025-12-12 20:55:14.806837,Right,-141.28646223340183,-176.59409516799496,-171.5665853995015,-145.08120728842914,-114.64084238521173,-117.03400331444573,-157.64671950781485,-185.73740211548284
2025-12-12 20:55:14.810864,Right,-135.51320348924492,-169.87421558256028,-161.5456658024341,-133.05638048402034,-58.92669798526913,-114.06949426676147,-153.2853037668392,-178.37253685330506
2025-12-12 20:55:14.814886,Right,-126.65169580379734,-158.8177847332554,-147.27613762783585,-128.10173332958948,-67.9826069259725,-106.50609765353147,-144.93435063201468,-165.77496147307102
2025-12-12 20:55:14.818882,Right,-119.8768751634052,-149.7096385314362,-134.63430770428386,-128.75051839690423,-124.45224655146012,-100.579307942593,-138.51317176618613,-156.62211892567575
2025-12-12 20:55:14.822920,Right,-119.94484894920606,-147.5067098516738,-128.30366585595766,-126.0509792334633,-117.69425517594209,-102.75355341017712,-138.26324021531036,-155.80632278969279
2025-12-12 20:55:14.827913,Right,-121.44093980552861,-146.62944174808217,-123.81838528049411,-119.44146222661948,-49.50767076064949,-106.59824114351068,-138.05427075742045,-154.6389474903117
2025-12-12 20:55:14.831942,Right,-114.64054201572435,-137.4620152747375,-113.04752028291114,-113.39072208089055,-31.814079170202604,-100.96029293589527,-128.84179376374232,-142.76899520715233
2025-12-12 20:55:14.835945,Right,-100.42874784168089,-121.02119559049606,-97.04416748322546,-105.42873139039148,-80.02857802246581,-87.48820880742278,-112.4769101383281,-124.45932056335732
2025-12-12 20:55:14.839909,Right,-89.75008513691137,-108.2216179225943,-85.6270938993548,-91.66833839507308,-86.9756611356861,-77.58421282388736,-99.5745824513142,-112.51785359112546
2025-12-12 20:55:14.843979,Right,-87.16040468285792,-103.76663952722447,-82.96897828613874,-78.40350906393724,-24.548868200479774,-73.89676323841559,-94.10358021163847,-109.16424989170628
2025-12-12 20:55:14.848981,Right,-84.87162283115322,-100.3193201511167,-81.94846073887311,-73.89359891792992,4.0866027588781435,-68.01826777507085,-89.51749198470498,-104.77131991606439
2025-12-12 20:55:14.863048,Right,-76.61840137216495,-91.78703087754548,-76.15475804347079,-73.48422748647863,-42.23769913619617,-56.98892469808925,-81.87673555780202,-95.23897232773015
2025-12-12 20:55:14.867063,Right,-67.32438503729645,-82.65285361825954,-69.06453581288224,-67.16017319192179,-66.7126142072957,-48.46649414306739,-76.42798893537838,-87.51743171125418
2025-12-12 20:55:14.870077,Right,-62.93070466193603,-78.61018257046817,-66.04395557922544,-57.5432039067382,-17.47784544309252,-46.01311091257958,-76.60642250365345,-85.35804000031203
2025-12-12 20:55:14.873073,Right,-60.097381467116065,-76.87379054992925,-65.0007941913791,-55.299693615408614,14.648818589776056,-42.06836646143347,-76.38512668653857,-82.60269981861347
2025-12-12 20:55:14.877107,Right,-53.83075755875325,-72.63610594818601,-61.30989053432131,-59.38605717377504,-32.26822865946451,-31.555496082641184,-70.33974857482826,-75.11342102731578
2025-12-12 20:55:14.880108,Right,-47.156903836876154,-67.60619013535324,-55.74148492712993,-57.71239742357284,-72.25937442539725,-20.534570582793094,-62.49697508092504,-67.43782363162609
2025-12-12 20:55:14.883122,Right,-44.30675159645034,-64.68069168081274,-50.89252836012747,-47.23005211673444,-29.40665092022391,-13.81646195583744,-57.59016705391696,-62.18645125965122
2025-12-12 20:55:14.887107,Right,-41.39878435479477,-60.68072031455813,-45.080310948425904,-38.024078361399006,21.399535476142773,-6.202294871298363,-52.67140669020591,-54.41235114389565
2025-12-12 20:55:14.890181,Right,-33.631684255669825,-52.616815828252584,-36.852246982220095,-35.45624036260415,-5.896111157460837,5.514513190515572,-45.31775789760286,-43.07433425390627
2025-12-12 20:55:14.895145,Right,-25.080365079978947,-45.01387836894719,-30.312507882888895,-32.60154551785672,-48.754994226270355,14.247426499583526,-40.54137202410493,-36.319890127982944
2025-12-12 20:55:14.899201,Right,-21.0730217351811,-42.0887177354889,-28.266181513026822,-24.665978359873407,-14.649450378114125,15.251267931977054,-41.40066778025357,-37.67208374233451
2025-12-12 20:55:14.903182,Right,-17.098319206677843,-38.4467283115373,-25.029947870760225,-17.271241462323815,43.789760435262,15.992510817799484,-41.10720456298441,-37.77183461235836
2025-12-12 20:55:14.907252,Right,-6.181526203668909,-27.132038064068183,-14.19871751050232,-13.92825651622843,25.285295229637995,23.968447935883887,-32.82671594177373,-28.28688648401294
2025-12-12 20:55:14.911160,Right,7.479359588091029,-12.498230118420906,0.11000005685491487,-8.397237590397708,-31.694635422405554,33.418417367036454,-21.292919231345877,-15.076466434460599
2025-12-12 20:55:14.915211,Right,13.65520499960985,-4.903901694284286,8.230535302485805,2.3711065030365717,-20.5596382705844,34.72905351553345,-15.687676924921107,-8.166711213765666
2025-12-12 20:55:14.920235,Right,12.292579635541188,-4.939638165931683,9.177187179331668,10.186302088754019,35.85464122725534,30.496869049500674,-15.21845426474465,-5.81414935545763
2025-12-12 20:55:14.924269,Right,13.23717823138577,-3.143868139537517,11.250071774993557,10.020803050836548,30.56167291937163,30.622071237885393,-11.544429711153498,0.780695897876285
2025-12-12 20:55:14.928277,Right,20.30087002395885,4.937727165874094,18.69111796945799,10.639465465559624,-25.931038528244244,36.055272169061936,-2.8879632496391423,11.882267586363014
2025-12-12 20:55:14.932291,Right,26.559459288517246,13.219323038269067,26.194435263139894,19.453900470398366,-26.045395229157293,39.10121650688234,3.9789195372432005,19.50019274337683
2025-12-12 20:55:14.936250,Right,27.369166446122108,16.645630649407394,28.931451905315043,28.259627081482904,31.211927394673694,37.85137752527953,5.788680608937284,21.406943899637554
2025-12-12 20:55:14.941331,Right,27.947492700826842,19.42772869914188,30.693575104058255,27.91672197743901,36.556047621998005,39.09875713731162,8.16290480873431,24.597643296438036
2025-12-12 20:55:14.944329,Right,33.73931718966924,27.064190159057034,37.337368485488696,26.345573435886763,-24.487128473847406,45.764430281473324,15.985563450085465,33.62937603023602
2025-12-12 20:55:14.947343,Right,41.77365345094586,37.22316821015556,47.50680501369061,35.41682352023781,-42.12508330066339,51.89323458875879,25.666226162516978,44.305287262570346
2025-12-12 20:55:14.950352,Right,46.775626901129726,44.05828103609383,55.24074909288902,48.635898885608185,14.094657639710931,53.022526063985424,31.606495042447932,51.47420103306649
2025-12-12 20:55:14.954358,Right,49.016646200674586,46.360695036302786,58.11038594171987,50.31790160440141,38.27442087754025,51.83217943875934,34.24794167498476,55.493849900580244
2025-12-12 20:55:14.957373,Right,51.23244415791123,46.865391922416165,58.313599774992326,41.744668580649886,-15.337841890344862,50.70356562145753,36.85671445596381,58.17469305644045
2025-12-12 20:55:14.962388,Right,53.31419572350569,47.806951639882755,58.88101654552156,39.14769893887569,-48.00343904807232,48.21335873592761,40.04927371794474,59.670388773171
2025-12-12 20:55:14.966424,Right,54.681093585910276,51.002946066029835,62.56100621173391,47.49586448317859,-0.4594851481670048,45.715889920829795,44.14724785691942,62.321268212923314
2025-12-12 20:55:14.970418,Right,57.244304117164575,58.20137844898272,71.13106832691119,55.121143126743846,37.21671161861741,47.82404791205772,50.99352945169085,69.70006748312153
2025-12-12 20:55:14.973424,Right,61.54137931697187,67.6993157795805,82.39899474417325,55.85621861880645,-6.905730512153241,53.38131590097328,59.324607508431654,79.17188386889757
2025-12-12 20:55:14.978443,Right,64.39913260383764,74.63209356772131,91.08281099345186,58.06686900186469,-53.71096373529872,55.18908570554049,64.38774526413181,83.80005098358379
2025-12-12 20:55:14.982450,Right,65.07440071547171,78.0801753323176,95.58570006297668,66.97482080226473,-20.633577609754866,52.12798149518494,65.84469498120598,83.92302380260662
2025-12-12 20:55:14.987470,Right,68.71169537879177,83.44294033935876,100.49749211128801,75.20677050505765,26.47536949510686,52.40213817745098,69.96899429928453,87.90249737660633
2025-12-12 20:55:14.991496,Right,77.37886913908005,92.9670085709513,108.46335295015888,77.22281034277694,-0.9441786761453841,59.464242909962195,79.1446317225491,97.75439036509488
2025-12-12 20:55:14.995437,Right,82.94844574217859,98.99889391721808,113.65041816340818,77.87114741305413,-48.42097301549802,64.07274676919042,85.47204059523938,103.47978876400157
2025-12-12 20:55:14.999512,Right,77.88341831423168,94.58605943519797,110.23117065518454,80.38550725614186,-22.672364361715154,58.65246157589718,82.19103135530895,98.45129002569593
2025-12-12 20:55:15.003525,Right,68.6937602290418,86.45248249823635,103.81762237135263,79.9659499351983,31.844754091420327,50.784680952099734,75.80598904346698,91.60636204638286
2025-12-12 20:55:15.007545,Right,68.00486141740112,87.20654418622144,105.19395330481348,75.96385618444765,15.959823886398226,51.73686077754246,77.48153450223617,94.7530681467615
2025-12-12 20:55:15.012557,Right,76.0100546922622,97.0495724559878,114.26408739684848,76.66560141026275,-37.96016831237648,58.6618840215815,86.23876810677757,104.58252458459174
2025-12-12 20:55:15.015565,Right,81.10688469113666,104.12383643983048,120.00752630717761,83.90306397216045,-26.353764579384006,60.34388870889961,91.16940231445187,108.63592376261659
2025-12-12 20:55:15.018581,Right,78.38405298918224,102.80704233045981,117.01412014976086,86.63554581128119,31.43274720919726,55.86431334455847,88.85416771034943,104.97862707362219
2025-12-12 20:55:15.022577,Right,75.61387950897188,100.38169603297138,112.2900754867951,79.30626888005645,29.33984953649633,54.25715440498607,87.28241848487232,103.3518895349116
2025-12-12 20:55:15.025596,Right,78.64982479556784,103.26955809721403,113.03882984430675,73.08902308799588,-26.17020705025061,57.88924664082879,91.50087565350987,108.29649582348065
2025-12-12 20:55:15.029600,Right,82.8506427654138,107.8965565112594,117.29631682720355,77.984232923729,-27.696453907483374,60.01559568125231,96.86087226098607,114.23045584041392
2025-12-12 20:55:15.032602,Right,83.58948830263398,109.68309988023975,120.92752884529546,86.25579940609896,31.099913299811305,58.60595282012946,99.23659877000318,117.63290280778892
2025-12-12 20:55:15.035607,Right,84.2344465718852,111.06492954482383,125.34012165719105,86.45163102391962,41.86822116425901,59.307791656690824,101.38143772993499,121.67409402224439
2025-12-12 20:55:15.038647,Right,88.05769528143719,115.06696924693097,132.78087621737723,83.26010629372468,-16.16773486341117,63.73426550449949,105.69043537742618,127.40828067562688
2025-12-12 20:55:15.042632,Right,91.46359129855773,118.86367462864655,140.26021744686204,88.11564484414703,-35.93186481637531,66.6876112824757,109.43205130616843,131.10833238829582
2025-12-12 20:55:15.045641,Right,90.99168023777383,119.26937831992473,143.6533207561988,97.73304019125862,19.29309753686539,66.47816400471129,110.54374486105007,131.8546926994277
2025-12-12 20:55:15.049591,Right,89.61795956572132,118.5642433933208,143.63784503027,99.40541862539794,48.93762827667524,67.40944060832408,111.01688751123584,132.73896904523644
2025-12-12 20:55:15.054647,Right,90.89404972565171,120.0588397869742,143.3670758285425,93.78480568017403,4.28137015968241,70.41996815940001,112.098942775875,133.8836681199009
2025-12-12 20:55:15.062627,Right,93.39118000346843,123.10933251356323,143.99116725075874,94.39311989826456,-20.764203586681106,71.52973924716935,112.80356399589073,132.89033351186924
2025-12-12 20:55:15.066701,Right,95.87993205696353,126.78188656520251,145.94931100000758,104.84332281333889,32.35447093022958,71.46996781296548,114.72562901862375,132.30348957842762
2025-12-12 20:55:15.070711,Right,101.30082126219531,132.92070729207262,150.53722394454599,113.86056126198764,73.57219932654698,76.21800895473643,121.17503907673745,137.3508691643874
2025-12-12 20:55:15.074705,Right,109.69402172510308,140.6587388478838,156.07124543848477,114.90864138683901,29.69544354440586,84.86167790143372,129.33677610451377,145.1359757721002
2025-12-12 20:55:15.079731,Right,113.92395034525907,143.76031754730138,156.88810433855542,114.34099406171117,-18.72408725684363,87.73640208929237,130.95081441008733,146.0058759944477
2025-12-12 20:55:15.083748,Right,109.53723382557655,139.32261615936295,150.9836767982415,116.18615221703294,14.946929879195523,81.53335712940384,124.58921901505528,138.5666658408918
2025-12-12 20:55:15.087771,Right,102.78232714634942,133.59289157958847,144.28093044397247,114.54375852585144,65.35814104528254,75.63154183297956,119.30137264251971,133.000046608111
2025-12-12 20:55:15.091870,Right,101.53779619856869,133.13399137744273,142.47979074220348,107.42878937066052,39.590359207104484,77.20134566031993,121.25734548715991,135.2623044265565
2025-12-12 20:55:15.095844,Right,103.90520852752525,135.4003249162779,143.0969300679717,103.68794916202751,-10.003966550742916,80.4888408911429,124.93169738295546,138.59636250300537
2025-12-12 20:55:15.099871,Right,103.53525071219337,134.48072754861641,140.79947644422646,107.77851912817277,13.498973301211663,78.2215836972955,123.1477865363413,136.25214859171683
2025-12-12 20:55:15.102871,Right,101.29497441831336,131.5622223389364,136.56592516186356,110.81287834050454,68.3615876733893,74.09774021149133,118.46706310415902,132.5444097854488
2025-12-12 20:55:15.106863,Right,102.55474720396887,131.94874221826467,135.1489588903205,106.13124716692255,52.43512227201427,75.04963845297607,117.59737267655873,133.9455955775993
2025-12-12 20:55:15.109854,Right,106.09111345768906,134.71682901097665,136.07483156626404,101.23821123650123,-4.582115323686594,78.43292332141573,119.867281172621,137.51643874763977
2025-12-12 20:55:15.112858,Right,105.74857506125409,134.13151046881103,134.5407548892108,103.76454916378134,3.998701903910842,77.3778952557841,119.68950522753585,137.1109646802215
2025-12-12 20:55:15.116859,Right,102.04801141635835,130.28684681819868,130.56538560739136,107.54552538519056,62.33519946378874,73.90011514971775,117.37066012939613,135.08491891219455
2025-12-12 20:55:15.121817,Right,101.92444872176566,129.24631752524874,129.5240927604027,104.59348517649778,61.718961653830775,75.02122926416632,118.09552422928391,137.77701138718112
2025-12-12 20:55:15.125900,Right,106.35707873151841,132.08802024603938,132.5573472778633,100.10178472159896,4.289507856527052,79.0919290305028,121.25656572736625,142.95111356044072
2025-12-12 20:55:15.129939,Right,108.24633992253803,132.73693566831935,133.99264714684978,102.1626016181981,-0.4779960490832309,78.24371973115922,120.53958071563102,142.54476588362013
2025-12-12 20:55:15.133964,Right,104.70531035607564,128.6524447480042,130.7111499090679,105.9813313952618,59.46600167714132,72.95780755380838,115.56552578965784,136.76832344818104
2025-12-12 20:55:15.137923,Right,101.81185456168896,125.16845775398542,126.93940341268899,103.01801817613887,75.21153177208726,71.85965033266984,113.69467673735926,134.29669266250858
2025-12-12 20:55:15.141947,Right,103.3940324454743,125.85497127742565,126.31019485784054,97.8701039966254,19.111282067891807,76.52462431159802,117.62722812953871,137.7847538680653
2025-12-12 20:55:15.146964,Right,104.62790271623817,126.81612185476115,126.23597479808086,100.54798315903463,-4.038901858041754,79.18670426646713,121.20071057831228,140.85286155046197
2025-12-12 20:55:15.150973,Right,101.86088661506074,124.94609621203563,124.27072868112009,107.92122785375977,48.18847115866447,77.66147419154731,120.87437028097338,140.76191774079052
2025-12-12 20:55:15.153966,Right,99.54641876849928,123.77659943715844,123.12330308169476,108.55890395103779,78.56168252787023,78.93606480123708,120.90663190609484,141.78848995864973
2025-12-12 20:55:15.158939,Right,101.49351649507298,125.96725734755455,124.7452515609184,102.48750338320679,33.083465042792795,84.64617021181039,123.29053359715908,144.1660246262909
2025-12-12 20:55:15.163010,Right,103.46775417788012,127.28788016551698,125.41103725286666,100.19861691616825,1.1663686916508595,86.55391054438223,122.59237279376248,141.67103163643333
2025-12-12 20:55:15.165960,Right,101.26780203465023,124.1160268575768,121.9927936073509,103.3790160716162,46.84760706324687,80.91426971295004,115.73744447299396,133.48850767490512
2025-12-12 20:55:15.170029,Right,99.34079080534866,120.95629228596226,118.59158939871122,103.23319518244534,87.84884082838107,75.77614566158445,109.08273735459079,128.1911839943059
2025-12-12 20:55:15.173043,Right,103.16973535231955,123.26458919509605,120.47061653269338,98.43917335144943,48.77454029286673,78.20612507931946,109.42934851036989,130.87742548520328
2025-12-12 20:55:15.176057,Right,108.46869716380024,127.48857266252162,124.79667840103502,97.76451558462577,1.8161896348465234,83.32693428822677,113.35928891909134,134.90300239613862
2025-12-12 20:55:15.180001,Right,107.3572182534117,126.47321627339988,124.8030819920532,102.32590517471544,31.507974490257766,83.18904302368173,112.8748803724302,132.75613978508045
2025-12-12 20:55:15.183074,Right,101.09405904612504,120.94211547148007,120.39667464690865,101.81635853316402,76.61327506832822,78.97480144492874,107.62617548479466,127.37332792155212
2025-12-12 20:55:15.186068,Right,97.05142514071485,117.1167244049866,117.08543294362607,93.30960329876689,46.00797594960022,76.21938057926309,103.53704812169599,125.30000654049218
2025-12-12 20:55:15.190034,Right,96.3055349168717,115.94046873159823,116.36194363652612,87.95087904139655,-8.272233398503886,74.36474649135198,102.26046435734315,125.48485832836013
2025-12-12 20:55:15.193100,Right,93.9372128478717,113.1954750509176,114.5644286578754,91.59929946463672,13.40150176442694,70.1573182981083,100.38167399170925,123.12653561215848
2025-12-12 20:55:15.197044,Right,89.73361063202901,108.75264299006085,110.77759879647056,94.25625860925356,71.64264274908783,66.49631137993129,97.47824556085106,119.4619642814796
2025-12-12 20:55:15.201114,Right,88.53809201013064,107.07607478182763,108.58564482996007,88.07822122202197,60.202942146257556,67.84471579035744,96.36481633326912,118.73097324700211
2025-12-12 20:55:15.205138,Right,90.0465249347908,108.2937283385545,108.87963725539157,81.0354211164231,2.954045666352613,70.22109388200624,95.78205673508637,119.0579137512832
2025-12-12 20:55:15.210152,Right,88.49952955673507,107.44199720449978,108.15875577140832,81.86667449359084,8.226947542108974,66.788343699096,91.92925936086976,116.10232929920312
2025-12-12 20:55:15.213166,Right,83.78441177119385,103.96462970451103,105.90401975039276,84.98282133386238,66.47476524012382,60.87301199356443,87.52088481083047,112.8504166501225
2025-12-12 20:55:15.216178,Right,82.41815960095846,102.94910859857919,106.00916489367955,82.16930442556622,68.82101803331898,61.33774584665662,89.24439109745435,115.04582500681863
2025-12-12 20:55:15.220191,Right,85.47755312659137,104.96388346081949,108.51914497566759,77.84603582172713,10.932772484549787,67.10557703391532,95.54495425816276,119.33341826635296
2025-12-12 20:55:15.223199,Right,86.12384742556605,104.13158311793813,107.92462599417195,79.78745207151223,1.331840322491189,68.96539423739887,97.4581166509015,117.26399011435569
2025-12-12 20:55:15.226212,Right,81.86040880298242,98.91097481243196,102.49806392515893,83.56677673985541,58.775664359469374,65.43506685679313,92.56915418387507,109.37572093881317
2025-12-12 20:55:15.230205,Right,78.74213130008138,95.34238863023347,97.57584473426687,80.2336369317054,77.27244844456436,64.1359048794402,88.24006383973756,104.1191080972203
2025-12-12 20:55:15.235232,Right,80.05981617650832,96.55243208468892,96.71149423276074,73.31482810433954,23.910325825454493,67.2797571496194,89.23588286101585,103.79848491557641
2025-12-12 20:55:15.242207,Right,81.11188701439823,98.0345737306925,96.90544174812385,73.36056495683442,-0.3695809750643093,68.36266284626618,91.3385131273244,102.65794777974952
2025-12-12 20:55:15.245287,Right,79.38326313391735,96.9172402122349,95.76858999760589,79.51345580635825,49.93919425423519,65.33959315274842,90.67978699909872,99.22954559524078
2025-12-12 20:55:15.248288,Right,80.19675691654265,97.53522366995458,96.55362076323945,81.90561784651072,80.01256204106176,64.6818544609414,90.43745216025854,99.41404037634493
2025-12-12 20:55:15.252283,Right,86.23257080369513,102.42877187076374,101.07443619097467,79.54107648137142,32.70002976421529,67.96105298376642,92.36228808775195,104.20323709899094
2025-12-12 20:55:15.256295,Right,89.86374678267748,105.00817539542913,103.24872164949193,79.59161357270204,-4.051023492123932,66.69136219631764,90.51536491254228,104.86261860773084
2025-12-12 20:55:15.260242,Right,84.1592064400902,98.93243778249598,97.04941700861673,80.93121850116586,38.42574918609898,57.35238234815188,81.62916997357388,96.51897555572214
2025-12-12 20:55:15.264305,Right,75.11065043296549,89.56567609281046,87.32152109476738,75.60412931808969,80.95838394349994,49.87208504091541,73.8015717038943,87.5989869358018
2025-12-12 20:55:15.268335,Right,73.24729120713891,86.87889492238173,84.0257415176311,66.4340693942795,44.651368761587946,52.73170737590408,75.7579332710011,87.64560879208148
2025-12-12 20:55:15.272338,Right,77.75309907906922,90.53675929151359,87.73754255421227,65.61123597694677,-1.1958867567664129,59.81228061769798,83.46930277781212,93.20238003088161
2025-12-12 20:55:15.277343,Right,79.63601164762804,92.16870912053855,90.28692311048508,73.79068772500614,31.307143118116073,61.06093937283731,86.29236397947534,94.93629313394194
2025-12-12 20:55:15.281475,Right,76.90865889861016,89.54462097666692,88.25150317174848,77.51338620462047,83.37508931707998,57.53078720164194,82.1348111279076,92.27820267764037
2025-12-12 20:55:15.284308,Right,74.64842725468043,87.25376015997608,85.37778726493707,71.10263537477294,58.57940857412177,55.82900175213581,77.54481848937576,90.95980430979398
2025-12-12 20:55:15.287314,Right,72.88894043141045,85.52429747194401,82.68703274935251,64.96532312766067,3.011479070140922,55.02404285490047,75.61158241925295,91.34945781980059
2025-12-12 20:55:15.291348,Right,67.00967398812645,79.99983459425857,76.91439561572042,66.4087231518206,19.288254346967733,50.607360197696835,73.36662173760124,89.65383039653534
2025-12-12 20:55:15.294373,Right,58.39817190342001,71.37553699495038,68.45510356960585,67.24067081382964,75.20124973841303,45.35845704942767,69.4896534520376,86.36495508922962
2025-12-12 20:55:15.297393,Right,53.35298492254515,65.07927387047675,61.71218921223772,59.38108009628195,64.62798443401698,44.313878580433084,65.66010631850804,83.76495068817167
2025-12-12 20:55:15.301420,Right,52.36616848911217,62.18145942711271,57.71378237538738,49.99450637464179,5.880025040009059,44.2956470742065,61.786999396106694,79.5006246433768
2025-12-12 20:55:15.304400,Right,49.94892202419578,58.80999843496829,53.418864881881746,48.87893931049621,7.019497524757753,39.5374818424898,57.00185551386676,71.39897410318372
2025-12-12 20:55:15.307385,Right,44.892251510420465,54.3224251967913,48.38176818107604,51.236795581076876,63.91402001691313,32.83370852927328,53.484147583541926,64.06575364433229
2025-12-12 20:55:15.311410,Right,42.19784756944864,52.71681139623979,46.078746746643446,47.45116130170936,68.16478195234231,31.13359207911708,53.60828528672573,62.71981476020301
2025-12-12 20:55:15.314451,Right,43.480889836209826,54.68466191677726,47.32881532688043,41.274135876912624,9.734386681258911,33.93811413421645,55.06965756954742,64.33510627030046
2025-12-12 20:55:15.317471,Right,43.67204148172459,55.354907450964674,48.02751446480397,42.36015642336861,-4.459414664132055,34.8492046444735,53.79278598658857,62.387841572170146
2025-12-12 20:55:15.323455,Right,40.39362164764316,52.72905694245128,46.184911270131124,47.8341300994216,49.152380873885704,32.619330546760466,50.37317577343492,57.585705439705634
2025-12-12 20:55:15.326461,Right,38.499714374309406,51.21740422822768,45.44930729246698,47.8459909571975,66.78772613083856,32.709403988250415,49.30713970234501,55.86245523582329
2025-12-12 20:55:15.330478,Right,40.846419791269,53.118553091946524,47.90851883176947,44.098566718777874,12.613394879394036,37.28040650872572,52.10754114834708,57.30867624943494
2025-12-12 20:55:15.334441,Right,42.63369074120419,53.99204671190819,49.58665836247383,46.088935649371706,-12.520805964297324,41.267631695620366,54.76436789701984,56.17218245257391
2025-12-12 20:55:15.339531,Right,40.22375688860484,50.90313318933477,47.44241046800744,52.33238992805127,41.645086633987376,41.45742961410724,54.15947297531238,51.90795471612364
2025-12-12 20:55:15.343505,Right,37.847439309218316,48.23129702269216,44.940047665295424,52.39177497071796,80.97570601856569,41.53198615052679,53.28684672169038,50.83008827411686
2025-12-12 20:55:15.348521,Right,39.25177342721145,49.81673621776281,45.69508701979066,46.009673790002125,41.01270987727912,42.940373948789784,54.43167557823472,54.41987559813424
2025-12-12 20:55:15.352550,Right,39.97051035873301,51.66946602065582,46.909706750215264,43.35051004245179,3.846070955347386,39.79568671999732,52.70681072604202,55.36823618769995
2025-12-12 20:55:15.355570,Right,35.495205396509846,49.18817136096186,45.00366512979963,46.29969263925159,41.5930107718159,30.2127829031524,45.25394379001227,50.16714946512366
2025-12-12 20:55:15.358574,Right,30.3221621466364,45.633109950329526,42.7403285902692,45.60380082912161,81.20062821566535,22.959870441336534,39.16404882045754,45.76488761763903
2025-12-12 20:55:15.362583,Right,30.35969122457027,45.732747944886796,43.93561990140006,38.27720868545293,43.287191111798165,24.041188395160134,40.01104476262117,46.85535050413455
2025-12-12 20:55:15.365538,Right,32.33840711535595,46.42253710656951,45.54990332532907,32.74387971906981,-6.570632628776366,26.579475552251097,41.50050155703502,47.213753480056766
2025-12-12 20:55:15.369601,Right,29.773727128849714,42.35752801162016,42.56737115110445,33.07600164726318,21.17707252292894,23.44787983270362,37.068831087162835,41.971276589727495
2025-12-12 20:55:15.373611,Right,24.35613631788874,35.962950714238104,37.05182875368337,32.210015556265716,72.81871567077178,19.572934436189826,32.168679292997695,37.49551463391981
2025-12-12 20:55:15.376581,Right,21.911105187638896,33.19087982166093,34.3874448233837,26.066966140191653,51.21252683273633,21.208574626609334,32.79049570688221,38.94139703501423
2025-12-12 20:55:15.381631,Right,21.36575272133632,33.05567666092247,33.78711484387168,21.57462491832848,-3.155712644685991,23.363165996197495,32.107734661898576,38.84216886389186
2025-12-12 20:55:15.385638,Right,17.984678918277496,30.605365102295764,31.092197596095502,24.08758334822778,12.617044132872252,19.571374006627593,23.967137670711963,30.96195249518496
2025-12-12 20:55:15.389588,Right,14.256188425366418,27.26125717225659,28.16937436311855,27.891802628495498,72.59111082216259,14.92100565569126,18.269500343783875,24.660725153415115
2025-12-12 20:55:15.392649,Right,16.608657031218172,28.343716167699313,30.39790884227841,26.9387560118048,70.61652899632463,17.040932387215435,25.899188730632886,30.31819459180406
2025-12-12 20:55:15.398694,Right,23.189262275147485,32.34999718454492,36.61328524867713,25.530755564992432,17.172040090401424,21.597056842103484,38.74222222635581,40.69786459268653
2025-12-12 20:55:15.401682,Right,25.61610772216227,32.430347031579004,40.09689081070246,28.836471819347935,16.98864846714423,19.661689199405373,40.554939873851254,41.67076939086837
2025-12-12 20:55:15.406695,Right,22.378694404862472,27.84451262644143,38.98662763493485,31.535851438806276,71.20297615406162,14.141394248843426,31.564043371065054,33.80856690555811
2025-12-12 20:55:15.410665,Right,20.261304260595352,24.81108565312752,37.96788384244428,27.23543803099892,75.3743957880215,14.732125483889831,26.34862385400629,29.22791611572029
2025-12-12 20:55:15.415727,Right,21.37913168594241,24.96063085331116,38.70121795035084,20.990150665893452,16.300422153552063,19.8948849029548,29.31531258863106,30.750120688113384
2025-12-12 20:55:15.418734,Right,19.384182593319565,22.234189970666193,36.61364060055348,20.31167441388243,-1.7556471270654583,19.01222204406804,30.163254850791418,29.415290666220244
2025-12-12 20:55:15.423746,Right,11.743141519473284,14.206819920509588,30.187265525222756,20.83277141394501,48.67199055045785,10.733707884486648,23.568170833023032,22.189528572373092
2025-12-12 20:55:15.426761,Right,5.191239927124116,7.094031569344224,25.384351722081192,13.92664627909835,66.9702041290002,4.3882928093808005,16.084443176616332,16.270656376640545
2025-12-12 20:55:15.432833,Right,4.211737304198323,5.32680449837062,26.601594204388675,3.3717087047407404,13.313009542987857,3.307280817112769,11.981257398743764,14.400266613389249
2025-12-12 20:55:15.435818,Right,3.7803774470085045,4.9035245722625405,30.350823743952787,0.2312153296370525,-15.111024482888752,0.7716198871348752,6.778005849701003,10.69931599831034
2025-12-12 20:55:15.438775,Right,-0.7468329894763883,1.947233548562508,32.43405729814549,4.332954852754483,35.940279073234706,-5.310087321311585,-0.7746191339101642,4.27481070018257
2025-12-12 20:55:15.441775,Right,-5.070299435625202,0.11008867468626704,35.01380383230571,5.690966042981017,77.14969490734074,-7.256598171457881,-3.1798338184016757,3.3973578558361623
2025-12-12 20:55:15.445831,Right,-4.1438747626234544,3.299780946181272,40.8658839661075,2.60047878723708,42.0473003764273,-2.022977336324402,2.053232339239912,10.611239066813141
2025-12-12 20:55:15.448826,Right,-1.5423290427424945,7.487539363850374,46.018820009208866,3.099717382356175,9.100279756639793,2.3251904145872686,5.508798047012533,16.2248573807301
2025-12-12 20:55:15.452811,Right,-2.658441332532675,7.096883717531455,45.020429944386706,8.309852104721358,51.842074803811556,1.4657080876640975,1.8102149100450333,13.784863693683292
2025-12-12 20:55:15.457844,Right,-4.950328606348194,4.058893994777463,39.18065968956216,9.318762246024562,98.79483604551933,2.9448416600498604,-0.599190700420877,9.978681161257555
2025-12-12 20:55:15.460845,Right,-3.373624300278607,2.9966313910117606,33.019535351297236,3.587880720020621,66.10778850152565,11.781873712287052,5.030199428583728,11.397679286659695
2025-12-12 20:55:15.465881,Right,-0.26268073186656693,2.305748720304109,26.487628659364418,0.20891866981401108,14.647000130746164,20.759351578890346,11.86814066953957,13.010204722551862
2025-12-12 20:55:15.468863,Right,-1.3455629880336346,-2.4145905106852297,17.0543230692856,3.048881188580708,36.97029367524374,22.640777515771333,10.816832775024523,8.113831546492293
2025-12-12 20:55:15.473855,Right,-5.455522559706878,-9.48864282395516,6.782035653523053,2.879376019569463,85.19137162433617,21.66763009659917,3.2383370084062335,0.2620773484086385
2025-12-12 20:55:15.477886,Right,-6.683537080331007,-13.316562590058311,0.8151080803509103,-5.496665902661334,62.04946499477228,24.964720214768022,-3.7752456470698235,-3.703848228949937
2025-12-12 20:55:15.482908,Right,-4.6442614946718095,-13.431128236712539,-0.09311580145003973,-12.300558803530294,5.014852976273687,30.512041449204844,-8.31348555052682,-5.109733062941814
2025-12-12 20:55:15.486906,Right,-3.887370142583677,-13.830880493376753,0.3446229171095183,-9.024977803121146,18.241265509597724,33.040549240089604,-12.677302743933978,-8.459926214025472
2025-12-12 20:55:15.489919,Right,-4.5798260771043715,-14.894108599270112,0.303767018202052,-3.08508606749092,78.40186976442055,34.695487226737896,-16.17256917803752,-11.918237096404482
2025-12-12 20:55:15.494935,Right,-2.577561686783156,-13.638050682937319,0.7735983157253941,-4.303949190303683,76.88466344517656,39.59341975158168,-16.765760368900374,-11.984797993114626
2025-12-12 20:55:15.498951,Right,1.6667605188995367,-11.134921700475388,0.7772615722351475,-7.69286895798723,19.91532270397147,44.11652585529373,-16.462519274602528,-11.754215814347845
2025-12-12 20:55:15.502905,Right,2.5345373163727345,-12.22864295612817,-2.853308205783833,-3.9810004373284755,14.053808882519661,42.465356321728905,-18.674957059476583,-16.302455338278378
2025-12-12 20:55:15.507977,Right,-1.2542189388841507,-17.105572119318822,-9.68093729057,2.302627006873081,65.97138554984849,37.533105356866145,-21.926828682568157,-23.089668727538083
2025-12-12 20:55:15.510975,Right,-4.1150726957348525,-20.008960266590293,-14.646116215502843,1.254101911370526,71.35922932284302,36.73855658721732,-21.810751788412745,-24.90452028153959
2025-12-12 20:55:15.513992,Right,-2.916408826036786,-18.322124331156374,-15.286500071932096,-3.83770784430817,12.55908312016254,39.29088087027776,-19.194089740303752,-21.622083106492937
2025-12-12 20:55:15.518002,Right,-1.642206507953233,-16.520357049637823,-15.402482185978442,-3.003121911875496,-6.412840096680156,37.46478776487493,-19.777129941394378,-20.284751485720335
2025-12-12 20:55:15.520993,Right,-3.4027398944381275,-18.21200207432412,-18.512999168771785,1.3911980957491323,45.79624970975419,30.09149981522205,-24.286622256680857,-22.9351572823507
2025-12-12 20:55:15.525111,Right,-4.896393948474724,-20.462703005476214,-22.275880550321745,-0.76240688595135,67.8829477368563,24.570146423429833,-26.600422266856185,-24.020025209836604
2025-12-12 20:55:15.529031,Right,-3.6747413717712334,-20.23014313110616,-23.5773451888017,-7.94207471088157,14.065193769514735,23.962108242987597,-23.926067272288492,-21.56364444040082
2025-12-12 20:55:15.533082,Right,-3.8501113000711484,-20.203113466974173,-24.288562492623896,-9.451886636859854,-20.48973517966806,22.436910936696222,-21.291647126909083,-20.735827903648897
2025-12-12 20:55:15.537032,Right,-8.407227892705123,-22.820447666894324,-26.81235641456078,-4.962209650424484,22.81641870050953,16.959606049975264,-22.29006436274358,-23.184006741932535
2025-12-12 20:55:15.541079,Right,-12.644751806907152,-24.634815900168178,-28.87258664273395,-4.720858885099005,56.871310718102905,12.94948328738974,-22.942196264932136,-23.146015564147092
2025-12-12 20:55:15.545115,Right,-12.065895438965526,-22.67031731616953,-28.209493678405124,-10.421825016041112,11.972378816484706,13.3263415280162,-19.863393657738925,-18.636351134493452
2025-12-12 20:55:15.550103,Right,-10.335024808988237,-20.55339974895105,-27.771958757657558,-12.235437909872417,-33.83858929987764,12.462311098643113,-17.095846786833135,-16.42617638206866
2025-12-12 20:55:15.553123,Right,-12.187976723704196,-21.980523394347983,-30.670555978238554,-7.136999878923234,-0.5852708999336755,7.031592885519785,-18.698324914850673,-20.54415404178144
2025-12-12 20:55:15.557145,Right,-14.50630730858029,-23.501487549619924,-34.13140673189628,-4.500978734868113,44.86779444253625,2.9588900766611914,-21.27481690941204,-25.328925954934675
2025-12-12 20:55:15.561147,Right,-12.14773093446638,-20.426324733969523,-33.98176030793002,-8.601950558651879,14.774056803642452,4.883252490944869,-20.242492098161165,-25.604547305651067
2025-12-12 20:55:15.566159,Right,-7.620698563136102,-15.347287985638104,-31.739545404547243,-10.623605836859497,-35.659479351117625,7.414371239636239,-17.90893629302809,-24.973336239283526
2025-12-12 20:55:15.571174,Right,-6.922425100508917,-13.912996651062713,-31.70574507175843,-5.453842966609955,-13.209780521694483,4.4855761107792205,-18.717381057185776,-27.798881151942624
2025-12-12 20:55:15.574204,Right,-9.461416997550259,-15.65866189360895,-33.53815549268052,-1.9704196180282452,37.33109605574282,-0.13167947170950356,-20.973220676483834,-30.76825342419579
2025-12-12 20:55:15.578215,Right,-10.458829054639864,-16.274628812019728,-33.74986937595031,-7.157490726998731,16.77781830067397,-0.49475623809121316,-20.451093541083537,-29.568309511249026
2025-12-12 20:55:15.583217,Right,-10.743229422318109,-16.455346493290563,-33.07384624120459,-13.438068712035601,-41.42319832684734,0.03036406368482858,-18.633436670501396,-27.45021905662179
2025-12-12 20:55:15.586168,Right,-15.05933613659181,-20.420589255385494,-35.484859289024826,-12.657761819895313,-31.714223067283456,-4.867500973014103,-19.745978254322836,-29.308328696065473
2025-12-12 20:55:15.591242,Right,-21.800139850616688,-26.60783980772885,-40.051459409329254,-10.365899362310302,26.956247464486296,-11.98174563737848,-22.24197856335104,-32.32142443466455
2025-12-12 20:55:15.596259,Right,-24.25005960132148,-28.690342442727342,-41.23220321195913,-14.343836991523858,25.232113254764045,-13.639921581321687,-21.28765578736511,-31.009913619530835
2025-12-12 20:55:15.600258,Right,-22.53256760898057,-26.538388961907003,-38.42521322230277,-20.04981574276644,-34.54987583682487,-11.522678853001707,-18.3074306078488,-27.96331939511947
2025-12-12 20:55:15.603276,Right,-24.386730098569387,-27.168473290710153,-37.59064629216664,-20.336005522422056,-44.09731896090307,-13.852480443136301,-19.59121601770562,-30.033453331172495
2025-12-12 20:55:15.606268,Right,-32.10113684392968,-32.87798047751221,-41.22196692733996,-19.817064593546093,8.855040614034806,-20.787534989998676,-25.25807861664748,-35.89080763694301
2025-12-12 20:55:15.620263,Right,-38.335238803925265,-37.261913343066226,-44.26126052068503,-25.60147981018872,19.319687618336502,-24.331503477274964,-28.19293806275232,-37.6223258693617
2025-12-12 20:55:15.623307,Right,-38.38664374263249,-36.16549707665854,-43.10258016505395,-31.9607338251667,-36.76440167071905,-22.557406912987062,-25.544381100386545,-34.093332780187666
2025-12-12 20:55:15.626336,Right,-37.18705238188295,-33.9798835223537,-41.30445898531252,-29.121145355927908,-56.91321459246774,-22.116113727937773,-22.590403860799597,-32.007078686134264
2025-12-12 20:55:15.630277,Right,-39.38537521249236,-34.88848201949895,-42.50400584241652,-21.35044040408161,-4.827827127190176,-25.301083153794934,-22.747973156850094,-33.38953851613405
2025-12-12 20:55:15.633344,Right,-41.485240382157826,-35.96991305642041,-44.31683445831732,-20.803754970161663,20.4056702976377,-26.39970576368887,-22.573335760978807,-33.01211254924965
2025-12-12 20:55:15.636355,Right,-39.518514033692554,-33.90542141552396,-43.57618630111392,-26.972023698999692,-30.630775815013322,-23.600516352799787,-19.934204535962635,-29.570178863214096
2025-12-12 20:55:15.639384,Right,-36.55004616968108,-31.398208540513224,-41.927725753856066,-28.297183198712446,-64.6838133294118,-23.036225841738997,-18.637500283039117,-28.659154760716774
2025-12-12 20:55:15.643397,Right,-36.137546395089885,-31.265399169753437,-41.30352809347096,-22.64875882740671,-19.662811684831013,-26.734600123969585,-20.59551012524389,-31.83493037804874
2025-12-12 20:55:15.646392,Right,-35.312621893192045,-30.42759949982792,-38.97723110097286,-19.83639877785754,19.67666170674147,-27.93879998374416,-21.34881150739602,-32.97081632231493
2025-12-12 20:55:15.649415,Right,-30.95659467258338,-25.952652237712755,-32.57519172124012,-22.942279827464517,-19.09586124622274,-23.840696186876812,-18.361711318597372,-29.374274926118233
2025-12-12 20:55:15.653430,Right,-27.029013745002885,-21.52304897074646,-25.52804667124292,-23.36700749985357,-59.66848052266414,-21.691000178555896,-16.397997568772553,-26.786388970853295
2025-12-12 20:55:15.656443,Right,-28.299239300749832,-21.64501412352911,-22.342384099094488,-18.224661199126786,-18.55027097980019,-26.288097452320017,-19.527178091109818,-29.022796116336394
2025-12-12 20:55:15.660450,Right,-31.525466910827163,-23.695724392116972,-21.77508270562248,-16.567751927777863,38.92743621064619,-31.518979815064085,-23.964084302642732,-31.452087739424314
2025-12-12 20:55:15.663459,Right,-30.402571581929806,-22.294986494107434,-19.90922648392734,-22.03576112515657,18.655869674246787,-30.978826990060952,-24.53161309744246,-29.977655688922823
2025-12-12 20:55:15.666460,Right,-26.315176578165847,-18.895270554963645,-17.901901161785645,-25.222496703627257,-29.435581440338865,-28.68429888495939,-23.412199775557383,-28.92205926353563
2025-12-12 20:55:15.671502,Right,-25.390353422961198,-19.034612909075804,-19.8874914449043,-20.722818052003277,-7.156788421751116,-30.85086560162381,-25.06829259566075,-32.574551162328135
2025-12-12 20:55:15.675490,Right,-26.735531759350124,-21.604103237303207,-24.185462723071396,-16.683507890404144,47.14381618059451,-33.98493117020189,-26.660781473274255,-35.575144022895984
2025-12-12 20:55:15.679456,Right,-24.241601560683193,-20.630539546087675,-25.063380897860043,-19.454813894975814,30.610033395918435,-31.75101712441574,-22.974604551029188,-31.49219865480336
2025-12-12 20:55:15.683515,Right,-19.07125871045355,-16.845671209983266,-22.888785450581054,-22.440425339340436,-30.35352390592743,-27.61349944606809,-17.212657169642625,-25.001534572205856
2025-12-12 20:55:15.686538,Right,-18.885389577193564,-17.096836000931944,-23.81788531098573,-19.536138954852504,-27.960715005523525,-29.00075045691301,-17.004685079384217,-24.91070999168005
2025-12-12 20:55:15.689484,Right,-24.68348930234788,-22.513567574424087,-29.412426315058838,-17.673366384282417,26.64804702830952,-33.91376534079427,-22.34320815432875,-30.181213043804746
2025-12-12 20:55:15.693564,Right,-29.16827278382334,-26.904575737789855,-34.56015390164248,-24.32671245205711,25.003205709603208,-34.8264183725114,-26.471729181241244,-33.243585256095685
2025-12-12 20:55:15.696548,Right,-29.054189065729588,-27.45477661397308,-36.352156944034505,-32.520466216381465,-35.922687891532405,-32.328006205563725,-27.191055774157576,-33.115728748402034
2025-12-12 20:55:15.700531,Right,-28.80653431225437,-27.936632188564545,-37.50596064526326,-31.67128689288802,-48.676628848963446,-33.04907227116564,-28.277012967446353,-34.470000207998964
2025-12-12 20:55:15.705583,Right,-30.182992347268737,-29.697113114598324,-39.30368668832671,-25.21704561844308,3.3842706992327294,-35.95916626037433,-29.89338050268634,-36.27241732492257
2025-12-12 20:55:15.709606,Right,-28.560069092938647,-28.77523969275353,-38.81498098628799,-23.45247122834553,15.978767808126577,-33.53953689153059,-27.43010272065294,-33.01765994580637
2025-12-12 20:55:15.713565,Right,-23.189747576332593,-24.897950384314754,-35.98511558303289,-25.497852717729984,-38.74896458441435,-26.226720799841132,-21.318894293122867,-26.54576454959897
2025-12-12 20:55:15.716651,Right,-20.877455972047755,-24.181409938493744,-35.9911379459154,-23.15608516181601,-58.32753482891712,-22.825641322153388,-18.464299405910424,-24.99379128547298
2025-12-12 20:55:15.720638,Right,-24.63157265323025,-28.89917197074101,-40.796280616319564,-18.03423364739865,-2.2866425692081975,-25.53537429885546,-21.327981720103708,-29.301844289992005
2025-12-12 20:55:15.724633,Right,-27.969972878563567,-32.87903932359768,-45.06265010983043,-19.225395500241575,28.94654339139379,-26.82806475642792,-24.27135136135621,-31.92529525752616
2025-12-12 20:55:15.730647,Right,-26.094126379397494,-31.65640645333042,-44.6444157937367,-26.01658258090174,-21.862373970565386,-23.722470545329998,-23.96462610814342,-30.501057896894054
2025-12-12 20:55:15.734606,Right,-24.014936442123144,-29.65460683258425,-43.080116942859604,-28.595501155454258,-63.55562513172481,-23.2591190185085,-24.9522836958713,-31.561022429537843
2025-12-12 20:55:15.738694,Right,-27.15774478289677,-32.019030150127946,-45.0225609371264,-26.077200057683513,-25.539169390925963,-29.366090759504004,-30.670665152392758,-37.93244582180341
2025-12-12 20:55:15.742664,Right,-31.807343841999682,-36.03620378652704,-48.68127450789325,-28.064016587282822,14.204707139935635,-35.40116350808967,-36.856345078675076,-43.4026924133359
2025-12-12 20:55:15.746685,Right,-32.2825409635152,-36.922489269629295,-50.17617913179856,-36.271548174008785,-21.7263262242559,-35.92782279271705,-39.11880354944151,-44.04141124118905
2025-12-12 20:55:15.750687,Right,-30.8852896469798,-36.467734400466725,-50.75298977950297,-40.501867869796115,-65.07835145966237,-35.71433175789207,-40.166051801497815,-44.62788074905984
2025-12-12 20:55:15.753711,Right,-32.19925997007522,-38.42777353426936,-53.26763138832757,-36.83109648069512,-31.984609345126955,-39.407604922576866,-43.260112498093804,-48.26344492773205
2025-12-12 20:55:15.783772,Right,-33.09852967473853,-39.97357248025946,-55.202579088669154,-34.356002367901965,17.025134709816484,-41.92628092889572,-44.664458760431444,-49.123325130662124
2025-12-12 20:55:15.786770,Right,-28.16551327007255,-36.30953010317171,-52.37552517543372,-38.17693202342343,-11.546651634525915,-38.03953371186071,-40.18583924455015,-42.795248291280586
2025-12-12 20:55:15.789833,Right,-20.89847929943062,-30.412579817828373,-47.14062984852353,-40.49989104656561,-69.03673071013327,-32.96198520145117,-34.19885537213122,-35.62432244487718
2025-12-12 20:55:15.793821,Right,-19.41907450112194,-29.364697268800228,-45.712577291211346,-36.16040019824868,-54.09690536380367,-33.87958612330476,-33.645016556896735,-35.26513925296604
2025-12-12 20:55:15.796839,Right,-23.563585602340027,-33.020354507287266,-48.552650939440355,-32.845404096988204,-0.3625707130340743,-37.75482162834305,-36.73284808945027,-38.566516827260784
2025-12-12 20:55:15.799833,Right,-25.834783372363745,-34.779717299796175,-50.249229484805255,-36.34450141368143,-12.113275874769897,-37.29098767216419,-36.43845532414707,-38.01740968221566
2025-12-12 20:55:15.802846,Right,-23.69568833136873,-32.495975002828345,-48.45026935680653,-38.50400471998728,-68.91229563986417,-33.53086221565536,-32.17489122709958,-34.31222821411211
2025-12-12 20:55:15.806872,Right,-21.533363008995366,-30.16991962157772,-46.05880259076366,-31.255520178572624,-64.70408305045567,-32.22040748310246,-28.92195456643094,-32.593425731087336
2025-12-12 20:55:15.809862,Right,-20.99911725194397,-29.368949479641742,-44.67368184370571,-21.79684880132845,-7.625758548922022,-32.00727660044504,-27.424315352465783,-31.70636749520054
2025-12-12 20:55:15.812883,Right,-18.948408374497376,-27.574506864162686,-42.82361278387543,-21.034733083943138,-5.856028871865419,-27.2967496072597,-24.441201882196765,-27.7536489511549
2025-12-12 20:55:15.816886,Right,-15.665403494720522,-25.28647372288833,-41.146629181690514,-25.679500630430994,-65.2881136556025,-20.10248328340822,-21.11531363033282,-23.927317037363537
2025-12-12 20:55:15.819888,Right,-15.917896699960693,-26.562405544580542,-42.76502296164108,-25.858430555039376,-77.49949509122962,-17.977294134238036,-22.215550340166374,-26.31753959353955
2025-12-12 20:55:15.823909,Right,-19.66671906269039,-30.917647682210372,-46.99446029406681,-23.168331345063052,-21.394347114968696,-21.020224857056746,-26.92772208202223,-32.483355182972446
2025-12-12 20:55:15.826910,Right,-20.114069202376413,-31.948993051257276,-48.33230051868304,-25.482116932726058,-2.600166165801056,-21.49678788392339,-28.41769325234054,-33.99978569220548
2025-12-12 20:55:15.829918,Right,-14.718608531198697,-27.269648625704576,-44.6515110481414,-29.86167089032824,-57.04250076458993,-17.3276348460422,-24.600507201772416,-30.01182463328587
2025-12-12 20:55:15.833930,Right,-10.301123875447956,-23.1813364143527,-41.26937207306037,-27.49965754740697,-84.83891757953825,-15.561401306957123,-21.93737974808755,-28.678932978684315
2025-12-12 20:55:15.836936,Right,-12.061416774136887,-24.837185185322596,-42.71625739177398,-21.546923559457355,-37.37820345466025,-19.60679391562735,-24.922367098850373,-33.472797439397254
2025-12-12 20:55:15.839953,Right,-15.40636473485938,-28.49466266768286,-45.85674123906938,-23.238318320101826,-7.829553302421118,-23.695847884460818,-29.384055254347913,-38.172951193169865
2025-12-12 20:55:15.843960,Right,-14.829851572183543,-28.971829864167375,-46.03313890827121,-31.99764966290968,-56.239627548871795,-24.376541558740428,-30.860848994481785,-38.66543297810131
2025-12-12 20:55:15.846960,Right,-13.012751957117871,-27.897415332357923,-44.42082163205487,-35.58370083196496,-96.80591790933249,-26.42232240836165,-31.75232377195789,-39.13633740537625
2025-12-12 20:55:15.849921,Right,-14.161338966936455,-28.47801750752842,-43.999195414289716,-30.656440431695955,-58.01959680762957,-31.934658074875188,-34.6843280713947,-42.19912060787465
2025-12-12 20:55:15.853979,Right,-15.537655387932318,-28.391627511642582,-43.294041206958354,-27.203826541001035,-15.425502013145888,-34.51803390148416,-36.150803341763094,-43.056619077666255
2025-12-12 20:55:15.856992,Right,-13.349012821418,-24.760790084495966,-40.01309251066414,-29.792944939719746,-48.968448137027735,-30.60693529125274,-33.04016134521953,-38.98725082690362
2025-12-12 20:55:15.861007,Right,-11.387822692784539,-21.524721779795073,-37.30210461781826,-30.900462026933383,-93.26175924230483,-27.06674805003422,-29.6401855351869,-35.80774775358441
2025-12-12 20:55:15.864027,Right,-15.286265923743485,-24.281717992576887,-39.82440615224186,-27.70363760519831,-61.47564017817058,-30.32819382978778,-31.35121058297227,-38.39464713406778
2025-12-12 20:55:15.866960,Right,-21.81821431199205,-30.44577555343858,-45.377661520877155,-28.614874081300513,-10.18648402870167,-35.49149019375909,-35.55150966409565,-42.002438131581584
2025-12-12 20:55:15.871073,Right,-23.1429124944043,-32.57448559038312,-47.35325820901198,-36.288186199795746,-35.178115245100344,-34.73427835153416,-36.05474745635729,-40.453554089413956
2025-12-12 20:55:15.874055,Right,-19.376136526287155,-29.83493189670844,-44.66479281033389,-40.054327813137206,-91.70143225105858,-30.23303351549839,-33.360183187054645,-36.59205660310545
2025-12-12 20:55:15.877021,Right,-17.11138110099637,-27.574718397750985,-41.88810932346678,-33.50791860996833,-75.67948536095355,-28.553711768712674,-32.12229935491632,-35.87424780720903
2025-12-12 20:55:15.880090,Right,-17.232310455590778,-26.9024227219561,-40.30299331982678,-25.64419382606866,-15.87327683075273,-28.00389381232526,-31.367457569438557,-35.52719766788505
2025-12-12 20:55:15.884082,Right,-14.66281040415197,-24.011097819333372,-36.87908033715212,-25.219913867178548,-19.249983303692716,-23.077212108160893,-26.586223358885036,-30.21743731330207
2025-12-12 20:55:15.887109,Right,-9.548830691153853,-19.493240232448443,-32.27484928620106,-26.610249264602317,-72.11589058395475,-16.734640704926278,-19.636018403885828,-23.55553624316235
2025-12-12 20:55:15.890127,Right,-7.868181882371573,-18.616355529615248,-31.22495468595298,-21.99884295490483,-68.17835695629765,-16.089484419215296,-16.81063313685445,-22.71715417529049
2025-12-12 20:55:15.894120,Right,-9.844017048035312,-21.113469735355466,-33.42366398507147,-16.22172454738029,-9.375254255675827,-18.962329505600792,-17.75765142655291,-25.125633156894764
2025-12-12 20:55:15.897126,Right,-8.417194507059321,-20.3273533995889,-32.644329368456965,-16.985399865843647,-2.5652073601886514,-17.121597639736137,-16.17643688932003,-22.43650778324809
2025-12-12 20:55:15.900204,Right,-1.825394310108095,-14.779462906488334,-27.248078998178244,-19.82681957526802,-58.79498243921989,-11.136093170338427,-11.55399536449113,-15.403832913776569
2025-12-12 20:55:15.904157,Right,2.4212727745434677,-11.321187645022292,-23.257343445322476,-16.531993376236642,-71.93878731362929,-9.45633784677193,-10.238473578807316,-12.546078089173534
2025-12-12 20:55:15.907200,Right,-0.20145314847832196,-13.783291400286544,-24.271161330558243,-11.2156769653011,-17.14282372760499,-13.267033024785633,-13.993135940880165,-15.374862776487134
2025-12-12 20:55:15.910165,Right,-4.464116361308697,-17.203880291664973,-26.197104558625142,-13.440801436125184,2.3928009345399914,-14.932811178638076,-17.142482466442743,-17.13355892189429
2025-12-12 20:55:15.915178,Right,-5.4871192038554,-17.18358701530815,-25.479966413258808,-20.607111211393203,-51.781451289622055,-12.553494925334235,-17.10708924138453,-16.1435806331574
2025-12-12 20:55:15.919168,Right,-6.401110088405403,-16.598334616573993,-24.996458657362382,-22.178428236817126,-81.17309225825011,-13.247173119481886,-18.38873590096773,-18.127098540368024
2025-12-12 20:55:15.923198,Right,-10.058325553967734,-18.134739947221533,-27.202741412256728,-18.09940502030804,-33.651946308949846,-19.22725220859502,-22.755029102947447,-23.643307072255993
2025-12-12 20:55:15.927225,Right,-11.781319303401688,-18.115836359349487,-28.439283521969628,-17.78028210579214,0.1562477773259161,-23.143163635395467,-24.667565134375764,-25.256857030319225
2025-12-12 20:55:15.930235,Right,-7.60724696455145,-13.73984171734628,-25.481760206777835,-21.98491270829254,-43.0258511862703,-21.235578788648127,-21.007539435493527,-20.424705696947058
2025-12-12 20:55:15.934247,Right,-2.6863585339560814,-9.835733291889483,-22.050997609825572,-21.66252176582202,-80.92981135723676,-19.57975242496832,-17.050382233559503,-16.255923658965912
2025-12-12 20:55:15.937260,Right,-3.4584320865178597,-11.539871116423456,-22.887083984402125,-15.938340801396407,-40.60968066924397,-22.215810084962868,-17.458495952232624,-17.125707129773218
2025-12-12 20:55:15.940272,Right,-7.083612005968462,-15.459873606414476,-25.8235794377033,-14.874257482217217,3.427537261748512,-23.611700380115508,-18.607106246556214,-17.660562487326388
2025-12-12 20:55:15.944278,Right,-7.180129191943706,-15.696200305239472,-26.255454600192024,-21.05894335651101,-32.59030560174142,-19.558017278635816,-16.152078953091404,-13.842576555769483
2025-12-12 20:55:15.948313,Right,-5.105503342452721,-14.04382032657304,-25.645096459018532,-24.356781791328103,-84.57203665489942,-15.978120638807013,-13.664790917719074,-11.503074395550357
2025-12-12 20:55:15.953248,Right,-6.269505458192725,-15.81805705755687,-28.16282151093037,-19.929611979358015,-58.669650783798716,-18.644015257345018,-16.090385586896446,-16.05345710200345
2025-12-12 20:55:15.956251,Right,-9.248431960982998,-19.365871843343484,-31.775936853948224,-16.348690934551996,-4.587600859485974,-22.422210973061738,-20.02045220026048,-21.994547205555136
2025-12-12 20:55:15.961321,Right,-8.469329328705498,-18.87292864691699,-30.870617540742387,-19.14762487664848,-21.03717180294916,-20.04772691231119,-19.03011773328035,-21.584007841425773
2025-12-12 20:55:15.965348,Right,-5.278397344889527,-15.29831917565025,-26.254364337873994,-20.82727061510377,-71.11556235259195,-14.67574658675585,-14.798460801022884,-17.440153798655956
2025-12-12 20:55:15.969358,Right,-6.10441129364699,-14.972334231046261,-24.1515760103066,-15.792578818509355,-52.64232642787829,-13.53355259008822,-13.88815231119952,-16.87146576179657
2025-12-12 20:55:15.973386,Right,-10.455032502617541,-18.05142078168865,-25.57442508812528,-11.611705763323698,8.941038083692547,-14.688745358285814,-15.981163751981512,-18.85890273666155
2025-12-12 20:55:15.978380,Right,-11.092201421954087,-18.04865279108344,-25.03672158786503,-14.965285708844021,6.279921691464551,-11.399058598952251,-14.961922265778412,-17.255383350558986
2025-12-12 20:55:15.981383,Right,-6.5419699151825625,-13.322717545073829,-20.433619499366614,-18.55091724399972,-50.27962394124188,-5.60124331568295,-10.460808618849114,-12.943863325977873
2025-12-12 20:55:15.985419,Right,-3.0907392066110333,-9.408459085636423,-16.006218381684448,-13.860507881188823,-51.73138537419436,-4.768504933286749,-8.140348382446973,-11.572146741418692
2025-12-12 20:55:15.989417,Right,-3.1982832501089433,-8.614693961564626,-13.953588448370283,-6.664645670643949,7.0166330237843795,-7.723341851196892,-8.775181148550473,-12.071181327708473
2025-12-12 20:55:15.993422,Right,-2.3032779791792564,-6.852754281375383,-11.078168973836,-6.83574032668912,19.02674198364548,-6.578659512022568,-7.4075510681541346,-8.775981142141973
2025-12-12 20:55:15.997489,Right,0.8059657095509465,-3.141663119167788,-6.412308801001927,-11.264960580258048,-33.88298544178542,-1.6844539069934399,-3.917979961461242,-3.2789103500326746
2025-12-12 20:55:16.003474,Right,0.6219174403195211,-2.938506249069178,-4.557731594366487,-10.86077620677679,-47.65365999797359,-1.375168675527675,-4.2819561298019835,-3.005783791850263
2025-12-12 20:55:16.006482,Right,-4.636865445016156,-8.208073840261932,-7.588541171069664,-7.720370398979867,7.8269038964717765,-6.80391995991522,-9.560816964723927,-8.161623000272812
2025-12-12 20:55:16.010493,Right,-8.614704897543561,-12.772175841761054,-10.593028074305039,-10.25572019234096,30.867150063542795,-9.967543526678128,-13.130762815118942,-10.96586864528581
2025-12-12 20:55:16.013498,Right,-7.525383169224369,-12.323404048256634,-9.80243075438193,-16.092362116789445,-22.67698786821711,-8.156541330003165,-11.796469592740323,-9.084418269088928
2025-12-12 20:55:16.016506,Right,-6.59182426915504,-11.161803463695833,-8.669753589485481,-15.609079106343415,-56.61567943825139,-7.927293861112048,-10.733956205545837,-8.89076051452139
2025-12-12 20:55:16.020506,Right,-10.220543591549358,-13.646316628037312,-10.976301455666544,-9.907647771775373,-12.52556546507185,-11.790015980588578,-13.397169321873662,-12.844907505255833
2025-12-12 20:55:16.024535,Right,-13.960995702349464,-16.410912143051974,-14.037804452935234,-9.387560701892653,23.948435302205326,-12.847354355779316,-15.069898488683975,-14.623328066529211
2025-12-12 20:55:16.028549,Right,-12.696566158982023,-15.051667835177795,-13.954282195245469,-14.702315887196164,-14.45278213421625,-7.277604520852037,-11.458379387717287,-10.618316039643105
2025-12-12 20:55:16.032574,Right,-9.57269908514354,-12.03779147293244,-12.285578595721745,-15.037582811983157,-50.87609940157563,-1.362916607349689,-6.056768662219838,-5.992528397986462
2025-12-12 20:55:16.036525,Right,-9.786273360277846,-11.672691764219053,-12.250160994150065,-7.585936558149115,-10.329776287173445,-0.38371900377387647,-3.4990045698614267,-4.774114904885209
2025-12-12 20:55:16.039582,Right,-11.359648489422398,-12.357766611679835,-12.382373391443252,-2.769420430267928,37.61088968287004,-0.09756964462212636,-2.068102488432487,-3.271598079289106
2025-12-12 20:55:16.045579,Right,-9.53704377043141,-10.326933008906053,-9.339754382279352,-5.421733191029489,8.230016990019067,4.206785326348836,1.3857694910075224,1.473130921858683
2025-12-12 20:55:16.049537,Right,-5.958430740587573,-7.240597712978342,-4.34021119109093,-6.630171592616534,-38.95537096804037,8.678329981786192,4.468058138263586,5.0658694571538945
2025-12-12 20:55:16.053611,Right,-5.243209257672788,-7.016928969642322,-1.0572237546621182,-0.9626278808136703,-10.703613245337692,8.57512875948305,3.8446329014805087,4.006817164699896
2025-12-12 20:55:16.057621,Right,-5.519460338140561,-7.692855383233109,1.2945698772200558,3.5491119611488102,44.90995943139387,7.733591128258922,2.5891513161168405,3.326044105244364
2025-12-12 20:55:16.061633,Right,-1.5903092974731408,-4.493615378713002,6.138789225216897,0.8626550246226543,26.676439188560835,11.360114208627238,5.1577853228682216,7.98910183042608
2025-12-12 20:55:16.066600,Right,4.618531372761936,0.7237533296065521,11.906269137347408,-1.849312842312429,-31.486127588590534,15.434108951710186,8.459780975923422,12.945442374595586
2025-12-12 20:55:16.070646,Right,6.804776659349955,2.0124452634554473,13.981756959230552,2.053778534003868,-23.083492879859477,13.481609490863775,6.672135130527749,11.253201555042324
2025-12-12 20:55:16.074674,Right,5.734995288656137,-0.060253862731769914,13.539700527835521,6.218265788862482,34.34019031421121,8.794002298431678,1.9860867686547863,6.556307128386834
2025-12-12 20:55:16.077697,Right,7.553783695204402,0.4729721894618706,16.24446987007832,3.3813784976282477,35.02309382629119,9.218249494429529,1.3541248723759054,6.93090507620218
2025-12-12 20:55:16.082718,Right,11.675006767336527,4.093392305445377,22.360079121106537,-0.8091723326051579,-15.307422426656558,13.716237366017367,4.75136247645969,11.027110817360153
2025-12-12 20:55:16.087810,Right,10.80979449370352,5.083205584380266,26.090228446830224,1.715466706913503,-9.341031031044622,14.82991394536782,5.852125539337067,11.430687413370833
2025-12-12 20:55:16.091779,Right,3.8159319334117754,2.2871199335768324,25.536464511020313,6.4026250849246935,62.67642171734224,12.259748811478573,3.5927118558229267,8.484610166950006
2025-12-12 20:55:16.095745,Right,-1.5271904631881625,1.6891448820351798,25.580426161760442,5.14574972144419,98.56173330954857,12.944016009496181,3.8133149242930813,9.214552458501203
2025-12-12 20:55:16.098828,Right,-1.0921081055457762,5.725076669519694,28.479142049238362,2.306490106934689,80.91594497352781,17.84095290814639,8.239999735416859,13.79937563517251
2025-12-12 20:55:16.101856,Right,-0.14243318560511398,8.659264599664311,29.25626804573676,6.803647210894269,112.88390969378634,20.201458592828203,11.223273952147792,14.877027909750723
2025-12-12 20:55:16.105821,Right,-2.823942048115896,6.528916548897541,24.355669021206722,14.541285176609563,220.09570953142202,18.53600590061933,10.044066616585951,10.863254680038153
2025-12-12 20:55:16.108861,Right,-5.265769803505464,3.4019581573393225,17.684899159458837,14.315060892598012,288.0853831275108,19.531382532876705,9.13603112629562,8.36165634893041
2025-12-12 20:55:16.112816,Right,-3.978073152386969,3.123788069789043,13.626550649694764,7.292169582907718,258.62318958564356,25.456108366149238,10.812102842532113,9.724384105821628
2025-12-12 20:55:16.116851,Right,-2.4081756582945673,2.8223931193842873,10.781650824843211,4.975692072351421,226.00935604803544,30.247059667590293,10.91501118161841,9.612432872427235
2025-12-12 20:55:16.120758,Right,-3.4878560309989552,-0.25227573460142594,7.177910436415459,9.336077451819847,257.90979337109184,31.320025508052822,7.4401740631465145,6.299975468531102
2025-12-12 20:55:16.123816,Right,-3.5954502271315505,-2.9183599627567673,5.211593807959616,10.613693733003494,275.9101191340051,34.00335461420036,4.791537984959973,5.178787774847933
2025-12-12 20:55:16.128766,Right,0.09193601043989474,-2.4747186716986107,6.489789425431354,5.874321420915635,214.80242192120022,40.413969660487965,5.303575158560108,7.725550704760963
2025-12-12 20:55:16.133842,Right,3.1676770536678305,-2.4098505553633913,7.229989999108511,3.910101554167568,156.28193095396546,44.45125328616177,4.478205347401854,7.56507421097831
2025-12-12 20:55:16.136817,Right,1.3942435215062687,-5.874790860626035,4.190778307088294,8.210316411365511,182.8328902815265,42.82065709770541,-0.48804401035908995,2.017004345960686
2025-12-12 20:55:16.140862,Right,-0.6693401178290515,-8.291342022050003,1.4614125684765895,11.092144804860709,224.53929832275162,41.976632173270445,-4.05862120521806,-1.622437321768757
2025-12-12 20:55:16.145845,Right,4.018026966765319,-3.3379702598547283,5.208840228808185,9.937973919721117,187.05872477756316,47.32049204963732,-0.420197953222214,2.740862579837085
2025-12-12 20:55:16.148859,Right,13.100729705847243,6.341787689979384,13.489500741019583,13.029454995939886,124.10139694633384,52.95179208826448,6.531947365630003,9.995012347073498
2025-12-12 20:55:16.152818,Right,17.80427040137988,12.017090224722324,18.19643287697363,22.539528699030598,134.03347151799403,50.98121216234176,8.695633856984387,12.210005896407893
2025-12-12 20:55:16.158873,Right,16.15372852639598,11.18595571621995,16.636273419735517,27.269906953522877,174.36920479061155,44.617690970737385,5.844241578776746,10.709770468478382
2025-12-12 20:55:16.162901,Right,13.802949608294284,8.916161598368944,13.741738008444372,20.675345874803497,140.87285385302857,41.71833296837576,3.8034312559639147,11.285594519874394
2025-12-12 20:55:16.166904,Right,12.834117275724196,7.96107202918256,12.909636453665371,12.580928678560667,63.55077692734267,41.514363151491125,3.70454049718046,13.209311759210323
2025-12-12 20:55:16.170875,Right,9.921430764595243,6.321820940283942,12.439337618754507,13.10632151588652,52.61293244974513,38.75037934747343,2.236480326109813,12.528510986841866
2025-12-12 20:55:16.174963,Right,5.310740598358734,4.217180243788789,11.452180828659039,16.71543144527277,94.87124474877419,35.18961469455644,0.07577023339035804,11.258642101636724
2025-12-12 20:55:16.178952,Right,4.0132095019305325,5.132639202699465,12.15263706402402,14.308233349744114,80.556011066883,35.90413317726416,1.322943168501297,13.851918595139068
2025-12-12 20:55:16.183984,Right,6.897345694176465,8.93915892388759,14.742026818959857,10.457670366566163,8.999736716137704,38.3599414595501,5.593456702583353,18.14944496930366
2025-12-12 20:55:16.186988,Right,8.564397695405887,10.88251214560296,15.941622630318307,13.979269705103434,-11.448007722858165,35.953665673900105,8.249800539062562,18.763098593090035
2025-12-12 20:55:16.189993,Right,6.573681104272964,9.584664174752106,14.992413509735343,20.60779892525352,32.60201834933105,30.316111587220803,8.90874471375173,17.352097194661837
2025-12-12 20:55:16.194001,Right,5.422139551632881,9.649523418798708,15.823852744346368,20.921332089439602,34.28776821811698,29.28654695057776,12.251172619109639,20.327594802474778
2025-12-12 20:55:16.197005,Right,7.665732051667874,13.198122455680277,20.04532211699552,18.019549174554413,-33.0096199189793,32.963753881496814,18.68770660530754,26.968068813504942
2025-12-12 20:55:16.201015,Right,9.021156200032692,15.844385031909042,23.490691536855593,21.41812580574333,-65.13702790167008,33.178021314233774,22.439706063483754,29.92187876521166
2025-12-12 20:55:16.205040,Right,7.070026307845183,15.091321667068769,23.531516067472694,28.790300678236235,-21.668450881534227,27.84878330029096,21.60328014747938,28.07386116547059
2025-12-12 20:55:16.209073,Right,6.5226548753271345,15.123413215917026,23.57109328379738,29.594078880840243,-1.4181726658025582,23.99815003650656,21.47736003467071,27.985088872272172
2025-12-12 20:55:16.212087,Right,10.379749563385303,18.718598366893275,26.24246241556466,24.02489424729174,-57.51620986994385,24.38736605460872,24.737898609524564,31.16375928839625
2025-12-12 20:55:16.217029,Right,13.528119895318014,21.62051721357784,28.212228061089263,22.406968990488167,-98.16416936956375,22.872729589475057,26.69901660645337,31.103274690274702
2025-12-12 20:55:16.222102,Right,11.15295498159685,20.014772462243855,26.257690189009736,26.21727210404788,-58.53749414151389,16.64710002935135,24.281110149204324,25.746170942606113
2025-12-12 20:55:16.226110,Right,7.1856603056539825,17.61768738839237,23.646572208461293,26.299340949215548,-21.958745941905363,12.27393043824486,22.266920058002142,22.45932960160644
2025-12-12 20:55:16.230138,Right,7.721197811695674,19.542249999172782,25.15272454143269,21.512080391250493,-63.74593807411293,14.125362507634236,25.32958253819379,25.983667424530722
2025-12-12 20:55:16.233140,Right,11.09628499988321,23.774171765246138,29.1885659681393,21.978111659896967,-109.862942242813,16.384790058657927,29.97097483671314,30.58481722295255
2025-12-12 20:55:16.237147,Right,11.794910569179592,25.18662088360361,30.837438468442997,29.949051457580936,-74.95006749806635,13.310012744495907,30.74719826841465,30.178160132716584
2025-12-12 20:55:16.241172,Right,10.335048934881343,24.425367366024147,30.077128512988565,34.27708399430412,-22.60598843290063,9.037309046527298,29.370761876169126,27.947037943471514
2025-12-12 20:55:16.247207,Right,11.064690405723923,25.473837503213872,30.32792457263713,29.557460660889774,-48.74026582889928,9.20318612648498,30.299580595772568,28.600019023942878
2025-12-12 20:55:16.250191,Right,12.835646057706072,27.14002198550952,31.02995166909386,24.96062414964399,-104.90616423589381,10.202740500014443,31.693534620524588,28.94191774074352
2025-12-12 20:55:16.254202,Right,11.27147075027824,25.539742418652168,29.243538008086034,27.161307302059868,-90.49820791238744,6.385427925550175,29.315494372927787,25.032051838537882
2025-12-12 20:55:16.258217,Right,8.538598244831519,23.007398585199553,26.832361043991114,29.19326372128853,-40.56466864763934,1.6019945569646552,25.704045601978578,21.390509856384597
2025-12-12 20:55:16.261233,Right,10.724208010351504,25.214692715257115,28.127528068791435,24.961423452074087,-57.671147304696206,2.6012949644564287,26.213471800772822,23.2933806666515
2025-12-12 20:55:16.264251,Right,16.31190740368038,30.579644334000477,31.515856463818636,21.351137937082967,-116.52768411010038,6.072469367641588,28.87899529069182,26.254712843492598
2025-12-12 20:55:16.268245,Right,17.299747315249988,31.6709738046884,30.800556756323203,24.85218155396069,-109.39899101668561,3.7619332592676074,27.401371180698334,23.04143272949659
2025-12-12 20:55:16.272260,Right,12.074315575380751,27.034473212377634,24.926646846084623,28.083301949875022,-48.88487584194081,-3.2825236161261273,22.29403239439125,16.29315128957387
2025-12-12 20:55:16.276228,Right,7.5844465294885595,22.88805663372841,19.487841911606665,22.539631055617065,-47.64106482110947,-6.896289175575248,20.07902832556283,14.16901565362059
2025-12-12 20:55:16.280292,Right,7.490228741413375,22.266843258701556,17.680166101868963,14.627135013430234,-110.40828010033874,-5.662857597979723,22.100863568630302,16.748242384084733
2025-12-12 20:55:16.284320,Right,7.5673375210772065,21.20104316861034,16.625739681308914,14.910531170258764,-125.78809417054435,-5.471175204289068,23.105045616710413,17.24772337646209
2025-12-12 20:55:16.289286,Right,4.96787506988403,17.33163226400211,14.262832681917644,19.44997495883581,-73.02884529661242,-7.807732974263079,21.1551933187111,14.599414927881298
2025-12-12 20:55:16.292364,Right,2.849822116553696,13.910311288607772,13.004233045903675,17.05235856782747,-57.754660256789066,-8.670703197353589,19.990311041430687,13.868820500276343
2025-12-12 20:55:16.297346,Right,2.8393014401335677,12.847275469226588,14.138438123191008,9.345258643556008,-111.32184473554662,-8.588009877287277,20.625453307522548,15.328075937901303
2025-12-12 20:55:16.300324,Right,1.3939145826680033,11.294157065905893,14.688686231747852,7.254476504411286,-130.2775623119669,-12.677707083607856,19.201927040379815,13.892440991683543
2025-12-12 20:55:16.305387,Right,-2.373377802196046,8.353510242490302,13.109806488319009,11.051715608984523,-69.42948135385814,-19.731459084207472,15.135072384789964,9.595634222721856
2025-12-12 20:55:16.309412,Right,-2.749556534792646,8.63129335202757,13.049265692818153,11.16647241690589,-27.788169855761225,-21.532740982755513,13.75122157563601,8.652948743721936
2025-12-12 20:55:16.314442,Right,3.4717581457516644,14.548719080383307,17.210721635179652,7.201522304065293,-66.66905407386366,-15.862185794188463,17.5258912117788,12.43671134383112
2025-12-12 20:55:16.318429,Right,10.19900205968952,20.552705760117533,21.61953852287843,8.321200958926056,-98.85318819241365,-10.872210720376643,21.197440745097992,14.43919846510471
2025-12-12 20:55:16.322444,Right,10.613648135009498,20.64214588316827,21.091793906329258,14.418048892417573,-54.338338337489404,-12.285275710984934,19.994214907601418,11.269445267644187
2025-12-12 20:55:16.326448,Right,7.253456525113506,17.223371261810826,17.099022105612676,14.790656534969457,-11.763743291710853,-15.096102391955355,17.053302875570807,8.310520694030856
2025-12-12 20:55:16.330484,Right,6.654692426605834,16.287193625168584,14.61475777529995,7.992676346213557,-50.171402169784415,-13.607384751709105,17.256301104614977,9.9205493077352
2025-12-12 20:55:16.334470,Right,8.77885775546929,17.789275840546907,14.045591058653372,5.644565610753489,-99.8013232039084,-11.007442000674928,18.843053923166735,11.92575748384479
2025-12-12 20:55:16.339509,Right,9.41238434222214,17.713446860510885,12.349185403916636,11.915010519365751,-72.10203493959852,-11.914627475749512,17.56608564565613,9.738641262945748
2025-12-12 20:55:16.342503,Right,8.917095068660274,16.232054082807736,9.597068520793982,15.645866769074928,-25.63428138763993,-13.554333837123522,14.554418308409367,6.346190770691464
2025-12-12 20:55:16.346516,Right,10.299372267189028,16.342041992451414,8.133135197371303,9.706712921131839,-56.54317882271425,-12.285390076272051,13.115733674389048,5.480986539972946
2025-12-12 20:55:16.349535,Right,11.639567166119377,16.97788095290889,7.322667255917622,2.9897779538368923,-117.47152453950548,-11.584882484214177,11.936554295312817,4.29622261086115
2025-12-12 20:55:16.352512,Right,9.023778951943314,15.07102251606193,5.2766957234052825,4.257642150674656,-103.69180825520016,-15.15143444982823,8.651396772467706,0.3205895362589217
2025-12-12 20:55:16.355548,Right,4.952090696535379,12.562031530218519,4.038954952040513,7.831882284826861,-46.68264776485739,-18.420329911044973,6.32814849515853,-1.4128205918023014
2025-12-12 20:55:16.360553,Right,5.34843891989658,13.861224618394772,7.005390930149588,6.170795799305779,-54.56041085279139,-15.722712266545386,8.896919034472376,3.559189132414758
2025-12-12 20:55:16.365558,Right,9.388650382908963,17.496279878956557,12.201580422704865,4.298558414073341,-111.36837860333617,-10.822206847678899,13.092611900283373,9.954265525484516
2025-12-12 20:55:16.369512,Right,10.695220993433395,17.74815002642572,14.135866923315916,9.013563054206315,-109.6918330231274,-10.908672076364383,12.683262898994144,10.388035501298873
2025-12-12 20:55:16.372519,Right,8.512660736165344,14.454527085126756,12.336735780438175,14.368297547240218,-53.8086783279432,-13.77792549942933,8.897582099569263,7.455559380927298
2025-12-12 20:55:16.376597,Right,8.769288737481475,13.36197100946083,11.780916221243388,11.713061908856616,-52.07279189649853,-11.83239191737266,8.356331523122208,8.617537948692188
2025-12-12 20:55:16.381645,Right,12.770470130099056,15.717154550704436,13.919442268903367,5.514431022118515,-112.39427246566629,-6.666998870943644,11.335043178074557,12.566113473905716
2025-12-12 20:55:16.385609,Right,14.286851041320915,15.846326982253231,14.120479030294518,4.915369050711888,-124.42663236938824,-7.394544982665138,11.134752897694852,11.440884455496416
2025-12-12 20:55:16.389619,Right,10.835682771656138,11.539516350832855,10.295223231165437,6.906216767987644,-64.22147543499887,-14.638356518161345,6.0076101534032205,5.0080793800298125
2025-12-12 20:55:16.392651,Right,8.708743241319098,8.649885828395782,7.318500072011375,3.117595167594118,-40.22475052977825,-18.717811707368128,2.557971017929958,1.4730494394279958
2025-12-12 20:55:16.396662,Right,12.289802322122341,11.484551449295395,9.233345007327443,-2.5727014363073977,-93.67212960303004,-15.334801895345663,4.735691254973062,3.8705699670936156
