timestamp,label,FC3,C3,CP3,Cz,FCz,FC4,C4,CP4
2025-12-12 20:54:05.277945,Right,2235.541870686787,2658.762648419652,2660.230385385214,2259.1187185031663,1349.630182159419,2034.4939945615424,2398.7661029048104,2850.9247232033476
2025-12-12 20:54:05.294005,Right,12042.509683868157,14319.887384173533,14327.58429044866,12167.922407585851,7277.987748994072,10958.775728724333,12919.719271503702,15354.919132989688
2025-12-12 20:54:05.298015,Right,27605.73764602313,32815.94607243882,32832.71032991972,27884.67051603092,16703.314856143705,25118.963328793034,29608.08586016998,35188.24050429992
2025-12-12 20:54:05.301031,Right,34558.3985836255,41052.745318742745,41071.36462304114,34880.379017863874,20928.067900866205,31439.900724953077,37042.30318018376,44021.60668548976
2025-12-12 20:54:05.306025,Right,23491.37808663638,27848.65671911015,27856.44977505131,23651.14581131454,14214.75393994728,21361.722478454576,25133.84546051998,29864.593034120495
2025-12-12 20:54:05.309065,Right,2854.0860849860474,3275.2052904464363,3266.7395965463074,2764.8431834831135,1691.0662639331713,2576.1649406225915,2966.777424732194,3515.1705743034836
2025-12-12 20:54:05.314048,Right,-12714.194072725746,-15242.161803447118,-15261.6668179853,-12959.724973886594,-7695.157984340767,-11594.553022445034,-13739.851202918915,-16341.510919609049
2025-12-12 20:54:05.317011,Right,-16667.84885623888,-19925.202963924094,-19946.703133228584,-16922.908352532657,-9990.669377034501,-15192.772985968448,-17967.67307475547,-21362.831522218883
2025-12-12 20:54:05.321074,Right,-11915.442675021302,-14252.148840966634,-14269.852796737396,-12101.250573928293,-7088.59672017282,-10864.379573061015,-12852.160801549035,-15278.270763669396
2025-12-12 20:54:05.325074,Right,-5096.904756094271,-6132.084594224696,-6145.4308916402515,-5213.841809668054,-3044.6027041515918,-4655.203574619896,-5527.961995254387,-6571.412785620894
2025-12-12 20:54:05.329115,Right,-1385.6346246075118,-1715.2948542232625,-1726.8819458023645,-1465.9302299132105,-858.1193779871683,-1277.542977445817,-1544.766020123032,-1838.1344955366803
2025-12-12 20:54:05.334128,Right,-2166.9559260833776,-2642.001402219059,-2654.684447950218,-2246.9480475154705,-1292.843270783138,-1990.3944999662926,-2382.4696565447375,-2834.245989886811
2025-12-12 20:54:05.337058,Right,-5263.017089758418,-6319.7688242804725,-6334.772434793995,-5370.556279923767,-3132.4438137810794,-4806.418745738687,-5700.961528127547,-6777.465691309189
2025-12-12 20:54:05.340173,Right,-7243.59603675385,-8669.712196559063,-8686.14883840608,-7375.109713200829,-4378.505795068748,-6603.764322281466,-7820.169553703512,-9295.772950826678
2025-12-12 20:54:05.345148,Right,-6457.8737234065775,-7727.754502164549,-7743.602772563114,-6575.950617222465,-3942.591588885756,-5885.207058395143,-6969.760961201275,-8285.66095964564
2025-12-12 20:54:05.349173,Right,-4241.94712694129,-5083.370792824193,-5097.281577770133,-4319.160287653329,-2555.118374670914,-3868.2325719228247,-4584.487720728852,-5450.615005243453
2025-12-12 20:54:05.353179,Right,-3079.7097245487384,-3694.450619154144,-3706.7464512719307,-3134.8850289714755,-1808.5902273460524,-2809.5223657697206,-3331.6035827890737,-3960.397533577867
2025-12-12 20:54:05.357192,Right,-3767.664781192201,-4509.8472968498245,-4521.677240891615,-3836.232174642384,-2275.556953694788,-3432.7196079238784,-4066.4803950914647,-4833.770984097151
2025-12-12 20:54:05.362233,Right,-4820.880776987644,-5759.015609029448,-5770.635587000987,-4901.8321852514055,-2972.012304945383,-4390.212064573192,-5193.139292941545,-6174.389447973575
2025-12-12 20:54:05.365207,Right,-4611.062935804599,-5501.58181642252,-5511.847615641775,-4673.261224992573,-2803.9200042258017,-4201.332737881108,-4961.629673240357,-5899.783638624474
2025-12-12 20:54:05.368202,Right,-3393.114442319493,-4044.5182596261147,-4052.3725309979636,-3427.7310113065178,-1998.2827126012417,-3093.856663237908,-3647.3320039090468,-4335.874032745836
2025-12-12 20:54:05.372235,Right,-2722.491614212282,-3243.48172217072,-3249.510607816046,-2754.868352494552,-1622.1472613480873,-2481.260312975617,-2923.70496920147,-3473.91299295309
2025-12-12 20:54:05.377264,Right,-3258.757108066464,-3881.146756762406,-3886.923089860007,-3304.828091444331,-2022.9216466584476,-2967.4017861823086,-3498.7573497754056,-4157.351677314378
2025-12-12 20:54:05.381237,Right,-3953.4358576675877,-4704.733523042407,-4710.926812261343,-3996.8987682365114,-2430.936326739844,-3600.5633963574655,-4243.4967062778305,-5042.911343214335
2025-12-12 20:54:05.385293,Right,-3592.8061122116633,-4271.153715139488,-4277.232881457312,-3616.676167856902,-2140.6518630232895,-3273.3853931323392,-3854.2591435137438,-4579.591316545382
2025-12-12 20:54:05.389258,Right,-2474.8699842033675,-2940.146492340369,-2945.798270178493,-2488.255135086947,-1470.092002032674,-2254.972861976945,-2653.826020679204,-3152.3760464002844
2025-12-12 20:54:05.393329,Right,-1941.196517762728,-2307.0296428280417,-2312.835763258394,-1959.4722843437921,-1222.6161990328692,-1768.9983426335966,-2082.6056397163775,-2474.6458152786363
2025-12-12 20:54:05.396274,Right,-2499.0014281381154,-2968.622108978685,-2975.0636170525104,-2519.0527782627614,-1567.4019976271084,-2278.852886300301,-2680.731277959887,-3186.7341506739613
2025-12-12 20:54:05.400355,Right,-3156.007959707058,-3742.6762525297236,-3749.2755856616423,-3167.435952542932,-1891.9426428825827,-2877.5484870224027,-3380.5736818371806,-4017.717474498786
2025-12-12 20:54:05.405365,Right,-2828.7659846375464,-3346.006129430607,-3352.0808071873616,-2832.58196441934,-1674.7691035454627,-2575.5217552531976,-3022.527176017291,-3590.6988433196675
2025-12-12 20:54:05.409419,Right,-1817.4090559923789,-2139.516305556055,-2145.346073410241,-1818.4214376740856,-1129.748692633235,-1649.47438286955,-1932.798772159731,-2295.9904229440726
2025-12-12 20:54:05.413373,Right,-1333.706631721463,-1562.155079160817,-1568.71817875118,-1329.4351844183402,-865.5921064639697,-1207.7782121705823,-1411.5646706732223,-1678.4796657531988
2025-12-12 20:54:05.417416,Right,-1817.7786977988435,-2135.15949581773,-2142.8863067557104,-1808.9147866665153,-1101.810743836104,-1650.0953341496643,-1929.0900818817317,-2294.7020477841143
2025-12-12 20:54:05.420409,Right,-2391.467692049686,-2815.956850600778,-2824.261372159701,-2388.3085312774638,-1420.8198166027432,-2172.3959179251688,-2543.387767457869,-3024.9032509825192
2025-12-12 20:54:05.424403,Right,-2120.216038607876,-2493.943148001679,-2501.864958154387,-2124.554120093002,-1313.1469723823247,-1923.605737052043,-2252.684083093889,-2680.162240566686
2025-12-12 20:54:05.428406,Right,-1264.9506542811869,-1476.3578807667363,-1483.3497060673544,-1260.9484482404077,-830.3954656466376,-1144.291493561701,-1335.582636161591,-1591.4894756337162
2025-12-12 20:54:05.433447,Right,-844.5751806598855,-973.3364375063684,-979.6013994755922,-823.1386807814706,-524.2971106486511,-761.5558356508845,-883.4638435597299,-1054.2638020693557
2025-12-12 20:54:05.437446,Right,-1224.986851467751,-1423.1217339900322,-1429.384593864088,-1201.3804595360998,-717.0784817017848,-1105.5109559310367,-1289.6887280759402,-1536.1615914576687
2025-12-12 20:54:05.441477,Right,-1692.7875886642141,-1979.4345475285081,-1986.2370060670655,-1681.7493998965947,-1052.6235691892798,-1527.9604418568779,-1790.4313640693435,-2131.3382405176526
2025-12-12 20:54:05.445541,Right,-1490.2753510286566,-1738.385798807256,-1745.5637910905061,-1479.362558817491,-977.4186179687968,-1343.560321370489,-1572.0509566414403,-1872.9284667619504
2025-12-12 20:54:05.448528,Right,-810.977672747802,-928.0253479874227,-935.1047546577174,-781.3840810748516,-519.7205342297675,-728.4177711419761,-841.1005931973923,-1004.4784696310526
2025-12-12 20:54:05.452538,Right,-454.08092799270526,-501.9395504196873,-509.0087810228579,-414.92555770184845,-249.32636153005296,-405.3698018108262,-456.6505723997252,-546.5927210500231
2025-12-12 20:54:05.456549,Right,-725.0680153633002,-826.0861976779997,-833.7985109451693,-700.2508699314203,-454.0638787691714,-651.2686682600761,-748.3792875420768,-892.9298924402101
2025-12-12 20:54:05.460477,Right,-1091.1374889137223,-1263.1743944681948,-1271.7608858693857,-1079.9760801447555,-738.4404120327672,-984.9299847929506,-1142.7784926753957,-1362.2885203973856
2025-12-12 20:54:05.465538,Right,-957.0006180155324,-1100.9277265603887,-1109.8157888760325,-936.6088653444313,-627.3510056886007,-865.4659781805822,-997.6911941275466,-1189.417427175562
2025-12-12 20:54:05.469548,Right,-437.689949101652,-478.973207576666,-487.7068228435237,-402.02241698186845,-247.38407394097885,-393.21550126804505,-437.0374821453588,-520.9886888789479
2025-12-12 20:54:05.473516,Right,-134.5638844575733,-117.8032937522512,-126.72331362904515,-101.53253605682403,-84.8264983643312,-113.86684235278517,-109.69499178812839,-130.5021097237477
2025-12-12 20:54:05.476591,Right,-310.79437009518733,-328.73630200407933,-338.24470388749614,-287.71447509061545,-257.5147708825534,-271.6579277118435,-298.6983902371139,-355.4699058679398
2025-12-12 20:54:05.480530,Right,-589.042171355919,-657.460114888323,-667.1975691917469,-560.2933971499442,-408.88866888941266,-526.4113398574991,-596.2519706398016,-709.0713745913818
2025-12-12 20:54:05.484640,Right,-504.7012405594578,-552.2963615296176,-561.7448982810602,-461.7606317603495,-282.9269194204826,-451.90773918211926,-503.30575076601235,-596.7307339577237
2025-12-12 20:54:05.488636,Right,-112.03157124342397,-83.89369120338233,-93.3707349129254,-68.9812269518734,-45.25749310560059,-94.06720960821258,-81.44498098065378,-93.80764967639698
2025-12-12 20:54:05.493591,Right,144.97019007400377,218.67973659810377,208.3179868120351,177.2798744009342,41.869260359497275,140.60381320456509,191.47903971426422,229.5272392455372
2025-12-12 20:54:05.497644,Right,48.53379821754061,101.69535903068027,90.13130759767955,80.20331981012714,-19.60791339559364,50.7992956484959,85.05129942341591,101.01983882189961
2025-12-12 20:54:05.500607,Right,-143.95491646180744,-126.40113737373031,-138.65081563175772,-103.31298330190475,-61.599620044464245,-126.92934298855835,-121.84858575492399,-145.10075088663143
2025-12-12 20:54:05.504665,Right,-95.1219749719603,-67.90087786287768,-80.18091857989202,-54.26891214653733,-11.744843045657035,-82.21653958637035,-69.03065757075092,-81.34243461160804
2025-12-12 20:54:05.508679,Right,170.3642592295655,246.02771037991624,233.9562064404745,203.310603775637,84.39949739258736,160.833998785296,214.9284181366238,255.89613831671886
2025-12-12 20:54:05.512698,Right,356.6192843396857,466.6906879609742,454.9534719487274,391.9895947843761,174.6242585489381,330.244272258642,414.4214930998278,491.7344342094584
2025-12-12 20:54:05.516714,Right,318.42605762365565,423.0685826315166,412.13826561716996,366.25803818974964,218.58708166232827,296.03533054293075,375.91244156369066,445.87523121941194
2025-12-12 20:54:05.520696,Right,211.41151975312823,297.12270103016726,287.6024244900873,261.58779788835795,191.1624334713597,203.1008303674862,264.6713496055304,314.7485786666387
2025-12-12 20:54:05.525757,Right,232.34599208535383,321.0625840745997,313.253782532418,272.37606580384454,148.60871891154397,227.971745370196,288.9949049783536,344.02493518582196
2025-12-12 20:54:05.528737,Right,372.47279067191994,487.48547127330676,481.40852167856065,410.3109159125015,194.7111977279019,357.1638868852242,439.96036290185293,523.2240681683616
2025-12-12 20:54:05.532764,Right,490.27616309572477,629.7457555466099,625.2291387581208,538.6023906900227,317.5885277739508,461.637162356099,567.382144499963,675.7266842444369
2025-12-12 20:54:05.536754,Right,517.3125536623993,662.542569135403,659.0486029023014,567.8212444798555,374.2602521617373,483.65820586269547,596.5216692077811,712.2953962208121
2025-12-12 20:54:05.540757,Right,499.8880870533758,638.0346044347389,634.8420946186816,536.4512883531279,306.6979984701029,466.86224124365253,575.0750918315316,687.0826602343004
2025-12-12 20:54:05.544795,Right,497.6810384588025,631.0912296843599,628.0235964294407,525.513432420441,244.44177249418863,462.83247144016786,569.108991642599,678.310089912964
2025-12-12 20:54:05.548790,Right,531.3470551621285,670.9426898807869,668.5989491880755,568.5503864325874,301.5235138051794,490.0789328207902,604.4862745556748,719.3410163325607
2025-12-12 20:54:05.553831,Right,602.8966331773263,757.831211577577,756.7953496038099,649.4154762799153,401.4655133096967,553.833681302378,682.6379405439366,813.2269978326513
2025-12-12 20:54:05.556832,Right,690.3253027212922,860.6976677802159,860.8677378208959,730.3096083044074,420.13555538409855,634.5510008925921,775.8260392228258,925.3145328810206
2025-12-12 20:54:05.561831,Right,734.156769704714,909.2760551209212,910.305525980948,765.6382003564504,383.71277820994146,674.0982295341091,819.3312888682703,977.3986492457916
2025-12-12 20:54:05.564865,Right,700.598854930955,867.2425009611179,869.2923828382627,737.2400622547138,388.6381974800024,640.3986461454188,780.1839122653473,931.4307505003526
2025-12-12 20:54:05.568867,Right,655.5433423453942,812.8569600821938,816.5151506140828,699.0732594147557,426.77381473232526,597.4486665063305,730.9138265041984,874.1898381793872
2025-12-12 20:54:05.574914,Right,702.5706326487707,866.2910910720238,871.9421621708898,739.2123316602665,438.5041336217546,641.6960501055,781.0718898123596,934.0558946706587
2025-12-12 20:54:05.577904,Right,833.4130567304092,1018.5886937690666,1026.1249812061433,861.0436608942109,452.0927827973501,762.0018097828724,921.0067456042161,1098.5390042138752
2025-12-12 20:54:05.581914,Right,913.5693930711132,1113.5920444726944,1122.5982514325297,947.365218188439,512.535194923461,833.2669774954556,1007.9618634171784,1200.0331255110214
2025-12-12 20:54:05.584920,Right,857.2268983173999,1048.7408021515002,1058.7307850652141,902.0066170572536,549.736993615632,780.658921131806,949.8591709730681,1131.004372160649
2025-12-12 20:54:05.587937,Right,756.8391842758283,929.6189882286126,940.2236823355779,798.0298957935302,489.57910821202677,691.5751762424479,843.2587752172258,1004.8592588691972
2025-12-12 20:54:05.592933,Right,770.9529926785035,944.4531457676785,955.7081134089967,802.1054162104847,428.71694344683783,707.7044601471862,857.5277966506546,1020.9652317949804
2025-12-12 20:54:05.596998,Right,909.9173517170129,1109.796984047629,1122.1454552968498,945.4944951727521,503.6302312396001,834.8458191840909,1006.3857311673928,1196.6851784026949
2025-12-12 20:54:05.600969,Right,1013.0533304654527,1235.1293565059314,1248.8179597894195,1061.4834725619294,633.0570436445996,928.4575857029995,1118.5414841226302,1330.3383586787386
2025-12-12 20:54:05.604978,Right,957.4232067090925,1169.5572005994618,1184.2525180637604,1004.035476072575,614.0070933410316,880.0970199976582,1059.5233507341472,1261.0290230766404
2025-12-12 20:54:05.609020,Right,824.6359972596401,1008.5567799780983,1023.8960800805362,857.2157896762947,463.73664387955796,762.6585771918762,915.3530573719181,1088.7590083532268
2025-12-12 20:54:05.612989,Right,801.272273767856,978.354843903915,994.5551889509661,832.0076881563291,421.23753674083855,742.1777877487475,888.4427813802613,1054.949541078182
2025-12-12 20:54:05.616045,Right,934.5623911705334,1137.3826903767185,1154.8986421733862,977.7087940078927,564.8839355598902,862.1132784222718,1031.0472286557779,1224.4416829677066
2025-12-12 20:54:05.621038,Right,1060.88612083334,1287.421487267362,1306.2147226691013,1106.6138528509764,676.0570943438215,976.7256323676556,1165.3796867345227,1386.0946178727318
2025-12-12 20:54:05.624974,Right,1013.9774307287298,1228.546681278618,1247.9916388088604,1045.9531372949714,588.103462142637,934.02244792704,1111.139224192826,1323.5992543428438
2025-12-12 20:54:05.629027,Right,852.3097716310294,1034.1430786713026,1053.4845944353146,876.4954945957288,447.04948483081535,783.8501185670029,933.2705693895696,1114.1017378771212
2025-12-12 20:54:05.633037,Right,794.7062683077529,967.4470196486218,986.2084169702139,827.2468223005999,466.1627276072395,726.2459477480734,869.3700309827691,1041.7070079199038
2025-12-12 20:54:05.637058,Right,927.0517933925148,1126.9957015209366,1145.1735494919121,964.7873612601543,597.9910889469902,844.135336905485,1010.5657315717544,1213.8556366716512
2025-12-12 20:54:05.640067,Right,1073.2880074782297,1299.2865743805887,1317.438463382423,1100.9688242096454,642.2162342939992,978.3616464398801,1165.5632165968418,1399.7981651315931
2025-12-12 20:54:05.646086,Right,1029.0234651976498,1243.510527260485,1262.7112957492936,1048.0995861984557,561.4755030799424,938.7850497146137,1115.744700850104,1339.0936110662296
2025-12-12 20:54:05.649109,Right,850.5399328529602,1030.5958861766849,1052.0138514237478,875.4944076196989,493.7119260512991,774.4296898986213,923.4703912056284,1109.3183270585723
2025-12-12 20:54:05.653079,Right,786.0764564385172,954.1603369582444,978.2827546340413,816.4888835161692,515.4416136578657,714.1173291933956,854.0210300963372,1027.7708391298074
2025-12-12 20:54:05.657137,Right,928.477230867953,1120.8336469931528,1147.101227489533,950.0181476894068,569.3928425123449,844.196075405227,1004.3399478081847,1207.4103230326436
2025-12-12 20:54:05.661133,Right,1079.0674162767828,1295.8957847219426,1323.3434410945047,1091.0210053876508,595.8352759096306,981.1112754568458,1161.846956430818,1393.620002140291
2025-12-12 20:54:05.665139,Right,1026.0543740486028,1231.7927688963246,1260.0962407363113,1042.8817907703342,589.7364803773817,930.6996565937297,1102.675623242627,1321.9751902162097
2025-12-12 20:54:05.668190,Right,842.4858399712248,1014.5792840702925,1044.4746593746822,866.6330406992929,551.8372639733134,762.9153735231375,906.188718782505,1088.6828496074304
2025-12-12 20:54:05.672158,Right,777.2789047304541,936.0673669225071,968.9441768440884,795.3323093503714,503.99684022006113,706.4325761939399,837.4068876535166,1007.6911570362281
2025-12-12 20:54:05.676168,Right,903.7247392052086,1083.9244068660773,1121.0763650005683,913.7402108918177,515.3470596794505,824.5982975478983,974.551902230829,1170.3988181657623
2025-12-12 20:54:05.680189,Right,1028.2301629794529,1232.3254544208758,1274.182285235962,1046.2174677996663,598.2822870820528,938.4922126271995,1112.0392526112264,1333.1615063704085
2025-12-12 20:54:05.685201,Right,970.4644970648224,1166.9704974696506,1212.4799062041566,1002.3987390865805,635.3147055141162,886.8929487594869,1056.3195180371404,1266.913140984252
2025-12-12 20:54:05.689158,Right,804.8766967896372,971.9618247912731,1018.7491695815697,835.9364990139147,541.5762199020246,740.3728716828628,883.548817495117,1060.769255174324
2025-12-12 20:54:05.693221,Right,739.9925999620464,894.1128072156571,939.6522355184425,761.6719787560869,434.8025396724697,685.3945754000451,815.1127490492072,976.3561223039869
2025-12-12 20:54:05.696199,Right,832.246753148851,1003.9489952838048,1046.4322785940021,857.0211444624001,477.11669766320847,768.8695602108492,913.29093898274,1089.3741416721605
2025-12-12 20:54:05.700246,Right,929.8788660918362,1121.4383998450357,1159.453715515323,965.4791351859458,600.4864279730245,854.2884956280468,1016.6927082999609,1210.6649086510297
2025-12-12 20:54:05.704264,Right,891.4765062232036,1074.0337024908513,1106.2995913384948,922.6697334083728,594.1749660228379,817.2443787958473,971.6886983900331,1157.132674621651
2025-12-12 20:54:05.708294,Right,764.3832639115863,916.8794979660306,943.0082968904171,777.5762405690039,448.4189991389867,700.8844547220506,828.1287166839465,985.6792477883864
2025-12-12 20:54:05.713291,Right,704.2233395148069,840.1307592010126,861.3400361305103,710.7913977000862,379.9652152300114,645.0544988821493,756.5460739899427,899.068732958287
2025-12-12 20:54:05.717257,Right,768.7314074534224,915.4010797871742,933.9581709024496,784.0676440648967,479.36816999153234,704.5606723806122,822.2639490887523,976.9872644490097
2025-12-12 20:54:05.721346,Right,853.1951420617988,1014.265437356662,1032.2189919266384,869.2922271236312,567.9130855185213,787.2814373172587,911.1394446713384,1083.8635274160188
2025-12-12 20:54:05.724352,Right,832.3419573431602,984.5628043790348,1003.1134969305713,833.4069304076256,498.80464884848334,776.388322395971,885.4956509729382,1054.2145756552927
2025-12-12 20:54:05.728362,Right,719.9547309095506,845.9819900132716,865.6561254283879,711.5720142880455,386.00850187183823,678.3396000742214,760.818134621717,906.3046988809947
2025-12-12 20:54:05.732401,Right,646.6456455645384,757.115631489316,777.9353163493797,645.2267289073206,392.84916373400483,611.3455859308597,679.54581654293,811.1122079819907
2025-12-12 20:54:05.736431,Right,687.0675921200309,803.6614184642676,825.0952732292935,690.4837255661841,470.0995507169282,648.0558566485997,720.8268356426852,862.6823647008277
2025-12-12 20:54:05.740398,Right,762.4173556806054,888.2984752459452,909.4549836926162,756.3323171696393,474.34885374095757,718.5212002146291,798.0032615562668,956.1089878410567
2025-12-12 20:54:05.745402,Right,750.0494186948054,868.063023198396,888.2337881065905,736.5732814876828,413.3646254220512,708.0702176288469,781.0839013369987,936.5578088597395
2025-12-12 20:54:05.748365,Right,651.5993276814697,749.3523855681997,768.3645560478326,645.8454458509805,392.91650320985354,617.3625713902293,675.0541415064363,811.5410166191868
2025-12-12 20:54:05.752434,Right,585.3321268906584,671.1266746982001,689.1254090350121,586.9389315573499,413.68597691727336,557.6764583674958,606.030386567465,730.8868297790177
2025-12-12 20:54:05.757440,Right,616.8086766515626,707.0179179010447,724.0733211429324,610.5103066163138,399.3557932091644,589.7600597839337,640.6016233434202,771.3551011758391
2025-12-12 20:54:05.761545,Right,672.8124249074608,770.822820110945,786.9009611227084,657.071209169575,361.71429205243476,642.4499529098393,699.3400297438493,838.0959913022816
2025-12-12 20:54:05.764539,Right,655.1578809811035,749.6384997323621,764.733757828828,644.9956245473586,367.65546801371966,623.5810671231011,679.3264754335396,811.9091151198372
2025-12-12 20:54:05.768528,Right,577.2192166110035,658.3558274193201,672.3324982849881,575.8139959975379,389.3364994719159,548.9192595208297,595.4097994610202,712.5296268886887
2025-12-12 20:54:05.772534,Right,528.6338601628086,599.112189512467,611.5866561140865,521.0294770476175,351.5409963938873,503.47306473902427,541.3992041358724,649.4255136384163
2025-12-12 20:54:05.776544,Right,542.2606458083028,611.4061885529663,622.1520575266331,523.2077790893381,291.02167661336716,514.7721159601351,552.3902828884311,661.7638415636029
2025-12-12 20:54:05.780521,Right,565.0646224950906,637.1712675215676,646.5681246721651,548.9466805320699,303.29304290539585,531.969434778206,574.9063723251456,686.7397686087061
2025-12-12 20:54:05.784540,Right,549.579258738202,620.9051436278969,629.7201236716937,543.6986906636739,357.7565433590207,514.6155779823894,559.4924434882123,667.6316286281217
2025-12-12 20:54:05.789520,Right,509.7352645531064,574.8026823129039,583.5814490308985,500.67402676551137,337.9366363687441,477.9263324410422,517.9045396514703,618.418158455519
2025-12-12 20:54:05.792555,Right,477.3182133376831,535.1130183539353,543.9919970483752,455.7479501120979,253.79314752027858,447.5732485606568,481.7837732991902,575.8267322443426
2025-12-12 20:54:05.796561,Right,456.2022216283949,510.0505774890771,519.0341631192714,433.7946582888253,233.5963776811259,423.70967363135424,457.50677620165516,548.0879126917571
2025-12-12 20:54:05.800599,Right,438.8857437851839,492.16634354379494,501.2427484258078,425.99487306852825,295.47235536715016,402.39392344048247,439.53342669911217,529.270608856692
2025-12-12 20:54:05.804605,Right,427.7843455139082,480.9134761497844,489.9082309156656,414.1425449223025,312.31738557468634,389.9814693898661,429.04365038732067,518.987433107337
2025-12-12 20:54:05.808661,Right,418.3676127305953,469.42073768528644,477.9957040862646,393.1595574860694,238.1171154002659,380.49556345143355,419.2599133090116,506.8734504742315
2025-12-12 20:54:05.812622,Right,392.3992062988691,439.71334567433223,447.5573994751321,365.97541090275627,185.56641801440855,353.14355929533485,392.17828992183786,472.4058946942678
2025-12-12 20:54:05.817650,Right,350.30838116898667,394.325793702621,401.234411819838,336.3629218392307,218.77253881341312,309.6663591688266,350.2699151901761,421.4672886529006
2025-12-12 20:54:05.820665,Right,323.2990222227527,366.14565141964704,371.8920880658552,314.02874127344694,244.95259294955758,283.0921979509294,325.1826137432363,391.98825092054904
2025-12-12 20:54:05.824661,Right,327.6212828569114,370.7653025777545,375.0874494272284,307.8211950791301,196.1142741116346,287.87627757899463,331.3680166261038,398.6716288208263
2025-12-12 20:54:05.828662,Right,331.6848742349539,373.7349592843093,376.6742819410283,305.70738560450263,152.93329119472764,290.8506450712448,335.87401446781587,401.89930091809947
2025-12-12 20:54:05.832617,Right,299.6472159009427,336.90327632275876,339.0661430117907,281.6896083445754,182.32001720310654,259.1133754384937,303.33463767985813,362.17170579719823
2025-12-12 20:54:05.836688,Right,247.47494737314992,277.79189587337896,280.07833490218036,234.40688016882632,204.68077011371497,211.36098150606267,250.71119285246823,300.62803785246797
2025-12-12 20:54:05.840718,Right,220.9191813324578,247.197603825829,250.3697333196178,199.05549898382742,148.13198033015942,189.77976631419733,224.38965076894965,270.29321875597816
2025-12-12 20:54:05.844709,Right,229.77536484063603,257.79653520695865,262.34718311787583,202.3787026309874,95.5959054682171,198.88381016848143,234.7324306195369,282.0820040605031
2025-12-12 20:54:05.847714,Right,237.71665184258018,268.90137595369015,274.87764517299365,220.30191342451144,134.16021505155368,204.3022802871419,244.94443916797172,293.2362875525141
2025-12-12 20:54:05.851743,Right,214.33868213079404,242.15396422101185,248.76892506866716,205.43475409492385,181.96414385776734,182.389860462863,222.04649565636646,265.08993143809494
2025-12-12 20:54:05.856750,Right,170.60045375698246,187.3113957468886,193.1149496389553,153.07526218041312,128.61328566097654,144.55541866715066,175.08787085965741,207.23004754970316
2025-12-12 20:54:05.860744,Right,139.8158982079476,146.73360756016336,150.55742229835596,111.86454429477453,43.368342143832706,117.1447500026552,140.1410617888905,162.19545295531861
2025-12-12 20:54:05.864781,Right,139.24627164343838,146.3232110068202,147.87996089819353,118.28316255495884,61.23554232902825,114.33320125791943,139.48191327846143,158.12926460651215
2025-12-12 20:54:05.868795,Right,152.92262634052895,166.37728578504175,165.8650082926033,144.87589783448493,140.62617072544526,126.00240746152122,157.16383448871784,176.91645426338073
2025-12-12 20:54:05.872840,Right,146.40645607054466,160.5172117636539,158.11377307842486,136.36793744715396,131.83524933696026,123.23361963353818,152.86854814051185,169.03771622723434
2025-12-12 20:54:05.875857,Right,104.0382927590399,109.04770447185729,105.14085793832783,84.230618929083,39.56840010883752,87.08383417088771,107.24947857635561,110.83979913732037
2025-12-12 20:54:05.879846,Right,55.44246048468631,51.2228004722856,46.81410225573927,37.892309623537585,11.469453431782313,40.13751878926996,53.65940532350214,44.672347093583085
2025-12-12 20:54:05.884886,Right,47.258044245128985,43.5169337920961,39.919936401362065,38.59518122434383,77.46321877959417,27.97386656724848,44.04547416244168,34.62934416043572
2025-12-12 20:54:05.888851,Right,76.81323326868005,79.21766838408075,77.37197557842592,63.879710459150374,105.6648103405605,53.23183906398481,74.78778641967801,74.69411630788818
2025-12-12 20:54:05.892865,Right,82.18850457679946,84.0568100195378,84.30594078986906,56.12480722513283,39.702832322218455,58.47265014855657,79.00462423299905,82.33629679097794
2025-12-12 20:54:05.896880,Right,25.8983235618216,17.508416209369898,19.78477129829116,-0.6396668182569556,-15.19073858129559,5.662490330811124,18.386002274404746,11.898368839523755
2025-12-12 20:54:05.899884,Right,-41.17492277210113,-58.75104448571801,-54.90119716268964,-56.69520797638688,7.790285954601131,-58.2481874388759,-51.85535743739456,-69.54048405779758
2025-12-12 20:54:05.903903,Right,-45.37231839162996,-61.43961024476448,-56.94756417791359,-60.36239260592265,31.03483841905836,-63.24382813053671,-55.47031322756084,-72.04163212137064
2025-12-12 20:54:05.907928,Right,-0.8692893577972427,-9.446608533209655,-5.53357737895567,-27.79181437427178,-4.577861064841272,-23.27325202827342,-9.21205326647032,-17.313673864409793
2025-12-12 20:54:05.911872,Right,5.925446457928047,-1.502996390685439,0.7500236775376834,-23.65628774202196,-34.94246779641253,-19.59566485846881,-2.7665095302509144,-11.282001227198634
2025-12-12 20:54:05.916936,Right,-55.84841877192957,-71.89850471174577,-71.96127473737579,-74.01931350221275,-13.477616457268596,-78.253545785381,-66.49685756425606,-87.82310595246963
2025-12-12 20:54:05.920935,Right,-115.10734147019684,-140.31770767242415,-142.93860212422442,-129.12490031754714,-6.350994753942359,-130.70534974866314,-126.58551533444552,-159.2211736261379
2025-12-12 20:54:05.924987,Right,-105.92766577709699,-132.00001527665881,-136.99713676579995,-131.09421697477228,-54.657883504609345,-118.57625572400866,-116.0649421584967,-147.7740475301398
2025-12-12 20:54:05.927970,Right,-63.39816841381253,-85.30849912384292,-91.94230295039597,-95.2683921319258,-82.06263818431762,-78.87087728426559,-71.69918147000135,-97.06673790467903
2025-12-12 20:54:05.931985,Right,-66.63976173911942,-89.74543422309216,-96.91221648629289,-90.14863083921955,-42.1714231542137,-83.62664913240587,-74.91446742319386,-101.49519745874568
2025-12-12 20:54:05.935933,Right,-123.9917921172455,-156.61459809969529,-163.42143274311093,-141.57710978671093,-22.748370872985106,-135.43093278547167,-134.4021753919369,-170.8003496323654
2025-12-12 20:54:05.940013,Right,-170.24174410896376,-211.72439644657425,-217.85553070469177,-195.98012585143442,-86.57657112617744,-173.73442680813605,-182.5466172483866,-226.88815375888953
2025-12-12 20:54:05.943948,Right,-164.29663592766155,-204.781820883014,-210.26052330507082,-195.5286794349522,-138.74474089904106,-165.86817001482996,-175.43305784653057,-218.72162104045856
2025-12-12 20:54:05.949020,Right,-137.73239166731946,-170.69181948911864,-175.3941173232015,-158.4497979483276,-89.00311125192093,-143.1163800686918,-145.44474954046018,-183.0096913948073
2025-12-12 20:54:05.953028,Right,-140.5285942265764,-171.64223521159147,-175.3438860140741,-151.19281470880378,-26.118787414496182,-147.68520186476235,-147.25684195026406,-183.62349092120712
2025-12-12 20:54:05.956041,Right,-177.11554068002442,-217.14013630447153,-220.08766057441244,-194.95808159081207,-71.001871723769,-180.9760315829335,-187.96099455060903,-231.0125758859067
2025-12-12 20:54:05.960049,Right,-211.89497129929077,-262.72299082500103,-265.7215984925788,-239.92648140755773,-158.21786346992303,-212.35452386677207,-228.01886425635894,-280.09445834924554
2025-12-12 20:54:05.964067,Right,-216.8047875961638,-269.5156794466311,-273.2485238386944,-238.46401966830672,-145.0118090670585,-217.1418214792502,-233.40781599363982,-288.9120911643113
2025-12-12 20:54:05.968018,Right,-199.17666137583728,-246.4352422580414,-251.04214056901787,-208.7977869979277,-62.512479918783356,-199.09821291624758,-211.78675161965657,-264.1309658115024
2025-12-12 20:54:05.972085,Right,-190.92797318015437,-236.44403025925658,-241.82775912529542,-204.1416519821796,-60.479794860468246,-186.57703594429222,-201.56449913565484,-251.81332921567264
2025-12-12 20:54:05.977111,Right,-214.37678758428956,-266.89912006582017,-273.0478720155734,-239.77425361122368,-144.3721238000071,-204.82196622074116,-228.9417618737025,-284.5931995566825
2025-12-12 20:54:05.981127,Right,-253.41688555702058,-314.5417926419177,-321.5696160039806,-278.3110908644667,-173.63760182326587,-242.97238763573841,-274.6137178309873,-338.59985808436613
2025-12-12 20:54:05.984129,Right,-267.0035538625052,-329.73913000932953,-337.9330357978906,-283.019569602322,-114.1290343649489,-260.6426249942524,-293.03832706006506,-358.11118033305684
2025-12-12 20:54:05.988139,Right,-242.8252007757619,-301.722517072194,-311.46890536397405,-262.5351545725425,-87.16679530692909,-242.02487681176717,-272.20392880287545,-330.3014366707648
2025-12-12 20:54:05.992172,Right,-220.92008666071342,-278.90666696592234,-290.25536328414455,-254.22676372759452,-142.48829984575195,-224.32032739030547,-254.7622233467846,-308.72775508937775
2025-12-12 20:54:05.996100,Right,-240.91131925383525,-304.12754636380123,-316.3524280093552,-275.6406873114465,-178.29446244312567,-246.42483491545136,-279.65607782269944,-339.3623242103786
2025-12-12 20:54:06.000179,Right,-282.25704358692747,-351.2867193247075,-363.11201445994084,-305.51400168644614,-139.86992723053118,-287.6739550611819,-322.89214112279296,-390.77537751130876
2025-12-12 20:54:06.005178,Right,-292.8311614803388,-362.3282026271045,-372.7847507808183,-313.5637519364245,-115.64163180420292,-296.4574845861789,-331.2833456469525,-399.1256168805121
2025-12-12 20:54:06.009246,Right,-268.7089476860274,-334.68780628347304,-343.6704481454508,-299.7887084464892,-161.12815307037818,-270.3400050753844,-303.67608275523526,-365.2032086129475
2025-12-12 20:54:06.013204,Right,-259.9508988241432,-324.1953122210398,-332.2113661924668,-293.53384851591545,-194.46277473212103,-259.98272197216284,-292.9783823188627,-352.3880735200946
2025-12-12 20:54:06.016237,Right,-291.34360445901984,-357.893232490198,-365.537085600663,-313.4520657157991,-158.40486303614307,-289.2134540779516,-324.2682533127372,-388.5841131998459
2025-12-12 20:54:06.020250,Right,-324.7542193364352,-394.47720938481507,-402.1994065751787,-341.5400118303369,-132.71848384733312,-320.2783979351807,-358.5021275727777,-427.3804048113525
2025-12-12 20:54:06.024261,Right,-320.6792014723469,-391.0630599517608,-399.18678707419895,-347.16256971244,-179.44356301170774,-316.6476527097111,-355.78379267526907,-423.9017076175078
2025-12-12 20:54:06.028266,Right,-296.11509361254866,-365.31124704616377,-373.9955322863534,-328.6526384893514,-218.17892102165206,-296.7293675453111,-332.9896979018522,-398.65745077771135
2025-12-12 20:54:06.032228,Right,-290.57955127276364,-359.87021323584486,-368.976254162204,-314.71317735099,-176.1383025191608,-296.4526669901097,-329.3832853079948,-395.54313830274623
2025-12-12 20:54:06.037315,Right,-306.27576873553335,-378.3330878863344,-387.44367772730766,-324.85853206028696,-132.1339387332264,-313.2615558205289,-347.0927136782557,-415.6590913766413
2025-12-12 20:54:06.040309,Right,-317.5077531017014,-393.05794786766637,-401.6953661212465,-345.74031631846447,-174.52358009948512,-321.5231063099345,-360.0956035252311,-429.9851715047844
2025-12-12 20:54:06.044340,Right,-317.664749962918,-394.55379680840997,-402.36389798944583,-354.06162044778466,-232.25946914308588,-318.32349281274946,-360.56496881344356,-430.8136200134759
2025-12-12 20:54:06.048362,Right,-320.8730097449734,-396.54161151248263,-403.40244802547386,-348.7957393969409,-200.1065898683155,-318.9153132819338,-361.8809942275402,-432.8917718647863
2025-12-12 20:54:06.052311,Right,-329.4224760279176,-403.67267652018927,-409.80328218481736,-346.7515162740019,-133.16567385513918,-323.2216731645749,-367.79410164948786,-439.60832233942347
2025-12-12 20:54:06.056385,Right,-332.9621545361588,-407.4627482185024,-413.3447124744416,-354.58506153704366,-149.44471544283442,-320.3668707005563,-370.0621995991678,-442.5505761424429
2025-12-12 20:54:06.060416,Right,-334.19632503797766,-409.5566569867078,-415.5418980505783,-362.6126775018056,-216.51258587575285,-316.26306942733936,-371.0703882367816,-445.4468443270889
2025-12-12 20:54:06.064382,Right,-344.45856909640133,-419.04823294177186,-425.04613351629814,-363.6952277497621,-214.2569060816022,-324.3657696102164,-380.0155361019424,-457.0107476094272
2025-12-12 20:54:06.067433,Right,-356.7855803243583,-428.81267794489395,-434.5141517893062,-361.7052374164341,-155.87694652518257,-335.96659215231193,-389.68015345413005,-466.65136011195136
2025-12-12 20:54:06.071432,Right,-353.83754491066793,-423.5979931228794,-428.9734789862996,-360.7824665153166,-158.61111821432132,-332.0254012737423,-385.13489749695873,-458.4222475941642
2025-12-12 20:54:06.076471,Right,-340.89056429523043,-410.24969982908806,-415.63099496572977,-359.7387029717793,-223.1745695718273,-318.99228465516353,-373.180619830091,-443.3056170893251
2025-12-12 20:54:06.080518,Right,-340.4159793353174,-410.55711590033025,-416.2715569520951,-358.9325402127579,-234.15922982647317,-319.83389022544725,-374.67160380556015,-445.85653287760215
2025-12-12 20:54:06.084548,Right,-353.8088729691226,-424.2335190263693,-430.40110310644377,-361.67985414277064,-177.10286458424525,-333.23691431665793,-388.7059344391455,-463.0779575158376
2025-12-12 20:54:06.088524,Right,-358.76057319302345,-428.32184092415264,-434.95470770134125,-365.746244078211,-164.0769091063121,-335.39943173644133,-392.96746082493337,-468.5309132236289
2025-12-12 20:54:06.092522,Right,-347.9212780514499,-416.05864898185246,-422.9928225061158,-363.3017312392476,-221.42256179940887,-322.0541293989518,-381.2682622636785,-455.98552830144763
2025-12-12 20:54:06.097532,Right,-340.8494243133464,-407.848267825786,-414.49534990650136,-354.41540055786027,-239.75096573063638,-315.49937459197827,-373.0530910004163,-447.484963825671
2025-12-12 20:54:06.100530,Right,-349.887210979301,-416.7412882046192,-422.28557738126256,-351.1247967586969,-181.34192978491774,-325.5897629173123,-380.11670326878084,-454.99133024492767
2025-12-12 20:54:06.105553,Right,-361.5210280906758,-429.43509863934014,-433.53817176888697,-360.63166078639915,-154.83422578065074,-335.10706866905093,-389.8054393614875,-464.12052471132483
2025-12-12 20:54:06.108570,Right,-362.6599953583791,-431.6611888658954,-434.83339084812906,-372.68439710495295,-213.01574976035045,-332.001233440591,-389.94638808694435,-462.982703885762
2025-12-12 20:54:06.112565,Right,-360.0893517998047,-428.20442027808167,-431.3708679433912,-372.7681261981488,-250.75376388040604,-326.7200914179557,-386.3179493426578,-459.00340227852575
2025-12-12 20:54:06.116522,Right,-361.2627998885,-426.40295010991395,-430.2349563455209,-362.1545451564016,-198.13953690294875,-327.0443510347395,-385.13301518617664,-458.0096135522472
2025-12-12 20:54:06.119596,Right,-359.4585514581995,-422.4215084435418,-427.1045229192823,-354.8373024930479,-151.87809802865377,-323.8535398967797,-380.89699416724034,-453.17818711465225
2025-12-12 20:54:06.123528,Right,-351.75014216959244,-415.89757301984355,-421.2636294302065,-357.2022248014109,-197.99996379212826,-314.36906797718257,-372.84921644680435,-444.90147650358267
2025-12-12 20:54:06.127598,Right,-349.3268718625768,-416.4624290247448,-422.17628169595264,-360.8091600726475,-252.03885447251378,-312.2107982508023,-371.5530757176457,-445.4642410618253
2025-12-12 20:54:06.131600,Right,-354.68625802587485,-422.6161034672987,-428.46676278149243,-355.59358344762586,-212.91512255408452,-319.48190881934715,-376.6829885172774,-452.4016440646956
2025-12-12 20:54:06.136578,Right,-351.6087835437502,-417.10736621241085,-423.3247364128474,-342.72358278167667,-146.90947670431342,-316.7968063201406,-371.4321092334576,-445.3978922739625
2025-12-12 20:54:06.140631,Right,-335.25853726122295,-398.41847000748385,-405.4994519461179,-332.36020604817895,-164.05224491510307,-298.7812231964199,-353.6126882371027,-423.8893555428367
2025-12-12 20:54:06.146600,Right,-327.3771559750312,-391.2067769470159,-399.2344677982619,-331.8457397753373,-218.80116546468344,-290.10422351013403,-346.6121960650198,-416.3599603738403
2025-12-12 20:54:06.149668,Right,-340.1078613518039,-406.02874092792626,-414.3781190973241,-337.45724869758124,-201.29925477702636,-304.26526926778024,-360.61409602011554,-432.98499681591056
2025-12-12 20:54:06.152644,Right,-349.2843232486048,-414.99895435839426,-422.9443610239541,-337.4256285809097,-142.41978793870658,-315.37680358451325,-369.21124056586996,-441.4433895886177
2025-12-12 20:54:06.155667,Right,-331.3037876399467,-394.1037962088594,-401.60798594052903,-324.9836901294766,-150.97796183096943,-299.14077151654055,-350.06899986660574,-417.1475628087064
2025-12-12 20:54:06.159672,Right,-305.70203166804276,-366.5383278091904,-374.26988253719173,-309.0487697405624,-207.532893718977,-276.5586980381049,-325.5052185521927,-388.1456094504101
2025-12-12 20:54:06.164613,Right,-306.58291120285867,-369.1826015072875,-377.81801424443256,-305.7864803978009,-202.8755126305041,-281.49694106704555,-329.609980332898,-393.4777191610774
2025-12-12 20:54:06.168673,Right,-325.9775044991402,-392.3262913970975,-402.01834614085965,-316.1329047792824,-144.30300818989053,-303.4998145084828,-351.98243005783297,-419.12162249931134
2025-12-12 20:54:06.172697,Right,-325.6609564779792,-393.8603189026471,-404.3422262832755,-321.139762527484,-139.29040001198882,-303.9801120603224,-353.15898186934646,-419.3294412534451
2025-12-12 20:54:06.175701,Right,-299.81605005596066,-366.5564960138872,-377.4783937727334,-307.8537716795108,-190.00946508481866,-279.2465646963101,-327.88596556987613,-389.5674983015051
2025-12-12 20:54:06.179714,Right,-283.6286899347324,-347.6480101577472,-358.6888640827965,-290.0451021416811,-189.8103062127484,-264.21876345417695,-311.62282865599263,-371.0342996685067
2025-12-12 20:54:06.183728,Right,-295.3560248654103,-357.72267634328455,-368.53605228581,-289.3987247488694,-129.06936565838987,-274.14312789106043,-322.2382685672492,-383.111811882467
2025-12-12 20:54:06.187745,Right,-310.05030566686764,-371.4372954167193,-381.6802991303848,-302.54260082752444,-118.06528786168201,-284.07281822460936,-334.81167969165836,-396.7175544183701
2025-12-12 20:54:06.192771,Right,-303.62800395296654,-362.48897686600685,-371.94677851512097,-305.14556581084616,-177.95105394523125,-274.42326892499113,-325.6020561524201,-385.2712998139905
2025-12-12 20:54:06.196714,Right,-287.83419760497054,-342.14179329946637,-350.785314077395,-288.1455438436242,-194.1021982494276,-259.5331082920893,-306.49315734545235,-362.4519160167547
2025-12-12 20:54:06.200827,Right,-282.87378985021496,-333.25087491376325,-341.3436471169116,-270.2283699538093,-127.86993764387444,-256.2553129574517,-298.4076996234944,-351.82107483642176
2025-12-12 20:54:06.203800,Right,-284.36788544640876,-334.2372394442791,-342.628933141008,-268.5258973625023,-93.77727008023066,-256.26811969361734,-298.7853208683664,-351.4972863896983
2025-12-12 20:54:06.208756,Right,-278.4194534790586,-330.510591066326,-340.5031949561089,-274.11353735870216,-151.4194637585315,-247.33213062031427,-294.7497016863199,-348.47283892985433
2025-12-12 20:54:06.212810,Right,-266.94645201123785,-320.5442615101347,-333.00193846214097,-268.3659681598074,-193.91649120900547,-235.59872995695332,-286.5165432365611,-342.2492205866147
2025-12-12 20:54:06.215825,Right,-258.39976571901934,-311.06540081393905,-325.856383563485,-252.14887149672722,-142.42977879114915,-229.55634197918698,-279.9966967734508,-336.630727428128
2025-12-12 20:54:06.221836,Right,-251.4877855210798,-302.9999025797006,-319.4751882685814,-243.4214810943231,-90.08437039068667,-224.56315946549876,-273.9621949312277,-329.18724456988275
2025-12-12 20:54:06.224857,Right,-244.7690629689023,-297.7020136573119,-315.2782156886533,-249.98032435658388,-129.75376259285258,-218.41760059155058,-268.887626103824,-322.63072483451106
2025-12-12 20:54:06.229893,Right,-245.19337654608535,-301.0466299778782,-319.10173248383217,-259.3673415090889,-183.64405651739798,-220.09385225438746,-271.5147982115159,-326.122222376056
2025-12-12 20:54:06.233863,Right,-251.53787866816856,-307.95927017577924,-325.6043912196765,-257.16037536691874,-148.09140545129776,-228.18690417520702,-278.0913078759331,-333.6560086837271
2025-12-12 20:54:06.236880,Right,-247.11666737281485,-300.5120228594169,-316.9806943171425,-243.6879572623875,-83.99042469618144,-223.49879982235143,-271.4095200166339,-323.9668372347951
2025-12-12 20:54:06.239894,Right,-226.68440764589468,-276.59857281902805,-291.8862065105932,-229.58641360944603,-102.21336703398265,-200.7270571734407,-249.0365335146198,-296.0091362769017
2025-12-12 20:54:06.243890,Right,-212.08171751879854,-261.1572569801938,-275.9870526258601,-222.76780683890684,-160.0987441908801,-184.4684800299001,-234.74413825862575,-279.31697505747434
2025-12-12 20:54:06.247852,Right,-218.87083892367082,-268.79109425481874,-283.89290573855396,-221.95601277134847,-145.2144814800704,-191.20296763570514,-242.4788773728069,-288.93410270405
2025-12-12 20:54:06.252930,Right,-226.7407053093193,-276.01513870758936,-291.63478325423785,-218.92941282031825,-84.75911382236518,-198.64185293449555,-249.70907332061324,-296.7310278736986
2025-12-12 20:54:06.256949,Right,-211.25282324873842,-257.318638979923,-273.37616444320884,-207.46263104327954,-90.03768327372381,-181.53487426764332,-232.2727837418206,-275.37130575079937
2025-12-12 20:54:06.259942,Right,-186.65679315355374,-228.75814443652052,-245.110209856648,-191.82382938219234,-145.79019722156227,-155.87735209759558,-205.88777798763476,-244.97368610522244
2025-12-12 20:54:06.263957,Right,-183.29320260102395,-222.64366678730585,-239.0934912567027,-183.11692296515685,-141.2888777097687,-152.7320063499501,-201.24743025470525,-240.68573812185787
2025-12-12 20:54:06.267976,Right,-196.35352146305377,-234.4184416308999,-250.80024472880177,-184.66451938042883,-81.2788335577934,-165.7192529598251,-213.35669806832448,-254.81750196800567
2025-12-12 20:54:06.271926,Right,-194.99451906210743,-232.44375248474535,-248.79184880282264,-186.306217248959,-76.96233278990258,-163.77200571115827,-211.86448078328976,-252.17453265935183
2025-12-12 20:54:06.275994,Right,-175.18278652540175,-212.07420038222335,-228.45852173829917,-178.48863416688982,-133.91114318888867,-145.04543669335544,-192.8587816125946,-229.61660272208974
2025-12-12 20:54:06.281022,Right,-163.84899963671342,-200.1672406566795,-216.39432637870777,-166.50051294191508,-138.54575405933429,-136.75424864300294,-182.02913391502807,-216.80329494469333
2025-12-12 20:54:06.284050,Right,-170.27505371620646,-206.41422155080363,-222.18804769660346,-162.1205050952267,-71.70394346903777,-145.13909481291194,-187.7552424116875,-222.36408778827172
2025-12-12 20:54:06.287015,Right,-171.82875215320382,-208.58655951544642,-224.02514687378425,-164.39910203800537,-47.8747120698099,-146.15982609934872,-188.34651617083,-221.9928777271416
2025-12-12 20:54:06.292067,Right,-155.88764629233629,-193.50184878648724,-209.27465882559773,-160.5434083659784,-102.93076981668128,-129.86715755297337,-172.15810153010534,-204.14137491909787
2025-12-12 20:54:06.296060,Right,-141.02095694182208,-178.34034321899526,-195.1506886857096,-146.77785300265532,-126.44282693683635,-116.69860586326104,-156.75435625668615,-188.48915064556058
2025-12-12 20:54:06.302089,Right,-142.22204589424655,-177.6091594210593,-195.62788426573388,-135.0332689548959,-67.41249894193606,-119.0788077917532,-155.87412712338846,-188.01539719861466
2025-12-12 20:54:06.305084,Right,-145.82907178119058,-178.89801244530827,-197.763425028068,-134.16165809048107,-30.40521930833347,-120.74854127067374,-157.13093401823426,-187.65117203968111
2025-12-12 20:54:06.309109,Right,-137.3114214115194,-169.0499370349571,-188.28657123271842,-137.02740875130985,-81.28217930160463,-109.60544920759276,-148.53575369139435,-175.8110642483225
2025-12-12 20:54:06.312146,Right,-126.60600941150915,-157.76338604505872,-177.12003251316492,-133.26915246719727,-123.81663293048041,-99.62594941613497,-140.04998969554435,-165.28304182062857
2025-12-12 20:54:06.315127,Right,-124.74934893066529,-154.89961593569024,-174.39023957110476,-123.82980565732578,-77.97054380079499,-101.23126704932656,-140.12055547023192,-164.5110398287652
2025-12-12 20:54:06.320140,Right,-120.64138948387699,-149.20296199608129,-168.87664150469936,-115.13477039901773,-28.4041882675956,-99.69498490850674,-136.32827348005958,-158.34856483293697
2025-12-12 20:54:06.324153,Right,-104.74805514339823,-132.22333807090763,-151.82460857299156,-108.37112617085222,-66.48653257347178,-84.95209233643254,-120.42008697154233,-138.62499621283496
2025-12-12 20:54:06.328170,Right,-92.23786855355138,-119.60803613916505,-138.38547865662258,-102.05274920759257,-120.38952464365866,-74.51617436250672,-108.39727199671324,-124.64282090374036
2025-12-12 20:54:06.332160,Right,-96.91279026615666,-124.25485120498342,-141.08697447914165,-97.94355660880683,-89.76716583836242,-82.33911621727748,-113.05997985345311,-129.65545781550463
2025-12-12 20:54:06.336191,Right,-103.39864597981796,-130.12482554733288,-143.92964240687434,-97.0319449181552,-32.498216827953,-90.88082922273315,-118.86142716516042,-134.4565826076432
2025-12-12 20:54:06.340212,Right,-92.02446330274688,-118.04369973595021,-128.14732887240825,-94.18333863263251,-54.281992778211134,-80.43844383343821,-107.74711582326563,-119.60694229480578
2025-12-12 20:54:06.343253,Right,-73.28569195448654,-98.6509935738286,-104.79231425951002,-84.36084086028859,-108.34396224564989,-63.47477345133666,-90.40690094954334,-99.09826905315276
2025-12-12 20:54:06.347252,Right,-69.64768060756614,-93.43189951375825,-95.55798542208504,-71.81151061702985,-80.67188740169513,-61.7450991065125,-86.82711212080903,-94.83460896549514
2025-12-12 20:54:06.352189,Right,-77.2276506931521,-98.21955673862249,-96.47041625715792,-65.08639983198373,-1.3281076331040822,-68.3097090315423,-91.66210843320005,-98.76552380953217
2025-12-12 20:54:06.356200,Right,-75.0114985446562,-93.5067215047311,-88.42000066465698,-64.08626776834717,14.076196816196898,-62.43744697235525,-85.74075498612365,-89.93788739788579
2025-12-12 20:54:06.360288,Right,-62.510046178125776,-80.31787322665332,-73.00295802688925,-60.942521114018746,-16.266009775921702,-47.77673200517893,-70.68883839523187,-72.9299279160332
2025-12-12 20:54:06.364290,Right,-57.26470256166067,-75.91474389645737,-68.13688751589507,-53.527429791342,28.508211341977585,-43.56594568234868,-63.69708244584035,-67.52987513958942
2025-12-12 20:54:06.368297,Right,-59.99503842770355,-79.69274915888673,-73.77313033171231,-48.16132807167014,146.2487977281271,-47.45114738232223,-64.64770615421003,-71.31483345828019
2025-12-12 20:54:06.371311,Right,-53.77883298957022,-73.97383224352961,-72.19878213829361,-47.149013658228796,212.19375448470237,-40.10420798510313,-57.50547034753254,-65.28392953792354
2025-12-12 20:54:06.377345,Right,-37.301155422930606,-57.26929471537005,-60.888781105633825,-43.66983999486547,204.24150593634113,-21.895016775961267,-41.65039699006593,-50.00511332816677
2025-12-12 20:54:06.380323,Right,-28.111507677007467,-46.8915031751967,-55.42647545080399,-33.28707260778174,231.4731684505823,-11.883909669035347,-33.06976921559544,-43.265647505642846
2025-12-12 20:54:06.384344,Right,-29.75335902592633,-46.73814681672957,-58.24196082673734,-21.745172518654726,314.1460929796449,-11.538274131104117,-33.81777372828219,-44.91249317245092
2025-12-12 20:54:06.388356,Right,-26.023790164792445,-42.13596766529372,-54.17940892634215,-16.066201131616253,331.88366064365255,-2.9796448741981294,-29.025066442904063,-37.48661933251424
2025-12-12 20:54:06.392393,Right,-13.560501823492814,-30.924794007150922,-41.51323335303459,-15.05943818227388,243.84357232390903,14.746172460378148,-17.484513811185025,-21.960185206029564
2025-12-12 20:54:06.395421,Right,-9.158436313504353,-29.0230185201508,-37.05742594663752,-13.585751859645825,172.84092199534643,22.07442065369105,-15.570632269838825,-18.227775924257003
2025-12-12 20:54:06.399415,Right,-16.05512976978207,-37.54625191091327,-42.91611031873617,-9.985680666723056,193.18364582108916,17.030660956719657,-24.352189253026154,-25.968384755949955
2025-12-12 20:54:06.403409,Right,-13.917273730563466,-35.24029345641611,-38.62445284507703,-4.580170216679107,210.14327604183927,22.42333542840788,-22.909038404060993,-20.38531346403761
2025-12-12 20:54:06.407394,Right,5.07277542623342,-15.284968227962963,-17.7056394314277,3.3756210533319972,147.14026346834726,45.084171935683116,-4.679886045516469,4.155874343996402
2025-12-12 20:54:06.412504,Right,19.59669137149467,-0.1703227877151221,-2.494655846909154,12.327469162177294,87.62969281364349,61.27787003462436,8.74443051329581,21.184020017506555
2025-12-12 20:54:06.416511,Right,15.427229090273613,-3.9827547415043227,-6.759965245670173,17.58921352852485,111.15976193806273,57.46333695566864,4.388540418702178,16.78387636988191
2025-12-12 20:54:06.420531,Right,10.663000518485205,-7.724452145688701,-11.530552830197848,18.754763111443026,137.77394058383652,53.9305845265626,0.49725522845983505,13.282627451990265
2025-12-12 20:54:06.423517,Right,23.114794991066447,6.870165104162879,1.144176205212716,22.04016013169894,76.16732731170487,67.98583013768075,13.440654832287692,28.749839861062355
2025-12-12 20:54:06.427491,Right,38.22907766018761,24.978821445227368,16.4438787602121,30.357108222378884,-2.8099229790095706,83.35507841111394,28.277843502000906,45.174496720544994
2025-12-12 20:54:06.431553,Right,35.77054981896072,25.727731907420093,14.04407605418237,37.36170859169215,4.319778500299435,80.92075315598049,26.028555104945553,42.19423706445377
2025-12-12 20:54:06.435527,Right,26.36383637180552,19.15428896222147,4.643552765075583,37.639995452336734,41.78379449757631,73.53501608231454,17.683129131881287,34.04902547356323
2025-12-12 20:54:06.439479,Right,32.51170450900099,27.669393160555046,10.918012471549446,37.28809276796528,-0.022197487181983888,82.06741669762414,24.342971165810013,43.81211322991294
2025-12-12 20:54:06.444548,Right,49.58024739875691,47.13185281428741,28.597109815687872,45.30133408092661,-78.34351210278692,97.63990828362876,40.59050234884489,63.028636387054576
2025-12-12 20:54:06.448581,Right,56.07897045748541,56.42875089592417,36.40177175970166,58.27392237185268,-77.39126635159482,98.31584574660519,46.06471972860163,68.36115289863665
2025-12-12 20:54:06.451572,Right,52.02603482469567,55.028836909274105,33.71874786182889,64.81841750745662,-26.009735650470247,88.34791324980324,41.765498597495025,62.32479375766707
2025-12-12 20:54:06.455576,Right,55.109042360127205,59.639262542681536,37.2299659573182,62.83274145357427,-46.005364011158235,88.10231665702304,44.81679419561988,64.44149998630746
2025-12-12 20:54:06.459546,Right,65.2934999736026,70.36804451362696,47.247577903734054,61.06856523544411,-125.4071577306895,95.83127678201708,55.00084038701607,73.90760396412225
2025-12-12 20:54:06.463591,Right,66.00189819963998,72.10247000557138,49.04446248806198,64.38676103122998,-139.55569603966433,93.50308537919773,57.30226289157872,75.079024767183
2025-12-12 20:54:06.467614,Right,57.434473241708474,65.8472421602637,43.64949246117612,68.04871264622489,-82.10068791967933,83.01437376977992,52.76384452320053,71.03460703929886
2025-12-12 20:54:06.472636,Right,56.975565497225034,67.82762759851175,46.73696826538071,68.11539423375507,-76.23177530663088,82.50946639331232,56.613512702984735,77.87053027097136
2025-12-12 20:54:06.476659,Right,66.12700735485123,78.09903054713504,57.838854166533565,67.8642128565989,-145.5437517775281,90.6279395690508,67.74463260464836,91.26847045059549
2025-12-12 20:54:06.479681,Right,67.74725600282545,80.02088539492979,60.306000856740866,70.42888234887505,-171.33017974058748,88.22036198138085,69.5676404426631,92.0738502915774
2025-12-12 20:54:06.483669,Right,60.045766514667775,73.47629226239223,54.16424935517716,73.67793032972259,-114.8065776086587,75.86105855522328,62.64738795584708,83.46358412926202
2025-12-12 20:54:06.487672,Right,62.43756024002505,78.2422402282682,58.97924193475046,76.44189326823107,-89.3223772753554,75.58832620945759,66.82665301837551,88.81802638493537
2025-12-12 20:54:06.491707,Right,79.32599934055179,97.67574158242496,77.76699516171357,81.7160913413536,-148.8736848681292,90.54135082096036,85.29913701469195,109.75773612133344
2025-12-12 20:54:06.495716,Right,89.09009110232,109.8255986355216,88.6667103193322,89.68563607035321,-188.0877691534697,97.20858805575699,96.59152369036747,120.99138522159774
2025-12-12 20:54:06.499725,Right,81.36343864054652,105.1498014802346,82.70181441682507,95.02004311863857,-138.68001547423773,86.67666266371089,91.59733771219908,114.10647954659362
2025-12-12 20:54:06.504746,Right,74.533675222905,102.16686505268444,79.07963923730131,94.74336175155622,-93.89199504753924,79.19775397313788,88.30911338876467,110.90760799140844
2025-12-12 20:54:06.507683,Right,81.02116066146118,111.99115877060103,89.44697636000637,92.44213621827657,-129.87572617817204,85.39649593501235,97.29480860782496,121.97871132587898
2025-12-12 20:54:06.511753,Right,85.46270659934089,118.15056396283762,97.38988913774665,91.59983133289643,-161.07775612050318,87.09384018365381,102.69922641474113,127.82443912324379
2025-12-12 20:54:06.515764,Right,76.19361705918709,109.41675010729523,91.0713497329125,90.96674232684018,-101.4531025790493,73.45710769067955,94.06411839166685,117.51138288366201
2025-12-12 20:54:06.519799,Right,69.95822727759514,103.65233738133247,87.45939263267792,90.04342023703794,-28.297251729032723,63.95150363070934,88.63659135207126,111.83466616804799
2025-12-12 20:54:06.523791,Right,82.27723888532637,116.83789398779481,101.99364554434578,92.84588282171535,-39.5891813163762,73.95392041988816,101.25207267389487,126.4253445972281
2025-12-12 20:54:06.527795,Right,97.4413300123706,133.24423792363086,118.97970261875162,100.81203858842127,-71.10317620210117,85.84702453986392,116.4991436430173,142.06684635359125
2025-12-12 20:54:06.532823,Right,94.02070981552606,131.5545255590696,117.34832560665382,107.1574449601394,-16.95563155488344,79.05403402417869,114.46952216085629,137.12751346231744
2025-12-12 20:54:06.535832,Right,81.35296352208388,120.95298841161457,106.27429378649686,105.72708179752408,70.10681699984707,65.44248515682193,104.4508872504739,124.23364209876672
2025-12-12 20:54:06.539854,Right,82.59886359304437,123.8713972615069,108.05275260983399,101.68836667851474,73.13975320186,67.34598429946163,107.30678764066579,126.59116526028993
2025-12-12 20:54:06.543834,Right,95.5949784941713,137.69887591494648,120.48540977264202,104.69340781995925,24.957188778498676,79.16763369708224,119.7790946031273,138.62401782775396
2025-12-12 20:54:06.547852,Right,100.51553326077192,143.04595660893574,125.28285299605523,114.07863621615797,42.4629864107701,81.04064319083261,123.94477799225297,140.69435821987622
2025-12-12 20:54:06.551875,Right,96.64408180093142,139.68765074893963,123.09815833502216,120.45249406349103,104.94200697328779,76.0855611057359,120.85044101312269,136.52138701558124
2025-12-12 20:54:06.555883,Right,99.90508949251489,143.32994814713675,129.52044662595108,120.56808904936042,92.75590957549866,81.60802671174861,125.5282933465387,143.2401527573511
2025-12-12 20:54:06.559891,Right,109.00759165254203,152.35773486039034,142.21892839234897,120.05746401094439,15.22011382324854,93.06662448578027,135.30474924779628,155.5196217509838
2025-12-12 20:54:06.562901,Right,106.68311021150475,149.7704238075894,143.62030037925433,121.32333863538224,0.1866359040432144,90.76537873841698,133.40881794266897,153.78880801025298
2025-12-12 20:54:06.566925,Right,94.30773101251907,137.28128622534132,135.00051140604774,120.01803712335823,61.73392532666912,77.6021306908915,121.93801876029102,142.0261657238152
2025-12-12 20:54:06.571875,Right,92.62668103847318,135.36284832750243,136.25165682763327,115.23325734194077,77.53973170829704,75.59854661313148,120.46491493140638,142.41146499117167
2025-12-12 20:54:06.575942,Right,104.72284902203319,146.82266513996728,149.77289827325149,112.73927065415774,17.35730234158109,86.02223505499205,130.86136648972752,154.89968346637033
2025-12-12 20:54:06.579965,Right,110.65325910185493,152.29630728249322,156.39240475880797,115.44914102646726,-3.831273318704916,88.17965903204822,134.53898671475326,157.78023169443622
2025-12-12 20:54:06.583974,Right,104.42296124153654,146.45174869825132,151.28369941195706,118.95635280706483,54.27044194782502,79.21478187042521,127.65781100209279,148.68495859683026
2025-12-12 20:54:06.586982,Right,103.76707060993795,146.48026329385175,151.87437851913273,119.48412728746189,77.75759073722293,79.08029034877836,127.59774582600221,148.59416333852278
2025-12-12 20:54:06.591014,Right,114.73801948591426,157.35595122427912,163.14764147133974,119.3320227180593,9.673239506664686,91.20092844841565,138.5754321518907,161.10395287149004
2025-12-12 20:54:06.595028,Right,118.65943062279257,160.53605199497542,166.73340456408914,120.7011307493085,-42.9151664080855,93.78160424187809,141.90797553936136,164.07724842935568
2025-12-12 20:54:06.600043,Right,107.35588605610974,149.0443519926048,155.7993132466363,121.08735532134597,-6.883877762884367,80.03011363470432,130.74396682696533,150.89031602126488
2025-12-12 20:54:06.604042,Right,101.16343118364603,143.5341161880351,150.65048678217863,119.7264463853353,23.01909649989102,73.2259339993252,124.96604445191042,144.81559083571483
2025-12-12 20:54:06.608051,Right,113.98458401434618,156.7673891493032,163.46215167012997,121.22696049125807,-36.29323395641404,86.46352668977488,136.50574696010153,157.85713179045706
2025-12-12 20:54:06.612006,Right,127.78849751656526,169.912620756033,175.33948788077396,127.01300222007558,-99.23365480775828,99.04428329277289,147.3271019574895,168.5363271332899
2025-12-12 20:54:06.615067,Right,123.46445982552541,164.50608352980635,168.53079968444945,130.28316689416533,-70.188629491342,92.71111509820912,140.84858023047855,159.7738889674074
2025-12-12 20:54:06.619027,Right,112.62692895840155,152.91343460186908,156.24854250895442,125.92304689979937,-20.78304554433271,82.04018675305997,130.07240070468106,148.03075312754663
2025-12-12 20:54:06.623103,Right,114.36818519279768,154.03149710696016,157.6100944179634,119.60721514116449,-54.854212018239195,85.76751884427358,132.75464533510967,152.0348541248095
2025-12-12 20:54:06.627118,Right,121.55586507101543,160.62399455967534,165.0391609876533,119.76034592065844,-114.75475921033649,93.95488243309956,140.67014823379577,160.13135019330366
2025-12-12 20:54:06.632128,Right,117.7682622919383,156.83268412835605,162.27934594613907,125.16110244794982,-91.44392421358498,89.94711645630014,137.96901641877776,154.99979514860024
2025-12-12 20:54:06.636158,Right,110.66405806556577,150.24900224650628,156.53656611131737,128.91567942139227,-31.41569507525128,83.3872864931036,132.01361594803166,147.38829496875405
2025-12-12 20:54:06.641208,Right,117.46405360706558,156.85545787919546,163.4025096629921,130.0247010789899,-51.966784174204804,91.11248810532561,138.03652633212914,154.81809525066637
2025-12-12 20:54:06.645185,Right,130.21032263299276,167.94974242232274,174.164203750639,131.88036122056656,-122.53702468080155,102.45065414370038,147.42318939116376,166.05061869794736
2025-12-12 20:54:06.648176,Right,128.48312309548783,164.1172093344794,169.92614016580046,133.45148553956824,-121.25402716164535,96.96343900624197,142.00119359284872,160.45445867904346
2025-12-12 20:54:06.651205,Right,116.584438332211,151.12497074026032,156.9345767403429,130.6143805216998,-61.25748362278682,82.68121262606292,128.3973218594474,146.59049323192448
2025-12-12 20:54:06.655222,Right,115.3306336960959,149.93489388085436,156.0982711511897,124.63136964908335,-64.24672810095944,82.47150270073325,127.13362144747225,146.94059911361546
2025-12-12 20:54:06.659240,Right,124.26539169820899,159.28294810763327,165.8551801511203,121.8019395914016,-131.72419612910016,93.47427889553364,136.4122985657159,157.3288228288584
2025-12-12 20:54:06.664251,Right,123.73197378666373,159.10825262480648,166.0766130335105,123.39542438954231,-141.85394760059717,93.82430760214629,136.75277903312235,155.77087769957143
2025-12-12 20:54:06.668262,Right,111.32114217730123,147.05904933452257,154.5476411000709,123.23539092805004,-77.3808933062246,82.69653581653256,126.48219565631007,142.9941095658869
2025-12-12 20:54:06.671281,Right,105.25233289579046,141.1695148953586,149.30667237492162,118.20878105513111,-58.13774350445601,79.80779070866993,122.87928065849701,139.80244772823062
2025-12-12 20:54:06.675288,Right,109.81583932925423,145.44443698597024,154.10621247984818,113.29470025515184,-117.16320129312226,86.90633099780825,128.56400199595373,147.5218086936802
2025-12-12 20:54:06.679310,Right,108.4318101467361,143.57913842846756,152.37637260273914,112.52563033887418,-139.1484712841775,84.45211341684626,127.03089102872764,146.15792451240122
2025-12-12 20:54:06.683341,Right,97.31224205163016,132.34351071427227,140.7793105218152,112.78268354551983,-76.34509229433024,70.01611491698714,115.57036139990669,133.52365304512205
2025-12-12 20:54:06.687332,Right,95.06691120378673,130.20615909909247,137.74810313709895,110.81558760855114,-37.82224342765403,65.20336144414614,112.35449361312203,130.67839294005535
2025-12-12 20:54:06.692346,Right,108.1938872566243,143.05747808888555,149.322609956027,109.42305544912233,-85.18194449903967,76.54876070549653,122.93025576864602,142.29500866288436
2025-12-12 20:54:06.696367,Right,116.14812129939673,150.57354821445188,155.72702560134348,110.98345071755466,-117.33525000214286,82.57635815786489,128.2369629065215,145.94804545174702
2025-12-12 20:54:06.699369,Right,105.15091755830508,139.8662930256396,144.5980569892563,110.83202347165206,-60.31416066766542,71.4100831400865,117.27397881273646,131.24511004571104
2025-12-12 20:54:06.703388,Right,91.1830880544585,126.84187828132417,131.61567482355167,104.9220708104549,-7.297806581787881,61.005929173508775,106.09380321580102,118.15268863385427
2025-12-12 20:54:06.708410,Right,91.77375746535836,127.7797657676565,132.3568624673062,98.88322357748984,-46.31055720889708,66.187351492772,109.3759385831072,121.82527563133044
2025-12-12 20:54:06.712418,Right,97.84830524730205,132.92373666295316,136.91684034708305,100.21194853246561,-96.57584111841425,73.38000291996286,116.18154080960085,127.98947044098168
2025-12-12 20:54:06.715454,Right,94.88049980554206,128.41901615768438,131.98467451278702,106.14006473001791,-59.07920120177005,68.37628393381601,112.75853905381518,122.16821520813392
2025-12-12 20:54:06.719501,Right,90.69798743847059,122.80339272893616,126.44721047321218,108.35661948315101,-0.30391235695424257,63.15173263249744,107.79039296021801,116.08028314949479
2025-12-12 20:54:06.724457,Right,97.00299606571207,127.7114057149156,131.60358895573881,105.41251964645926,-26.426486098513124,70.77284465900448,112.52234919523471,121.82960499374894
2025-12-12 20:54:06.727508,Right,102.79048710592906,132.25249639927642,136.12117506703362,102.12392575052218,-84.08812699520786,77.88172043510713,116.18132081415388,125.77448849609937
2025-12-12 20:54:06.731513,Right,93.98781324864831,123.0299832606106,126.80602513341,100.18787727420568,-60.67609662720497,69.37457893394458,106.33619689548505,114.61931564947008
2025-12-12 20:54:06.735497,Right,82.28299617336597,111.7209913317638,115.94344825309236,97.1341141567973,3.913050968272728,58.70357779623009,95.34668132133083,103.74572566876304
2025-12-12 20:54:06.739490,Right,85.94639916633605,115.54632687920821,120.89947465565638,93.24382961625815,-9.017510980738734,64.68987254161038,100.14114478984266,111.10546871213592
2025-12-12 20:54:06.743502,Right,96.16745843325043,125.17887112859171,131.8771757215436,91.931140605564,-74.86604484450072,76.33103949912766,110.7893746829941,123.22453620063607
2025-12-12 20:54:06.747471,Right,91.54378539606114,119.9396752253233,127.72318266809452,92.467876097915,-70.40945831339559,71.34369244801928,106.49079376200098,117.19713634805521
2025-12-12 20:54:06.752523,Right,76.07860015030019,104.29482419005944,112.7199454929796,90.07126932803658,-2.4052836836308416,56.023569491822855,91.75881096636294,100.70586678711697
2025-12-12 20:54:06.755485,Right,71.95038963307161,99.65026420817594,108.19542266582721,84.58611578220734,5.922859068057733,53.60672156812507,87.61642384980223,97.8412668951496
2025-12-12 20:54:06.759550,Right,79.79476462307503,106.02220597595442,114.2132897838892,81.10575435505598,-55.89379368614209,62.21197141344601,93.86487822892377,106.25304410554236
2025-12-12 20:54:06.763561,Right,78.76290899139713,103.46009360131575,111.17546548278187,80.63035159389256,-68.27655959490039,59.56817624454561,91.24306957161753,103.37421932275174
2025-12-12 20:54:06.767589,Right,65.97526891002781,90.367973018263,97.84361654272652,78.70923861686606,-6.124921791421002,45.50841484502598,78.71786028743372,89.48466442266363
2025-12-12 20:54:06.771588,Right,62.596890320652165,87.61939744112897,94.9664336044516,75.09410819178447,15.500572680948665,43.412511091155466,76.34150954984943,87.68274591409136
2025-12-12 20:54:06.775601,Right,75.02268966689007,100.04841915410361,107.01124934628024,75.22039017165662,-41.50863255581953,57.50607785288594,87.97864387571462,100.64378418188426
2025-12-12 20:54:06.779624,Right,82.90990650426829,106.49662511632778,112.90381242704461,79.57012325522373,-66.2728736776462,64.9257282288454,93.34887616112246,104.87628046551254
2025-12-12 20:54:06.782604,Right,76.16442210116656,97.32692751116701,103.54740983012016,81.02872351824772,-7.129890567983239,56.920452033533365,84.55289718930726,93.48544464321458
2025-12-12 20:54:06.786624,Right,72.0233042173204,90.37142778228736,97.03222778899362,76.4225324812578,30.691417419318896,52.71815605580923,79.35960831638658,87.85378474436584
2025-12-12 20:54:06.791639,Right,81.3469796066056,96.94723021934624,104.21536406938685,72.20444134937134,-18.057625742399978,61.91377300617751,87.35204982972937,97.19310646312078
2025-12-12 20:54:06.795646,Right,87.66944904909178,101.3634744133742,108.69280913792318,73.41111047161394,-55.698778703736025,66.49545792206482,92.00536687480053,101.36180669261375
2025-12-12 20:54:06.799692,Right,77.63360547881166,90.68552752563846,97.3291878454329,74.5962229486613,-3.7674087125778897,55.15444575411675,81.04735064244596,87.9297177393455
2025-12-12 20:54:06.803704,Right,65.95200015998853,78.70925093838014,84.33458534858073,69.1039055280853,49.49361418269109,45.037494541335036,68.68564857970341,74.50218821709859
2025-12-12 20:54:06.806683,Right,68.62166944988712,79.95172542822547,84.80363366255187,60.48446033199434,12.586327905744838,50.261522779939696,69.34399924622267,75.91198522990453
2025-12-12 20:54:06.810634,Right,74.42805511332699,82.96116291891667,87.71273731070687,56.07374827063177,-39.066978132366785,56.20033561096352,72.36807589235832,78.3090292699053
2025-12-12 20:54:06.814710,Right,67.75752275060222,73.41609519897611,78.78957477028598,55.48575614251604,-3.745542056451086,47.88220537028974,64.55333670793334,68.11677865570528
2025-12-12 20:54:06.819772,Right,58.74818551503995,62.75846557371551,69.00343119318131,54.18459900846938,57.744281621227856,38.818794791339315,56.690697290265234,59.684248581150314
2025-12-12 20:54:06.823734,Right,63.086148531816434,66.85928405536106,73.6099529771891,52.79081289302849,37.27404225860664,45.170276109158294,62.585326314147096,67.8513680876058
2025-12-12 20:54:06.827695,Right,70.25922833295772,74.76793767270283,81.46201368252514,54.041020337026566,-17.98187984015385,53.843751760345185,70.42991181372781,77.23772662796546
2025-12-12 20:54:06.831767,Right,61.644153982779244,67.54867473561899,73.86877877358347,54.801576526268036,5.000573511555558,45.723398295012885,62.59815916355001,68.15833104663761
2025-12-12 20:54:06.834771,Right,45.43106591103424,52.82548456953373,58.65477584884502,50.069284560813685,71.77651207555027,31.44432692627015,48.218641604384175,52.44870762809296
2025-12-12 20:54:06.838785,Right,42.97688363870839,50.864947289432166,56.0328816146357,42.582056536193704,63.66553096388816,32.78398785048921,47.40895276865922,52.4440023280913
2025-12-12 20:54:06.842795,Right,51.230718069680734,58.13077578259981,62.597444224957144,39.76899428294564,-0.15623279455758166,43.78645237647288,55.71168753653183,61.57831725059077
2025-12-12 20:54:06.848813,Right,49.659202744907816,55.02512926774216,59.209230968990596,41.79875871025433,2.666672310777358,42.69971190340584,53.510037692292826,58.32829482850502
2025-12-12 20:54:06.851813,Right,37.55328246594581,41.947997524112,46.48175948311109,41.07910140011518,70.35322935700242,31.32763582728512,41.670635338668944,45.84855799970683
2025-12-12 20:54:06.855809,Right,33.232382401954965,36.99120715915342,42.26383476622868,34.46609902806813,80.9267331414303,29.49520810956892,38.00547650568478,44.095776419417234
2025-12-12 20:54:06.859863,Right,38.90888108695799,41.466954424075084,47.563602017762605,27.431117051120964,19.341466490062885,37.04572692103102,43.19811301062873,51.2279511912202
2025-12-12 20:54:06.862840,Right,37.67139743667212,38.48829587624641,45.28348808712326,23.99726655696577,4.036797269363888,35.042652737363824,40.44635823875433,47.31946434368729
2025-12-12 20:54:06.866880,Right,27.38023761897057,26.74294014708721,33.893597351998324,21.51999177937978,64.99327344198537,23.437651833868586,28.97127495663881,33.26956007827539
2025-12-12 20:54:06.870847,Right,26.30546334714745,24.860150758642703,31.898469613603083,18.513515610116883,89.00093132116308,23.151333111542044,27.35099543898832,30.975669066567207
2025-12-12 20:54:06.874885,Right,38.00018915081455,36.2413635221601,42.83992632137961,18.213671770281508,33.593395157397026,36.43003390128433,38.39904576004483,42.37576699908823
2025-12-12 20:54:06.879919,Right,41.48947880494234,40.12659185324446,46.34487580420682,20.54067964811111,7.982316029141657,39.88591139001073,41.32811539301474,43.76379653159529
2025-12-12 20:54:06.884940,Right,28.212565040696063,28.222927688490017,34.47246560372878,19.83798956507235,68.63324344735884,26.04840710083954,28.454454502512817,28.493556310189888
2025-12-12 20:54:06.888887,Right,18.08178054637392,19.7358248905075,26.453888126066886,14.583908435175545,112.1689762774331,17.044513500586618,19.173910622033873,19.50774408641155
2025-12-12 20:54:06.892952,Right,23.692336834283196,26.051415414956864,33.47203838464338,11.024748113093665,67.01486916383146,24.32392073715164,24.708574188989587,27.650440302095376
2025-12-12 20:54:06.895943,Right,28.911305969420937,30.757717644126387,38.86282886349363,13.280811066433671,26.069685378082795,29.127500018614228,29.014980945910793,33.03030409239
2025-12-12 20:54:06.898976,Right,20.446658393921098,21.234867832128657,29.591244536510203,16.652850049737026,72.47345922829118,18.792016802268336,20.01033986087714,22.794328942487482
2025-12-12 20:54:06.902972,Right,12.01100781862624,11.657306005989085,19.308807792753214,15.30824194845627,124.24914883871679,10.077329569860012,11.610998125877813,13.913084101339336
2025-12-12 20:54:06.907995,Right,17.0968048099312,15.52816306691966,21.367554729164112,11.226954322119127,87.93026397193898,17.029145161097404,16.54215688802651,20.044951447998756
2025-12-12 20:54:06.911964,Right,23.04015764320502,20.449364910891745,23.912856942944927,9.60964759378112,33.517681523022475,24.550061637550243,22.143884043951402,25.94737615121994
2025-12-12 20:54:06.916010,Right,14.994406845697085,11.982440249921638,13.419947227288503,9.686374863653327,63.91614194138674,16.666642709664302,14.318830495118164,16.822241950285388
2025-12-12 20:54:06.918997,Right,4.553019810264232,1.3070338201796403,1.7092740781372413,7.5486530888447305,123.3437021523132,6.195028497138992,4.372131196461851,6.759921979435603
2025-12-12 20:54:06.923016,Right,9.385840183094842,5.018770478054648,5.481213665480027,5.101045716859517,102.3115225302463,10.871119143397664,8.602650493208785,12.948387984797591
2025-12-12 20:54:06.927021,Right,20.912901205927483,14.397864070138894,15.70720969728427,7.1044721967191435,42.09433979674941,20.41723500497028,18.18328440345067,23.484975375351496
2025-12-12 20:54:06.931032,Right,19.327090118822525,10.928942291531712,13.200519553793129,10.913336145618814,56.55682135728421,15.427668659351184,14.861862974488758,18.504686454165494
2025-12-12 20:54:06.935054,Right,8.548333830738557,-0.4577028453204548,2.0440578835550696,9.096533475705655,118.50143505635788,3.0417275512081687,3.7204751467943424,5.887531317464891
2025-12-12 20:54:06.940064,Right,6.676411267108051,-2.1633311039040564,-0.6323388339951634,1.3422474896651693,111.22532125498401,2.625512778533448,2.231135112582706,5.31093455995142
2025-12-12 20:54:06.944076,Right,10.629658688310883,1.8099916124047013,1.4020039833849296,-5.787747785783722,48.69710810625111,8.382679224618187,6.450005455073551,10.63424954128277
2025-12-12 20:54:06.947088,Right,2.6002632016316056,-6.3562384028628,-9.014821286429651,-9.81238356729591,50.69053386122687,0.4462809349206509,-1.0536289764713729,2.0597718591743615
2025-12-12 20:54:06.951125,Right,-13.931018856143055,-22.67267457213893,-27.253983219561633,-13.973366096681275,118.15689096588176,-16.004219834823743,-16.386705204597092,-14.742239649014664
2025-12-12 20:54:06.956121,Right,-17.884740726418386,-26.007505313886213,-31.695611986971926,-18.30078370452975,129.8721824323875,-18.147755678204703,-19.35485297134437,-17.180677677650237
2025-12-12 20:54:06.960143,Right,-8.11745623950992,-15.452108530284022,-20.98516683781054,-17.773830577163608,68.1617281055369,-6.175886414035631,-9.532043526836787,-6.352803869973286
2025-12-12 20:54:06.966160,Right,-5.444866401019681,-11.72823843616061,-15.577285470586503,-11.897772159900342,52.216558514832286,-2.1601793294757954,-6.72927314970002,-4.5187916739378124
2025-12-12 20:54:06.969114,Right,-15.449635997407313,-20.52468219466391,-21.53883137080993,-8.098652968692477,116.20787098692381,-10.30142177430389,-15.663028398324968,-14.987925701163476
2025-12-12 20:54:06.973179,Right,-19.40201656633144,-24.089723196593695,-22.097215640576906,-10.424658962925605,145.79240320346435,-11.38334248697356,-18.96439415117493,-17.5597341456305
2025-12-12 20:54:06.976185,Right,-9.243689014248957,-15.267127853483544,-10.771901681888266,-13.001961267851584,91.01669793424662,-0.20664146851777332,-10.162126097849978,-6.679190875060158
2025-12-12 20:54:06.979153,Right,-2.69818773210136,-11.26285215401731,-4.529318575398065,-11.130099571790197,58.29237126596854,3.751521475314803,-5.947460833078367,-2.030145974640618
2025-12-12 20:54:06.983233,Right,-11.111518797632016,-21.944515944909654,-12.494521938147955,-10.020445757167181,110.71624387172051,-7.722326983501262,-15.459997867823404,-12.310720102206687
2025-12-12 20:54:06.987228,Right,-19.798229207342956,-31.809202330630796,-18.67552197453915,-15.203672257361177,150.7212358888064,-16.143662120011868,-23.926991615378938,-19.787956595188007
2025-12-12 20:54:06.991253,Right,-16.624609710124787,-28.973254812335654,-11.339012719341554,-22.522670406178804,104.0744639171462,-10.554982708621537,-20.873596496603568,-14.227291582355974
2025-12-12 20:54:06.995258,Right,-13.90648796606547,-26.023230845297803,-3.6662176716927206,-25.380964943753497,59.901191166223725,-7.28048255971953,-19.05340069469821,-11.512685504130786
2025-12-12 20:54:07.000333,Right,-22.493739526777063,-33.686315408325754,-7.008957494865172,-24.98090554602095,103.7721785857284,-17.866008260163653,-28.087562145403353,-21.444246121776814
2025-12-12 20:54:07.003265,Right,-28.863642361262464,-38.73591685923748,-8.735720601966023,-25.861268982283946,156.27836810876033,-26.022556840074685,-33.91558379740309,-26.94402969389921
2025-12-12 20:54:07.006321,Right,-20.38377006680821,-29.329369050967216,2.4096068229846423,-27.01743956732389,120.35140545177273,-17.981269351861556,-24.85884683065524,-16.04468209490733
2025-12-12 20:54:07.011317,Right,-10.89472393343749,-19.39226857437461,12.304434693840449,-24.885468283537193,62.74195622667321,-8.77839999927528,-15.158576278816327,-6.37591968356719
2025-12-12 20:54:07.015372,Right,-16.886648405052256,-24.654417573008686,5.675832713561249,-21.36642925956039,90.27895571108093,-14.257978873189131,-20.303550667362288,-14.470235230910475
2025-12-12 20:54:07.019358,Right,-27.7501950969272,-34.45890804025839,-6.0671377118706005,-21.5274314843482,151.51833786763018,-21.772650905229966,-29.5714923363048,-26.234318630835332
2025-12-12 20:54:07.023317,Right,-25.315828362698085,-31.730663664835447,-5.219888535910286,-24.95688755025185,133.36410444867215,-14.660676748964761,-26.563906674324244,-23.17960581699299
2025-12-12 20:54:07.027408,Right,-16.889929417320673,-24.21547286564237,1.0446180065482622,-26.858993798163283,71.6683784974739,-4.149845590611221,-19.4408426823029,-15.73571386896947
2025-12-12 20:54:07.032400,Right,-21.257539483536675,-29.70155102922945,-4.476693742108182,-27.29084735447759,83.28705143992556,-8.807838955024636,-25.437047875697317,-22.800316330096393
2025-12-12 20:54:07.035431,Right,-33.635822583793924,-42.782704278211895,-16.264343987350003,-30.856859358733345,147.7651258794067,-19.477871310220507,-38.70814934484952,-36.21149583190709
2025-12-12 20:54:07.040419,Right,-34.23060530368457,-44.4132716160384,-15.98036036475969,-36.666079271049966,146.83379453781527,-14.826927801594138,-40.685039418920496,-35.750189499143744
2025-12-12 20:54:07.044488,Right,-24.247863884844264,-36.414225366999744,-6.351079594620387,-37.96143318124814,86.77206975617446,0.6189609226221364,-33.35097896440129,-26.200470857984328
2025-12-12 20:54:07.048493,Right,-22.74470723043305,-37.30604441867399,-6.2071023060707375,-33.7157638170047,86.43378678179579,5.375653005985441,-34.130315538252034,-27.787467659713002
2025-12-12 20:54:07.052490,Right,-31.013653251671712,-47.66396572375379,-15.936118169513065,-31.137900026387797,153.19398515930516,-0.11505418487467978,-42.908216185122,-38.425951347802766
2025-12-12 20:54:07.055495,Right,-30.881979882839005,-49.1913711350644,-17.073611100378912,-33.47525855752792,166.8858967794513,4.089035933653577,-42.853521360768354,-38.08050260820164
2025-12-12 20:54:07.058501,Right,-19.632472386081645,-39.00354451680869,-6.748309356975369,-34.97785819448109,102.88554644052056,19.070662908941813,-33.20416519159335,-26.963615822718566
2025-12-12 20:54:07.062516,Right,-16.00950006457424,-35.298258911496305,-3.301998233248014,-32.016521366682355,77.86743726857821,24.355619562164065,-32.18322794004234,-26.074103776099946
2025-12-12 20:54:07.066529,Right,-25.759754781199263,-43.94212830087963,-12.847170856242883,-29.62157883891814,132.6081527287315,15.76983216850931,-43.73338227384738,-38.54897397482273
2025-12-12 20:54:07.071548,Right,-31.520237900996108,-48.89972866973949,-19.4832408693037,-32.40275488187217,157.579359481344,12.341091280493856,-50.46896454621128,-44.38658555525399
2025-12-12 20:54:07.075559,Right,-25.930725739555783,-43.85516878625458,-16.627656500277226,-37.18412916054746,99.96224880235968,19.487794012570703,-46.25375679393437,-38.4184697515193
2025-12-12 20:54:07.079573,Right,-24.62330104054331,-43.780487145320876,-18.71397714431805,-39.217921935057916,63.883070850308286,19.29372123459825,-46.36401483708232,-39.01165334826874
2025-12-12 20:54:07.082584,Right,-34.390600630941435,-54.141533516661184,-30.851831400505034,-39.005748326667344,115.54429758858168,6.752568379693685,-55.95713733539924,-50.79949981229947
2025-12-12 20:54:07.086600,Right,-37.82165218823957,-57.33518512751334,-35.43905808380805,-38.086395434221686,157.9931681799644,2.3042386171692897,-57.62091617965234,-53.03793965753903
2025-12-12 20:54:07.090603,Right,-25.303587087969845,-44.42789042585548,-23.680630494345678,-34.213609614483175,110.69374466038425,14.775910816468922,-43.490201869578414,-37.68786987273597
2025-12-12 20:54:07.094628,Right,-15.306812160652953,-33.886374569798136,-14.051122351687809,-26.893450834042596,58.974973323289305,23.01594474745434,-32.55209451530152,-26.812414565771178
2025-12-12 20:54:07.099663,Right,-23.499566778028566,-40.52125284069871,-21.24140897966572,-22.163022978966183,94.41186063614441,12.083177262692516,-39.085908671508264,-35.10687587701432
2025-12-12 20:54:07.103644,Right,-35.56638134039713,-49.80162854604259,-30.704685381730087,-24.61131660367937,144.51364467394887,-0.7672337106632767,-48.33803208033123,-44.76431895748283
2025-12-12 20:54:07.107660,Right,-32.99112865915413,-44.33016624847551,-25.09490099309187,-29.2576826597342,109.33837154292269,2.400555620261912,-43.424821271814835,-38.222011188725446
2025-12-12 20:54:07.110684,Right,-24.805742858159647,-34.15775235786714,-14.331466301548062,-28.815759496441387,48.4587840011518,8.859406015926652,-34.27644107301148,-28.50709131703661
2025-12-12 20:54:07.114672,Right,-28.336035677772088,-36.2935108990805,-15.375789311416156,-24.921004571540834,68.32761818545987,0.6375395813738578,-36.812625143534206,-32.63221929996507
2025-12-12 20:54:07.118693,Right,-36.60342726124327,-43.134538338999846,-21.178719586590887,-24.485909188391815,121.68365688965423,-12.213389634644045,-43.10741602024791,-39.65299953028398
2025-12-12 20:54:07.122717,Right,-33.36446447473463,-38.740753629354,-16.597265784039337,-28.405348351448993,95.59851867239922,-12.373560832847943,-38.333818709921616,-33.1893956209538
2025-12-12 20:54:07.127710,Right,-25.623173960177155,-30.543894969416215,-9.13184172061301,-31.76608678557386,24.020998692169087,-8.770653350493376,-30.455246476758475,-24.16209187995173
2025-12-12 20:54:07.131759,Right,-31.034074622992193,-35.715909774449756,-15.261836775083793,-33.27430763916345,26.664822126185754,-18.898583614161907,-35.34030595705917,-30.772140232887523
2025-12-12 20:54:07.135755,Right,-44.39090029743966,-48.443180602676875,-28.651347581719165,-36.62392233572973,87.35261629347224,-34.566190303565236,-46.02010622738817,-43.72448644747146
2025-12-12 20:54:07.138758,Right,-46.52382144301737,-49.69110800003182,-30.201996195231914,-41.981640387872176,84.98530715380912,-36.02811814990491,-44.418754288934,-42.39150349527699
2025-12-12 20:54:07.142787,Right,-39.018271629571245,-41.08895035944079,-21.40800141296495,-44.054684468497726,18.575033552304376,-28.17403249907875,-34.07212620246537,-32.10438590938611
2025-12-12 20:54:07.146786,Right,-40.619095335237944,-40.62286116980613,-20.03796132907155,-41.355881601521105,6.580148743232712,-31.693277499100077,-33.66536803859344,-33.86139566796737
2025-12-12 20:54:07.150809,Right,-51.95672859978367,-48.59397716158492,-26.603404296562076,-39.03576302561851,63.65515670899185,-44.844364594569925,-42.7664439966793,-45.348453024935225
2025-12-12 20:54:07.154809,Right,-54.12519593334582,-47.45632939960706,-24.107055984837643,-39.411835284023255,73.49145007977495,-46.53503796843506,-42.800178402352685,-45.40584504239632
2025-12-12 20:54:07.159812,Right,-44.001573324414494,-35.86924366381936,-11.521825170064403,-38.33318733005581,8.345174804911949,-35.710901584614476,-31.83568951809866,-33.73318230099176
2025-12-12 20:54:07.163839,Right,-40.1180865875358,-32.40196617039328,-7.361784056647593,-34.097063037399494,-16.617391693464015,-33.7609152617224,-28.28537538630553,-31.481201056041755
2025-12-12 20:54:07.166821,Right,-47.99284766891287,-41.227226294482534,-15.749191295308265,-31.735335010660492,42.675052383507136,-45.24138084768492,-36.510323938102374,-41.60998973569622
2025-12-12 20:54:07.170854,Right,-49.855731626936176,-43.853406476711825,-18.41995114747624,-34.15082774275652,76.09369445280754,-49.9186700554892,-38.612758335304534,-43.25889895504952
2025-12-12 20:54:07.174860,Right,-38.49605426979542,-33.186206168538774,-8.602991337196727,-36.705667764283135,22.78420098935021,-40.933044995392265,-27.98599520805874,-31.081934540037764
2025-12-12 20:54:07.178910,Right,-32.13394231424536,-27.20782302229054,-4.3130176910162845,-35.86224554510045,-17.715201527404133,-37.913885457091965,-22.149138630982634,-26.316385305672156
2025-12-12 20:54:07.182830,Right,-41.105994269772054,-35.84293766418341,-15.088051406790328,-35.32154971448108,27.23560793150682,-49.835423819255084,-30.152884180461115,-37.74925006430567
2025-12-12 20:54:07.187899,Right,-47.89391053965301,-42.06522800553648,-23.30444903852913,-37.96235465733116,68.54438593290979,-56.98432430273533,-35.15888337215438,-44.76160102727954
2025-12-12 20:54:07.191922,Right,-38.86997309486833,-33.13676260762077,-15.61590856454859,-39.428233704649756,24.252021612395765,-46.89594478398794,-25.4296029398065,-34.82523577871325
2025-12-12 20:54:07.195943,Right,-29.14220118002413,-23.969044943551125,-6.349783469220711,-35.71089995810689,-25.44780267419992,-37.45374034764973,-15.938024751991179,-25.809378987760283
2025-12-12 20:54:07.198944,Right,-34.3057916306243,-29.20914075692781,-9.831265999488096,-30.691843148302723,11.954153929254971,-43.818159303416905,-20.259634309601097,-31.91188790423621
2025-12-12 20:54:07.203012,Right,-42.22369669339605,-36.789206899458804,-14.393541597681178,-30.03767915404387,67.2519275774248,-51.455586568277795,-25.979440784245526,-37.93918928320636
2025-12-12 20:54:07.206974,Right,-36.81239616649691,-31.70580005749798,-6.131552754024597,-32.353366254912544,37.860883763292804,-45.342076347478724,-19.37219783124965,-29.63053339700491
2025-12-12 20:54:07.212946,Right,-27.86809694830299,-23.968808006065956,3.8621435043296515,-32.49168120390095,-20.90144272102043,-38.87286528095865,-11.695845768266736,-21.401601149231283
2025-12-12 20:54:07.216060,Right,-31.23390795524756,-28.35072008147108,0.3687458227141178,-30.33332629063807,0.7417079998995177,-47.660048924939474,-17.323942355233157,-28.822631472863577
2025-12-12 20:54:07.220003,Right,-37.99331883122068,-35.288857367049786,-6.942490952635126,-29.7809571225298,62.11617704856326,-58.59894336362049,-25.62953187869425,-38.264333841591
2025-12-12 20:54:07.223015,Right,-31.208960945892613,-28.4063947598479,-1.4306328995990043,-30.695549058342294,48.52047652678448,-53.107463975007704,-20.102728353878774,-31.458261132869666
2025-12-12 20:54:07.226966,Right,-19.117695157547132,-16.47902015834552,8.580294251374653,-29.474919600354042,-14.367772829340538,-41.85924273647106,-9.703057413626084,-19.915189608804212
2025-12-12 20:54:07.231029,Right,-22.123709866609715,-19.60007818491431,3.7672645802385887,-27.38236050275009,-9.084348582313396,-46.60854958444543,-13.890080050692632,-24.893912896768597
2025-12-12 20:54:07.235072,Right,-35.47868568971171,-32.65124524782004,-10.235711279424322,-29.048537725422648,53.286565135465935,-61.00858936836448,-27.059424421222502,-38.214563466659456
2025-12-12 20:54:07.239096,Right,-36.51982253463211,-33.224141128164774,-11.304590798921708,-32.66799016130244,53.67570995140704,-61.74872539200442,-27.60563776257186,-36.12376513058916
2025-12-12 20:54:07.243102,Right,-24.947297118116694,-21.280518402490998,0.0788664858764605,-31.62034184345248,-11.601888119941577,-50.17745057633874,-16.275601614372135,-21.935870540790347
2025-12-12 20:54:07.247061,Right,-22.32474648799689,-18.067745687891147,2.6268507618874537,-25.81659161105199,-22.886015937416232,-47.93815104819805,-13.549264669982222,-19.123227654898074
2025-12-12 20:54:07.250129,Right,-32.097761231481854,-26.866999494974152,-6.837254728772223,-22.27590388907265,39.69204682488635,-55.840890392588335,-21.695179837530304,-28.350120632218022
2025-12-12 20:54:07.254134,Right,-34.26605511401431,-28.476001026843733,-9.352902843500942,-23.62119538769184,58.89388022884668,-53.50125594052952,-22.132371496147243,-28.24380270904294
2025-12-12 20:54:07.259142,Right,-23.187076377565973,-18.111046412028372,-0.35876068878042133,-24.347309209268133,-1.24819422949804,-39.403783168134396,-11.240243331689271,-16.625049845173635
2025-12-12 20:54:07.263138,Right,-17.577623953788134,-14.02333870842267,2.1010370849221545,-20.994462447764818,-29.083431412596838,-35.160852508874086,-6.98237177358169,-14.384999907331803
2025-12-12 20:54:07.267198,Right,-25.262223683748743,-22.901684900825785,-8.364980495558484,-18.048865380689676,25.773798718699254,-45.79579277706216,-15.075212264986476,-25.80916052696557
2025-12-12 20:54:07.271189,Right,-28.977210010154522,-27.360045406523568,-14.341395101864691,-19.207513867178932,59.121343356062425,-50.243463197373785,-18.555293476958468,-30.138396111826296
2025-12-12 20:54:07.274191,Right,-18.822715716778475,-18.17888169496291,-6.525641825891398,-20.135791045169753,8.023961148588569,-39.584895990468794,-9.806777326779411,-19.742116092580545
2025-12-12 20:54:07.278209,Right,-10.811714269388176,-11.176735458444455,-0.27538229610945564,-16.556085300770064,-31.328361301944824,-32.51054482555628,-5.1537919537804555,-13.861881684591935
2025-12-12 20:54:07.282231,Right,-17.2247917577115,-17.446113972320745,-6.332861608289022,-12.579276025826402,15.64809827436693,-39.93699300976732,-14.283814370493928,-22.35000086818036
2025-12-12 20:54:07.286189,Right,-23.59226093968755,-22.11770081645227,-10.233839348928086,-12.965255449453252,60.792935953169945,-44.47361625091435,-20.855387053212326,-26.578462435332767
2025-12-12 20:54:07.291266,Right,-16.04246263227833,-12.382765601250867,0.03810212421012693,-14.375882780295797,16.41197484980512,-33.377256616178784,-11.861762267770246,-14.31867727291683
2025-12-12 20:54:07.295257,Right,-8.152828834703541,-2.937459716704325,9.553596263469444,-12.378204468710464,-41.28924316496705,-23.246787214273354,-2.049725770120858,-4.091326173533162
2025-12-12 20:54:07.299275,Right,-15.503071477003687,-9.695897977260756,2.7896746892911324,-10.007756852057355,-13.864512142987223,-29.23725233958976,-6.991271347364091,-11.890716052410426
2025-12-12 20:54:07.302280,Right,-25.64050897058769,-20.416734886755876,-7.814217345669022,-11.822511690799729,37.200301072283764,-36.68976071869838,-14.967469832354254,-21.882286583182577
2025-12-12 20:54:07.306286,Right,-20.651881585727097,-17.240782614797354,-4.677926331562048,-14.945335945747502,7.672217858969816,-28.655401032920054,-9.77370504089049,-15.761285905005934
2025-12-12 20:54:07.310308,Right,-9.906043859424244,-8.594169246258389,3.5450300043485186,-13.708403922690195,-53.31629261288617,-17.504743250989122,-0.7560516259472934,-5.506753528570698
2025-12-12 20:54:07.314324,Right,-12.154413328178634,-11.919806747406255,-0.5841536635889497,-9.872106819224427,-35.38509321471793,-21.822593831944687,-4.693617020231613,-9.832285981392488
2025-12-12 20:54:07.319343,Right,-21.05037087531673,-20.877039446371782,-10.844769098752295,-9.711018769688962,26.090498891862808,-31.996417570226185,-14.533149901970319,-19.79742662780336
2025-12-12 20:54:07.323363,Right,-17.587800587200036,-17.730842656790628,-9.677194756972312,-12.685389679543732,15.864714914700016,-28.276409163816425,-12.92017807002776,-16.775695156400616
2025-12-12 20:54:07.327311,Right,-5.45415170850174,-6.70841814805317,-1.071682725494611,-12.475656549315318,-46.06571229346446,-17.42324683836341,-4.592578086278081,-7.788737183174817
2025-12-12 20:54:07.330310,Right,-4.053933153496473,-6.161305340501713,-2.7314072620210936,-8.829642436663562,-42.44346018238866,-20.029245753052237,-7.257818490139471,-12.027403606334701
2025-12-12 20:54:07.334394,Right,-12.773127906490117,-14.484716359707818,-12.507849103636545,-8.087745231248846,21.29640301266045,-32.10952969484788,-17.870675695005048,-23.755257341676042
2025-12-12 20:54:07.338403,Right,-12.97651420584225,-13.50187982380885,-12.155271025691036,-11.267967985946598,26.307955175841926,-32.308261233818484,-17.41744317557459,-21.539978015833185
2025-12-12 20:54:07.342410,Right,-4.0470874048587575,-3.545940087082272,-2.3104527249706734,-12.49043795595935,-37.63741384853347,-21.77062048852531,-6.3937521033294615,-8.284055803189403
2025-12-12 20:54:07.347427,Right,-5.067253668639751,-3.816363254802127,-2.5878573143891117,-10.173974499106407,-51.99720772630826,-21.962531562370714,-4.4573845109807735,-7.0228648950578645
2025-12-12 20:54:07.351479,Right,-17.57939389472449,-15.58641835131857,-14.733591992717265,-8.926524903759855,9.928222839749651,-33.59547129420389,-13.472561812861386,-18.32101887051249
2025-12-12 20:54:07.355486,Right,-20.637297026827582,-18.25016643437266,-18.527675211124006,-9.731193513009202,33.16577370926825,-34.48977421687596,-13.678236316489347,-19.038762698306527
2025-12-12 20:54:07.358508,Right,-9.4732335899389,-7.517304439577856,-9.51217397444998,-8.262095078469429,-24.718686910680844,-21.32425011527812,-1.1364723970436899,-5.657274081575451
2025-12-12 20:54:07.362507,Right,-4.844804413336533,-3.7215621507784817,-7.265824152316782,-3.8172370144056913,-55.71185875879746,-16.01205864356598,4.526935943162243,-0.48681808628316503
2025-12-12 20:54:07.366504,Right,-14.864901073011424,-14.15698149412492,-18.503769884133362,-1.5456807344780827,-4.474700366823527,-24.54567316964676,-3.1986165000198525,-9.458872775292548
2025-12-12 20:54:07.370501,Right,-20.606016755864403,-19.963607260375284,-24.526057129311084,-3.7102949785767123,28.686154690847616,-26.224904452501505,-6.042819682501431,-11.597146819993213
2025-12-12 20:54:07.374497,Right,-11.696303906541289,-11.409951945068315,-16.177084997420025,-5.682316041602462,-22.74800114464597,-13.332877173168526,4.098835594184493,0.516727622547478
2025-12-12 20:54:07.379507,Right,-5.317681326290767,-5.550894907784823,-10.926651252251759,-4.2316536958860524,-65.73191173305167,-6.768927815115603,9.359877910173964,5.733532112906687
2025-12-12 20:54:07.383519,Right,-13.602800899079739,-13.906208309708745,-20.447249219127116,-3.337590331739193,-21.832556712659425,-18.008257501976914,-1.185248327201407,-6.893386142750387
2025-12-12 20:54:07.386521,Right,-20.381503137108666,-20.74873554251826,-29.07473429802485,-6.620030138263246,24.960345640251035,-27.427573991801182,-10.969089102116413,-17.661325143395516
2025-12-12 20:54:07.390554,Right,-10.751812249327486,-12.357644173403969,-22.9951099061509,-10.033474641822977,-15.612695395684568,-19.21399197477149,-5.864679989746946,-12.071807017957326
2025-12-12 20:54:07.394574,Right,1.7235837566768168,-2.1029636880921316,-15.158364145216183,-8.158527536477777,-71.41058752164645,-8.527502449651365,1.1291984570925706,-5.9761667215352645
2025-12-12 20:54:07.398582,Right,0.4788503837735334,-4.787502162638702,-19.778650671178184,-2.894476362343994,-42.311900962164145,-11.633760446013184,-4.264496387317195,-13.822325628600083
2025-12-12 20:54:07.402579,Right,-4.466782027961017,-9.337479262299894,-25.426350552421354,0.3574235877531464,13.14760594314248,-16.191019447498547,-10.826863549489644,-20.83742696007539
2025-12-12 20:54:07.407572,Right,2.458691942400037,-0.9229867719623144,-17.389299629139714,1.527945047528192,-12.527796696263067,-6.789904830635351,-4.178971411489329,-11.412809094814293
2025-12-12 20:54:07.411604,Right,11.658040338730643,9.625762342024245,-6.997863910299202,4.016129281510075,-74.91627751912802,3.8788081580860307,4.668377776979469,0.10089728129241848
2025-12-12 20:54:07.415636,Right,6.157913306244154,4.684781628398923,-12.441759299355908,6.558089089739951,-60.663558288998956,-2.286128364790784,-1.2983103905644384,-5.588153175718617
2025-12-12 20:54:07.418626,Right,-5.277551489711186,-7.346705047217256,-25.666310849090223,5.068938215143135,1.2129191760556068,-14.34281759870646,-13.29510490568282,-17.506189131796418
2025-12-12 20:54:07.422662,Right,-2.0068630439272965,-5.964687027844775,-26.137668845884036,1.6749362498048868,-5.636789423585924,-10.657170341157325,-11.462379365893867,-13.746960628050147
2025-12-12 20:54:07.426649,Right,12.08610392843184,5.677636276072008,-16.592069716978585,3.117934136360418,-66.98940471751303,3.0620658553234534,0.3560192312543222,-0.050046259435475804
2025-12-12 20:54:07.430667,Right,15.87070669287641,7.812376172165386,-16.328452876608935,9.353210663939535,-64.72148898604883,5.401133061572182,2.6884020713296195,2.043129875266459
2025-12-12 20:54:07.435686,Right,8.198530260648113,-0.05610141109355027,-25.792696139687905,12.708230516163894,1.9637223645841004,-1.685481372027425,-4.402932409022469,-5.812737947773712
2025-12-12 20:54:07.438692,Right,7.292049166946526,-0.32239112105889944,-27.677281485732237,10.255948827805696,14.128436489490923,1.623277519691328,-3.483786848752061,-4.218227540630323
2025-12-12 20:54:07.441734,Right,15.055981464363867,8.007216137688374,-21.069118249695748,7.551840145435563,-46.322388677948766,14.110190956886072,6.05630442709662,5.874503589591768
2025-12-12 20:54:07.446726,Right,13.609515886044392,6.840484318930976,-23.71315155154298,7.680062343340978,-65.11334951759636,14.422584958083462,6.30167857510969,4.593824357456469
2025-12-12 20:54:07.450719,Right,0.7841206413577311,-5.727769645898661,-37.24854370257526,6.851278572197771,-10.915970515554363,1.0198693493184692,-4.567382059303782,-7.937191103861551
2025-12-12 20:54:07.455766,Right,-2.9573630380073155,-9.37005724670962,-41.61257856246084,3.600579029884102,6.340383929556992,-3.6231715436078957,-6.955723906368803,-9.343662278231932
2025-12-12 20:54:07.460769,Right,8.439049492888444,1.4018519640521845,-31.788026814290788,2.1470808250996924,-56.54947524209638,6.040193181826908,4.185551732574822,3.8382181147608208
2025-12-12 20:54:07.463717,Right,14.11963117041887,5.772781212832342,-28.74171843688964,3.5153557884950715,-91.92619141856994,8.528146180971817,9.130029963020206,8.369846108580532
2025-12-12 20:54:07.466791,Right,3.2577292737259995,-6.337242809946474,-42.35918599458091,2.4752410068358586,-40.066411699870514,-4.321572574222955,-0.8606115878246783,-3.9908196000687894
2025-12-12 20:54:07.470757,Right,-5.791754788704566,-16.396778004145744,-53.81153773708502,-2.8354177512992464,-0.29528773586207535,-11.62325042165321,-7.854552001415868,-12.161051754606888
2025-12-12 20:54:07.474807,Right,0.5427087738789851,-11.337167960351508,-49.78223572976276,-6.5424321621103445,-46.72749256371026,-2.1149089325408568,-0.9132530826100265,-5.342878118186491
2025-12-12 20:54:07.478804,Right,6.589159140774427,-6.666063883294555,-45.63302007049788,-5.28524498704428,-92.28150202566758,4.58670981886462,3.2438718529483594,-3.078444711420161
2025-12-12 20:54:07.482843,Right,-2.768925634347397,-16.567912106675067,-55.531238479408785,-4.94997041562965,-53.83537240666192,-6.31908236790332,-9.071269650481554,-18.585407154329005
2025-12-12 20:54:07.486847,Right,-13.931016755246674,-27.1409547444091,-65.66866807368206,-10.778711028466205,-8.475877327065973,-18.345934552358813,-23.095682479735842,-33.30988860439538
2025-12-12 20:54:07.490803,Right,-9.95371219376284,-22.136587033113756,-59.872766615633736,-17.831573408428085,-48.12751017206028,-14.699630987430282,-21.972531974097365,-29.65737850140431
2025-12-12 20:54:07.494878,Right,-0.8719374349111604,-12.117700953873282,-48.69282196401036,-18.45195216859429,-105.19008808980288,-7.898971342061486,-15.361727725288802,-20.943199237677618
2025-12-12 20:54:07.497885,Right,-2.1585652892863436,-12.489017315405363,-47.6329533537355,-13.12063214603404,-76.98441134714813,-13.094295482393136,-17.863692351642385,-23.72684886040952
2025-12-12 20:54:07.501852,Right,-3.912911088060355,-13.603136785808601,-47.490492799610365,-7.0677927414290025,-17.23590422142297,-17.39417469874752,-20.230831711283827,-26.52010474722192
2025-12-12 20:54:07.506877,Right,9.015031387834824,-0.9793131895967235,-34.30924890807364,-1.7573296717418998,-36.18426286626345,-5.023277584425159,-9.110296631890378,-14.588549814543512
2025-12-12 20:54:07.510966,Right,24.341950455438564,13.324766274268768,-20.02900953941571,3.5005775044446636,-95.3707616780448,9.453421961074127,3.378642728563136,-2.0208365475518804
2025-12-12 20:54:07.514967,Right,21.288524597446667,9.922580650942109,-23.19281745121407,6.1038462505239295,-80.26558333425055,4.8285251614343,-0.9646147784224013,-7.628239735215175
2025-12-12 20:54:07.518960,Right,7.904521200205636,-2.376692041172646,-34.50947318127146,3.5472950886651233,-14.726216221868526,-8.539760143954481,-12.85266361549293,-19.081038823114795
2025-12-12 20:54:07.522982,Right,7.519643300800453,-1.313262854477216,-32.25630154101236,-0.2071693047619192,-16.505984063296637,-6.956888842943954,-11.092683338469215,-13.85282563610599
2025-12-12 20:54:07.525993,Right,18.506738185635186,10.032819507443492,-20.18637516652234,1.1314867163382587,-77.60427591769258,5.269788811512626,0.425263955941773,0.48438867818549625
2025-12-12 20:54:07.530015,Right,19.60611246937333,10.472326386934583,-19.36680835383595,6.2964384201441135,-80.28333609849506,6.288569434314013,1.3937587554573838,0.5219939416128909
2025-12-12 20:54:07.534969,Right,8.85935222311491,-0.7224235234498337,-29.99068633270508,7.96027384027002,-17.947847951036238,-2.4398811369210307,-7.7619818133243825,-10.744313890099875
2025-12-12 20:54:07.539032,Right,5.090778583513384,-4.003182828444551,-32.43190617825894,4.6328566279098595,-7.189286699096556,-0.3820697863757232,-8.095226319452195,-10.53843244721429
2025-12-12 20:54:07.543070,Right,11.830124247022468,3.9838356138679956,-23.710217195897712,2.9226951894015656,-68.75050450926938,12.388937562566753,2.0696862157528813,1.8060283178310783
2025-12-12 20:54:07.549077,Right,11.301659907812791,5.217450477877719,-21.98445521562826,5.77688686475085,-87.84350807401643,14.500099068923191,4.208985674235009,4.593622317468544
2025-12-12 20:54:07.552028,Right,-1.7156863705786236,-5.81919264140015,-32.59626667200064,6.855584916933367,-28.71884644687816,2.225200167420553,-6.290681355458219,-6.244525395028177
2025-12-12 20:54:07.555037,Right,-10.238097382632986,-13.10893514817144,-39.61262929685472,0.8240124339390604,-1.978804603772005,-4.638653897849508,-12.870012156839948,-11.67802483783089
2025-12-12 20:54:07.558119,Right,-6.985006680548395,-10.30593630677322,-37.00784867689072,-8.214186080575018,-58.07540551338752,0.13251256614171325,-9.557462651449896,-6.8460894490999635
2025-12-12 20:54:07.562064,Right,-7.172793957874092,-12.100813810924592,-39.4461825715407,-14.077942145393536,-93.20733883226058,-0.7995690655646968,-11.143232691887533,-9.535036230194237
2025-12-12 20:54:07.567135,Right,-18.20385736226308,-24.316434053176636,-52.493960008192516,-17.469369195834588,-43.949548250064254,-12.98482428306967,-22.952732122896123,-24.10235996510528
2025-12-12 20:54:07.571138,Right,-23.59337264497117,-29.73022021970246,-59.1092828563269,-20.805743082415574,-6.437817196521792,-16.682947383401142,-27.773931843792525,-29.68008971148447
2025-12-12 20:54:07.575111,Right,-12.367205072538127,-17.890810716973647,-49.30983033774828,-20.712920413503525,-56.54353716145852,-1.9566168799447041,-15.978063199770986,-16.664555337316415
2025-12-12 20:54:07.578166,Right,-0.06974097553029424,-4.83831563718195,-38.9556737429084,-14.226018464993103,-106.64230637346918,11.947389232200294,-4.092420342440164,-4.990388091384375
2025-12-12 20:54:07.582135,Right,-1.804154514642505,-5.699936744240404,-42.13320617777936,-6.953774207700917,-66.78392821630405,9.597071273669826,-6.728579634305788,-9.666378945988981
2025-12-12 20:54:07.588219,Right,-6.340812571899733,-9.49136886490669,-46.910440870669845,-5.754409309010953,-10.078743849371676,5.052978326768425,-12.274316342780367,-15.813337422703626
2025-12-12 20:54:07.591241,Right,1.098882605131621,-1.9119018038072682,-38.89605688480515,-7.8538309535433655,-35.01121491522645,13.567549774646977,-6.501869280193205,-8.336310321974452
2025-12-12 20:54:07.594273,Right,10.203313181908015,6.700568116164504,-28.92900747514068,-6.470255392676336,-83.08017881757405,22.407081883568026,0.24906330492376583,-0.4902429730609583
2025-12-12 20:54:07.599247,Right,5.405082830166975,1.2176974604954012,-32.65809146373067,-2.3837828945215733,-51.631469409374404,15.767755827951078,-6.337613459600107,-7.644907706482627
2025-12-12 20:54:07.603282,Right,-3.0314776923823956,-7.8258628987423435,-39.829305683968414,-0.4254569119293592,11.268706698043388,6.736013043607272,-15.128229148962419,-15.970466565046081
2025-12-12 20:54:07.606268,Right,3.0720481217931592,-2.2630428786542325,-32.241943896369776,0.6138949872693047,-4.160801052581519,14.375961884185017,-8.582958746515942,-6.902392241463531
2025-12-12 20:54:07.610280,Right,15.066117773390033,9.455339365473264,-18.048624595510773,4.8083932975278,-63.189129765291,27.61623647752458,3.9699130986846285,7.12822885308924
2025-12-12 20:54:07.614306,Right,11.736050066441749,6.531863769654592,-17.70458647531632,9.559215538654826,-50.5402619195811,24.314986980940375,1.9081710280152038,3.674789190390584
2025-12-12 20:54:07.618332,Right,-2.5707468453329057,-6.6495004275693645,-26.745393977529602,8.858918889125562,13.600693500920897,11.160659126777318,-9.72562692453721,-9.37354042250081
2025-12-12 20:54:07.622347,Right,-6.030674477661705,-8.763343777689443,-24.25070028375194,4.151744680115371,9.959453951392788,10.750679681968904,-9.749619270685798,-8.421344558151759
2025-12-12 20:54:07.627348,Right,1.7536540641158354,0.24548390661038866,-10.970565139621613,2.780617882232036,-57.52226517978124,20.3544604961844,1.1285287335704197,3.5244714360705984
2025-12-12 20:54:07.631378,Right,1.4622915089839807,1.428555258682536,-6.6925585661883815,6.1123909567077135,-68.18459157345933,18.615278840903557,3.6666894812951796,4.7753670399979455
2025-12-12 20:54:07.634379,Right,-8.787201427642685,-6.647475554469565,-13.404246023055748,7.90040025025246,-7.952998441076488,6.209692434485987,-3.3256962311534153,-3.5685862005157105
2025-12-12 20:54:07.638323,Right,-11.02378738854577,-6.44274568118999,-13.643941020709462,5.038724151636416,6.908104218367953,4.065013545879992,-2.295756210665786,-1.0484528938832227
2025-12-12 20:54:07.642381,Right,-3.281600906562744,3.1187502516222594,-5.894478005357087,1.3238829742849703,-51.48812193752383,13.224318229211349,7.64113208492563,11.13124912301646
2025-12-12 20:54:07.646409,Right,-4.589844743865342,2.6567446154313075,-8.896820144211233,-0.9614824566551761,-71.1103980159678,12.68885444510488,7.309318738653019,10.046184022910893
2025-12-12 20:54:07.650478,Right,-17.866362891687913,-10.805974257380512,-25.195129093452124,-4.210155846711132,-11.769510800251737,0.3821915080443432,-6.0765104361962585,-6.236641849174703
2025-12-12 20:54:07.656480,Right,-21.43986026824541,-16.014504493963614,-33.26013210849487,-8.459698941652277,16.91397994037834,-0.6891222521153395,-11.851453645964284,-13.630076607167211
2025-12-12 20:54:07.659487,Right,-8.506300229804765,-6.334279465772852,-26.014984384302807,-10.15186029503775,-41.24678367521847,14.983834168397152,-3.9087490436504595,-6.169431572645408
2025-12-12 20:54:07.663483,Right,-1.4735446121208042,-3.1804163768756553,-24.26698802831379,-9.648577001303693,-83.81977486731193,23.707846884244645,-2.872952400241047,-6.853710866671463
2025-12-12 20:54:07.666504,Right,-12.602563093247227,-17.42122744102926,-38.5460102043362,-12.109616489215114,-39.58339011025964,14.92189612376751,-18.399738295107454,-24.084348992029845
2025-12-12 20:54:07.670499,Right,-22.337602806426844,-29.359156743512358,-49.362449244988966,-18.4822890296914,0.907102375436807,9.785102324884065,-30.948393729313466,-34.92339271911624
2025-12-12 20:54:07.674523,Right,-14.559490571321192,-23.79544226319831,-41.96488356438931,-22.418749204726282,-43.04058911500033,22.190405560384534,-26.43742108803781,-26.235893248131106
2025-12-12 20:54:07.678519,Right,-4.467370951421913,-16.1565693733819,-32.02991948883573,-20.118787559483962,-90.51774807844777,33.94367804117428,-20.20357121791858,-17.748274843690524
2025-12-12 20:54:07.682533,Right,-9.474367133700412,-23.080356100338577,-36.413138311501825,-16.661397182069322,-50.9986053758621,28.97719978009991,-27.267024002621838,-25.25465745740439
2025-12-12 20:54:07.686505,Right,-17.648783296583588,-32.29068428160463,-43.44068052248622,-16.964882708358118,4.900271879057982,22.909171760726167,-34.57025775607872,-32.17701482149823
2025-12-12 20:54:07.689574,Right,-11.252752937659352,-26.558928282325724,-36.50222609987395,-17.28313893923513,-24.2432400938269,33.618087991279026,-26.130342069611288,-21.21818010908828
2025-12-12 20:54:07.694564,Right,-0.46048324574576327,-16.225646557790242,-25.845118769990222,-12.903656259410695,-82.49815793515882,47.8061459883902,-13.78571621250012,-6.957415821261748
2025-12-12 20:54:07.699561,Right,-4.029223130445189,-19.547569346012097,-29.165195918802056,-7.693060662949733,-61.654876405606046,45.536630112314015,-16.241585286521513,-9.259151256823316
2025-12-12 20:54:07.703589,Right,-13.128287959181762,-27.78724279675407,-37.52497998182662,-7.313128406853821,-2.6295832997129764,37.08177278072981,-25.071096918487456,-16.99019003067133
2025-12-12 20:54:07.707604,Right,-6.290805733919115,-20.526252056586145,-30.628556806514098,-8.273050040336102,-17.112047217669897,43.9099800780823,-20.315193525737413,-8.956643959544635
2025-12-12 20:54:07.710612,Right,11.754669448545428,-2.9434809863150804,-13.346250066657376,-3.0044487115274023,-76.95055982700433,59.540438197793264,-6.437424482180177,7.403746593037795
2025-12-12 20:54:07.714618,Right,18.853889613274987,3.88601079993839,-6.052714846024173,7.674259858168625,-65.88626073948399,62.59731722269498,-2.590169517380673,10.955370514771857
2025-12-12 20:54:07.717694,Right,14.792837571836571,0.8929995629937224,-7.691459785939514,16.348627579422555,2.804006750578992,56.43539020868775,-6.81903558387603,6.084848976381181
2025-12-12 20:54:07.724626,Right,18.662103642168404,6.767008723352205,-0.30613696763975895,21.07681631559808,9.99573988118209,61.05135559745395,-1.3688283213286923,12.64846410652899
2025-12-12 20:54:07.728647,Right,31.089146464752957,21.048141215984742,14.961103481677128,26.154087379665725,-47.97645239692065,73.57597128269481,12.05567956446339,26.64224703557784
2025-12-12 20:54:07.731626,Right,32.99940916414107,24.618546903176593,19.062585926341853,31.67728443426404,-53.86205840384355,72.56308423128212,14.430681135834675,26.56528613882665
2025-12-12 20:54:07.734694,Right,22.385386253644356,16.09957285082328,11.103088549047243,32.39254498066657,10.12682961151586,58.2727992864784,5.071408559936117,13.939053268074304
2025-12-12 20:54:07.738791,Right,18.874043927989987,14.950385258481674,10.824750263021997,27.972320468677935,28.617999675683677,52.8420285349348,3.218775910266231,11.390063643298845
2025-12-12 20:54:07.741712,Right,27.294000835345287,25.267294520684118,22.30420335629242,24.81214622753214,-30.933380846094224,59.44654407332928,12.106201442924203,21.13498798598085
2025-12-12 20:54:07.745726,Right,28.84077479733878,28.236624495421893,26.53545307421882,25.060204742095266,-57.08595849298581,56.57426546123679,12.817577160743213,21.33330918248123
2025-12-12 20:54:07.749749,Right,16.718379388170433,17.577276848275687,16.83606613314987,23.049287022516182,-2.7118213892099448,38.2629975579257,-0.07261499304924302,7.315680902348504
2025-12-12 20:54:07.754770,Right,10.016058336908827,12.178146925118199,11.674638357548247,16.644806801910818,27.148276522639208,26.130814931308123,-6.895383442442949,1.242330459088862
2025-12-12 20:54:07.758787,Right,19.43461972235309,22.102332898628447,21.15438001302391,12.846459333297389,-27.650433907212573,31.010454912382556,2.66829009512594,12.17588010772397
2025-12-12 20:54:07.762782,Right,27.426282686403283,30.13029952755005,28.590717946904988,16.042313460591686,-69.23844686515804,34.42587010969146,11.584899242402344,19.782695952132144
2025-12-12 20:54:07.766793,Right,19.1501268803695,22.400778222805457,20.65180517565568,19.38367087124243,-24.318040270198253,23.020973019280063,6.119101724172651,10.90598550839968
2025-12-12 20:54:07.770807,Right,7.455518791424765,11.793210010009716,10.363138110227737,15.403897484569825,19.12521629483672,11.495661120323348,-1.4768368754735093,1.4237597522178476
2025-12-12 20:54:07.773815,Right,7.477867817991864,12.675497076388638,11.918870827919818,7.921575682337789,-23.29413343919441,13.100853673913662,1.9520328421526756,5.006844745000308
2025-12-12 20:54:07.777826,Right,10.204327751232995,15.98879988257795,16.082569655192856,5.320864568073375,-74.27316362909914,15.374692293429689,6.925964011320502,9.322814975791516
2025-12-12 20:54:07.781851,Right,3.644523875786035,10.45123298951512,11.55343293113583,7.916090140679444,-39.2834574051667,6.562446401341731,2.8513540616950195,3.410932485245212
2025-12-12 20:54:07.786888,Right,-1.4929982369430945,6.8136029728102585,9.056318477063542,10.192619424009536,16.545168548516813,0.3333888338638644,0.7671519417781383,1.2249238522326777
2025-12-12 20:54:07.790872,Right,7.335635647721574,16.69545387461403,20.007977660273355,10.752411197443507,-9.893610055893078,9.534277542083146,11.665533783253522,14.162115857413482
2025-12-12 20:54:07.794876,Right,17.07356382796206,26.641992724738884,30.656566922405545,11.8090834848972,-67.02002878151688,18.697882635417045,22.063263534826547,25.217931360130933
2025-12-12 20:54:07.797886,Right,10.20797744761876,20.057193409169486,24.144654255562273,12.364570048233873,-45.402601318281086,10.19116567724268,16.437946990953606,17.28114297034699
2025-12-12 20:54:07.802843,Right,-2.9795942379860207,8.059374833961556,11.504545463895738,9.78317054847139,17.088955792474735,-3.0212937519208936,6.499244597593133,5.044399961932868
2025-12-12 20:54:07.806909,Right,-2.0644622639229055,10.560231264205868,13.031081947344774,6.366934610414319,5.618404973902216,0.06461333531478886,11.523363002675978,10.117393533533686
2025-12-12 20:54:07.809916,Right,7.488438037862579,21.1077267165565,23.051541512715175,6.948510528041879,-57.27831105041696,11.141470472521178,24.330587014192133,23.27578084653942
2025-12-12 20:54:07.813933,Right,5.887230673333761,19.787286948670953,22.10883436816212,10.35397463416848,-54.148429706729075,8.58398742375357,24.747815046157484,22.10872554109301
2025-12-12 20:54:07.818962,Right,-3.7619170553807635,10.073879061854313,13.420777034321873,10.690977676282273,7.6180876408107,-3.228588207548455,15.719378594154477,11.374782499678986
2025-12-12 20:54:07.822905,Right,-1.6877421935969323,11.626649200014072,16.218728204179115,7.122990134457723,9.796594011939305,-3.474640302294574,16.168977835903206,12.406201671834424
2025-12-12 20:54:07.825949,Right,10.422091170417843,22.763918893195296,28.908972263974647,4.4233988393334585,-55.002762001582596,5.307667510753163,24.809575601977485,22.460461938298977
2025-12-12 20:54:07.829967,Right,10.96019353473639,22.911257573116018,31.405562814033146,3.7190009209771233,-68.36882131976017,1.983765494556792,22.77916454001206,20.417696737678853
2025-12-12 20:54:07.833985,Right,-1.916661151784865,11.140988903582183,22.911565994877492,1.39327283003513,-5.976695795921842,-12.428800111854798,10.18408001448006,7.8537657616216165
2025-12-12 20:54:07.838006,Right,-5.819847194121394,9.105873339325626,24.500688753028953,-1.8244514093657926,18.201656218341668,-14.841656321845221,7.755011726620069,7.692810441596521
2025-12-12 20:54:07.842012,Right,6.031696434685728,22.027907180276088,40.56157972560686,0.09354862920736196,-34.66390155164845,-2.0840908918235073,19.53432391421302,21.992327218016726
2025-12-12 20:54:07.847034,Right,13.691991492414672,29.429206650434935,49.989076320501226,7.900409312429474,-56.641504455059476,3.0229990542411542,25.514123008621027,27.46636378655421
2025-12-12 20:54:07.851058,Right,7.909345225230936,22.632853550236177,43.695129480305695,14.31524433442064,3.2519325254979776,-6.880835393760208,18.137261727270015,17.72508051244222
2025-12-12 20:54:07.855056,Right,6.141646236144879,19.582942370525416,39.499521015965,14.982906137051032,41.922091909102164,-11.33609257885837,15.179404940876339,14.114889178497833
2025-12-12 20:54:07.859064,Right,17.944345293057268,30.033034403219062,47.655114804028926,14.049715250632289,-6.2228694820951205,-1.2749820787430508,25.371079843280313,25.112571447592927
2025-12-12 20:54:07.863027,Right,25.29908292487562,36.6038775717534,51.87046050738536,15.323824667508234,-47.249143888941035,3.5869608532048005,31.201699063363776,30.051111236260112
2025-12-12 20:54:07.866050,Right,15.561459226488296,27.428076379852428,41.13216946368084,15.95895728738833,-3.163735670495953,-8.117204060639779,21.458064343396472,17.81176804851748
2025-12-12 20:54:07.870117,Right,5.68523941930107,19.01356265065624,31.821788200011724,13.37091763652461,43.37030130904168,-17.39572770756422,12.705030275687022,8.232317062118454
2025-12-12 20:54:07.874149,Right,11.7503474076766,25.775336852282635,37.640321431983466,10.915925287925347,4.9817662732166355,-9.821633664403635,19.04126970539619,15.866005970317929
2025-12-12 20:54:07.879181,Right,19.996925725581605,33.01619791121993,43.53525444042134,11.196796418666054,-46.28088062614552,-2.3424589789083257,26.250344525531546,23.443813883721305
2025-12-12 20:54:07.882139,Right,12.879051032276038,24.003041303218197,32.99909828494856,10.152212674032853,-13.689031557958515,-11.941386386100021,18.3399842732033,14.201440394954261
