timestamp,label,FC3,C3,CP3,Cz,FCz,FC4,C4,CP4
2025-12-12 18:15:28.815024,Right,1591.2101970293963,2111.0819918660013,2082.019440565085,1757.7780768814134,830.5582570817213,1612.2172456111637,1901.0016779711639,2173.5030289436327
2025-12-12 18:15:28.833059,Right,8567.937647467172,11366.960665117731,11212.133777344148,9466.077076308464,4474.015254551187,8681.224284322936,10235.641278707963,11704.16214532948
2025-12-12 18:15:28.836060,Right,19611.11577573238,26022.25943019999,25674.413231606333,21673.887739381087,10303.05142559064,19871.928564571226,23430.308426469754,26799.062911702975
2025-12-12 18:15:28.839012,Right,24452.085822710287,32468.943037472556,32050.694811010257,27044.36268002299,13101.913505473458,24782.905631096,29227.482658603083,33449.635694326134
2025-12-12 18:15:28.843094,Right,16442.99975350622,21888.424011768388,21633.338245787258,18221.59906339329,9318.538241118582,16677.849669660674,19689.53179583804,22565.15188371241
2025-12-12 18:15:28.846079,Right,1770.5980741204112,2445.6178934932395,2460.7726053987135,2009.8587080681318,1674.044948199189,1817.0050050266145,2182.9435907351,2535.8639667578245
2025-12-12 18:15:28.851111,Right,-9097.990741085785,-12009.669834920933,-11805.307085247914,-10031.704596642754,-4600.236528360911,-9200.882841611485,-10816.562394935783,-12371.953140705009
2025-12-12 18:15:28.854055,Right,-11739.690806609957,-15567.757590978232,-15321.425912217645,-12976.214848805452,-6537.122170442468,-11887.853615597327,-14007.32500685443,-16046.225167257944
2025-12-12 18:15:28.858118,Right,-8422.893377030967,-11169.542727459804,-10983.457121124142,-9301.51205736521,-4652.650115595257,-8530.718952112598,-10054.234184649307,-11506.772283954546
2025-12-12 18:15:28.862126,Right,-3720.6603091902216,-4894.718831391423,-4796.440839706396,-4086.9936522908974,-1729.5454491647251,-3763.191146062163,-4417.956606749387,-5036.444482489431
2025-12-12 18:15:28.866143,Right,-1074.724917644693,-1377.1731905911583,-1333.4002597709768,-1168.871462551353,-335.00139715208206,-1081.683142364258,-1249.815217687632,-1421.1414977700915
2025-12-12 18:15:28.870149,Right,-1535.239567384997,-2015.7692346676486,-1965.8396780219628,-1692.3096463608672,-876.7589542229834,-1551.7060156936059,-1815.617672962544,-2085.524483055924
2025-12-12 18:15:28.873193,Right,-3754.1719762256253,-4966.284016138059,-4873.243984101107,-4139.180807949742,-1994.5476094593178,-3800.5911446159007,-4473.708385369973,-5117.664597202907
2025-12-12 18:15:28.877186,Right,-5240.344792919583,-6916.5996584023815,-6798.607545796782,-5770.834683329915,-2485.5647979860078,-5303.868633016944,-6237.8448750447715,-7121.611628998886
2025-12-12 18:15:28.882179,Right,-4632.598194716615,-6113.600842013722,-6015.558103850926,-5111.136064047925,-2257.937033699185,-4689.762450841488,-5511.8681975813815,-6304.579005048145
2025-12-12 18:15:28.886200,Right,-2940.4055702785263,-3903.4280283141416,-3841.0196590361884,-3260.3724166631,-1734.6748960230616,-2981.5916732377373,-3511.400193988229,-4036.3964425931918
2025-12-12 18:15:28.890209,Right,-2140.590602547163,-2851.3357921969146,-2799.90128199209,-2370.1874454206554,-1272.0994834214798,-2173.402011991013,-2564.630414216779,-2942.4125444688834
2025-12-12 18:15:28.894195,Right,-2757.1831661162432,-3638.3936373473844,-3574.183906076825,-3031.366178083932,-1190.7918542299303,-2793.134463724913,-3282.3719404840376,-3739.3093313545687
2025-12-12 18:15:28.898226,Right,-3497.567626095377,-4609.479504503426,-4538.793792243465,-3852.4353916749824,-1556.663503941265,-3539.4018337220186,-4154.448238502606,-4743.263901587459
2025-12-12 18:15:28.901252,Right,-3207.5182903233217,-4258.044520133524,-4199.002743913559,-3552.3638062985847,-1834.985860900546,-3247.7004404133186,-3824.8823130158707,-4391.81604706205
2025-12-12 18:15:28.905241,Right,-2315.4633171822643,-3094.4984780607047,-3049.4613576038973,-2566.3440253480803,-1483.5511103512836,-2345.686983496649,-2775.3462140549673,-3188.9605457978323
2025-12-12 18:15:28.909320,Right,-1967.4770694967592,-2604.4200486703776,-2562.6711169219343,-2160.8589961656835,-899.3786322612432,-1989.8196035072906,-2347.0305249950616,-2672.6670785656897
2025-12-12 18:15:28.914311,Right,-2389.352358444361,-3141.0624132342637,-3096.6797598431585,-2624.5665894447593,-950.8008669918054,-2415.191190766287,-2835.3706859297818,-3229.2755977123743
2025-12-12 18:15:28.918290,Right,-2756.4515654536663,-3654.7044487289386,-3610.198467958253,-3052.5138872895623,-1540.7285022825236,-2791.4854705040343,-3286.7988585558487,-3772.0621654031565
2025-12-12 18:15:28.922240,Right,-2439.2585430841427,-3263.063243718003,-3222.4940858244663,-2710.3246179817943,-1639.625166065176,-2474.2760825350415,-2927.7649433201877,-3367.9614717348013
2025-12-12 18:15:28.926320,Right,-1768.6845372832613,-2352.478234706796,-2318.9986571716145,-1950.303369050147,-962.2775961122825,-1791.9931208121125,-2118.2563805355458,-2416.233788413694
2025-12-12 18:15:28.929308,Right,-1485.8200313684065,-1943.83372458932,-1918.000080824946,-1626.9127363450825,-506.1777525502839,-1501.082969214418,-1759.5075964429416,-1992.8649241436506
2025-12-12 18:15:28.933272,Right,-1794.0840252211783,-2365.591971702059,-2341.491072896868,-1983.8881387156434,-926.692702954635,-1815.9347444294253,-2132.643598137074,-2439.291170449462
2025-12-12 18:15:28.937354,Right,-2160.8751234653173,-2885.789302115096,-2856.861238280777,-2402.1752409976907,-1447.8925936453743,-2193.650758039672,-2593.0659745292505,-2979.024475594517
2025-12-12 18:15:28.942353,Right,-1987.4197767504957,-2651.6854593743337,-2623.762856010464,-2198.4094406387303,-1165.7322159903706,-2019.4719252267387,-2388.276072617038,-2727.968915047357
2025-12-12 18:15:28.946389,Right,-1348.3277449079324,-1778.4551112414338,-1765.69100964244,-1481.337377055781,-522.3148433624883,-1370.5728198975557,-1610.0051964635495,-1825.6710804862669
2025-12-12 18:15:28.950387,Right,-933.7426468622871,-1237.5710050332127,-1240.240752602811,-1036.7067228172673,-492.84370246261824,-953.2150694604497,-1117.4736602983903,-1280.5635268458864
2025-12-12 18:15:28.954432,Right,-1180.2314628241584,-1596.535134293721,-1596.4688819485018,-1323.2650133102434,-977.4895004234277,-1207.9960484777112,-1432.364993852214,-1657.4826658102684
2025-12-12 18:15:28.957442,Right,-1645.5690912801074,-2211.8790594819,-2198.674169435748,-1827.0601955977036,-1103.2619766764692,-1678.8893068894977,-1991.8999814516865,-2283.6271717875497
2025-12-12 18:15:28.961440,Right,-1559.3144781803712,-2067.3663593584206,-2054.9296284285374,-1717.5137089047348,-714.9793482897221,-1585.5792045504786,-1871.8470518686809,-2130.175796004245
2025-12-12 18:15:28.965461,Right,-912.2588828364387,-1208.2963424720801,-1212.3201342127286,-1011.6724601988681,-461.08400984684704,-926.9419102688553,-1094.9359221350169,-1255.0350288506597
2025-12-12 18:15:28.969450,Right,-511.25409590115305,-705.8962125076214,-717.9079160089605,-583.3753342548152,-585.656337027729,-522.1969636944123,-632.5907816522522,-744.6380390976556
2025-12-12 18:15:28.974403,Right,-815.3596874123905,-1112.876981302281,-1114.2433333571535,-911.3591952399584,-670.6754396896577,-830.0327278195182,-1001.031956744031,-1155.3812821793836
2025-12-12 18:15:28.978504,Right,-1251.8879098555772,-1663.8649871901143,-1656.4442038702546,-1378.2515382865677,-542.0418277490535,-1269.136835166486,-1506.044835810666,-1714.7009040541016
2025-12-12 18:15:28.983515,Right,-1075.655887306144,-1426.6193329630187,-1429.0274727479555,-1191.1419439519523,-491.8671610150486,-1091.2781493259245,-1289.136553926277,-1476.9326033630641
2025-12-12 18:15:28.987461,Right,-472.8821744903107,-659.218814748805,-676.4730931045488,-543.0038675526157,-556.9364724558545,-486.2873001542757,-586.0991331663681,-693.3500090511516
2025-12-12 18:15:28.990532,Right,-231.45534628495807,-349.91416178364307,-367.57297419256065,-271.54375313210767,-438.4995841991622,-244.41277215868467,-306.9789567057742,-365.6259331672918
2025-12-12 18:15:28.993534,Right,-545.8061312557547,-738.2738731449936,-747.6241396819241,-600.9943452628213,-213.61076622613473,-559.535480664752,-666.7739775864175,-754.036249743891
2025-12-12 18:15:28.997485,Right,-807.3779761097976,-1072.950430902536,-1082.5318284599343,-894.2679531780304,-293.4360207148711,-822.6130441882997,-968.4288366116234,-1103.5347507991828
2025-12-12 18:15:29.001558,Right,-583.9956346852705,-806.4644744007965,-823.8871152733336,-668.8532705198159,-577.4835133188462,-599.9669860978611,-716.9904763751547,-838.9368004787248
2025-12-12 18:15:29.006563,Right,-193.11127080745064,-305.32486587559106,-324.6585043770028,-237.8255440244102,-500.72591146075865,-206.0445342210005,-263.14874971460085,-316.5997327666846
2025-12-12 18:15:29.010568,Right,-109.4453971349867,-164.1967837145785,-178.57266506867018,-124.37766943045426,-70.41265168323298,-116.76688923785696,-147.5916722684633,-157.4235381373437
2025-12-12 18:15:29.013587,Right,-288.6113215610967,-375.10566971614026,-387.8219417972141,-317.5016984381364,37.39479549130192,-294.7204008764238,-343.1960956224939,-376.51773534627864
2025-12-12 18:15:29.017537,Right,-375.13614671019604,-511.997127926792,-527.3860479291179,-432.691732553998,-340.8465366772434,-387.1606875285506,-457.8930682015489,-531.0270065984223
2025-12-12 18:15:29.021601,Right,-249.46103767800378,-374.9071288728737,-390.30572180618765,-302.49983326904476,-505.6609202143154,-266.7883924587222,-329.52487087174086,-391.5886097610928
2025-12-12 18:15:29.025616,Right,-61.82897893685731,-113.16785187012283,-127.63490245543653,-80.05680430968641,-107.88099365579546,-76.50907278890372,-102.21363130689133,-112.16544416733086
2025-12-12 18:15:29.029633,Right,63.44842844104278,75.53833918977762,55.92901790700853,65.05038895367761,211.18792199829477,54.74545040400699,63.36820881810854,81.71316684084013
2025-12-12 18:15:29.034635,Right,98.40925859258277,103.54880065776524,77.16069665076793,86.44140745836194,-58.86705231378437,90.33667499921285,99.5414949026308,98.04320049280068
2025-12-12 18:15:29.037666,Right,41.60164906113641,-1.5802563790639397,-26.118244979181327,13.588205164094688,-400.43447823103634,30.554356392705813,13.395618115609977,-12.98631976157776
2025-12-12 18:15:29.041669,Right,-22.70255394570995,-72.45674786201562,-90.55846775122336,-40.86989669203467,-197.80205234669847,-32.16328621680441,-59.62340698414482,-74.54051574872574
2025-12-12 18:15:29.045629,Right,56.232090515084565,66.99233641130559,46.43918089958606,60.26811921474291,191.72016268852167,52.41722151465365,54.55488536147459,73.49172871209157
2025-12-12 18:15:29.049701,Right,256.7131136861499,325.89879581365676,295.43152614509745,268.6112369676339,127.79364356875885,254.48756310391036,293.07524661018397,330.4384822782449
2025-12-12 18:15:29.054685,Right,342.5086799493365,403.86696503424173,371.3650505232072,348.7181554501949,-171.1625793997082,336.9938032325408,374.7070516802851,407.31975099354895
2025-12-12 18:15:29.058712,Right,221.85160358974372,242.21456614067392,217.8601344791423,226.82343052167835,-95.27448593441659,216.10022415771397,227.24521421892496,253.03924826224284
2025-12-12 18:15:29.062739,Right,135.22130607285726,156.86164054666733,135.60731272854537,146.84985099277765,220.26732183814602,134.98839329530892,142.22320256715466,172.80433629362597
2025-12-12 18:15:29.065736,Right,280.31290448568325,349.8394928472626,320.98138804146583,297.40924048315355,198.07593360039027,284.8484307050676,319.6676672669273,361.9752681839673
2025-12-12 18:15:29.069690,Right,474.5574785030476,576.608543159411,543.1903827634378,495.3051544456248,-70.4886561975809,479.2897371111467,533.4219336369861,587.3018057529116
2025-12-12 18:15:29.073756,Right,455.4139623283554,548.589119400669,521.7217407068383,482.73535710189026,-14.252605770847367,460.1823648145364,505.27153539851133,567.4580047480122
2025-12-12 18:15:29.077764,Right,315.37387665899587,396.7337015137309,375.97929884612677,347.36128558780183,312.92182380884697,322.913272507838,358.10320321680047,421.786362244864
2025-12-12 18:15:29.081781,Right,322.7520610491338,416.78406117876875,392.39472599700093,351.2629744292062,321.7809490769141,331.30206738915876,377.9362281791691,437.6212013964541
2025-12-12 18:15:29.085781,Right,464.65288518261514,574.753100488917,546.2345556214568,489.6493455953314,10.923210013010248,469.50401923712343,531.2001970579149,592.7446405613737
2025-12-12 18:15:29.089818,Right,515.6610539612011,629.2254163049511,605.1250614234887,548.1621427049686,-5.903584230225533,517.0523973948439,579.381751827983,655.9645801465958
2025-12-12 18:15:29.093817,Right,459.7186616729887,583.2345650946954,563.4324945427943,503.8172816571605,353.81320704137033,462.00907384132734,524.9992658555857,618.5452425953117
2025-12-12 18:15:29.096819,Right,480.73336297497735,626.566816738632,601.434704754909,525.1979680899531,466.10199331755575,484.10851375819766,560.5951155942748,656.5022819051519
2025-12-12 18:15:29.101827,Right,581.8731387807638,732.5975928201806,701.1715063459123,617.8443212020793,146.76849544636207,582.3665327370982,666.4522994825384,752.4227211074322
2025-12-12 18:15:29.105834,Right,583.1868186298525,713.71789510292,686.4426102274447,618.8052467263769,-3.059626566435327,581.4924344858155,653.7107819103985,735.507854527852
2025-12-12 18:15:29.109846,Right,497.72250183246797,625.8206829658011,605.8368482028018,545.3003418559674,301.709199034638,500.19356443331344,566.183982964023,658.0482657837565
2025-12-12 18:15:29.113881,Right,536.2574470315012,703.3143468932249,680.9351567121339,594.133347289986,518.511769468576,545.2722817787435,633.3942625322379,739.2560190932709
2025-12-12 18:15:29.117889,Right,693.2539485985762,894.3350296188146,865.4241980332881,750.6721254315344,287.0487429816276,703.6528725156677,816.4920724419062,927.416008197586
2025-12-12 18:15:29.122902,Right,707.7636836601305,890.6985878379783,864.9484526325832,760.5090010459535,74.77341918909224,715.1794763606158,819.5220140726888,925.5547254248522
2025-12-12 18:15:29.125910,Right,534.0020241877064,679.235199547722,662.5169909719261,585.4532677316456,284.9440856206638,540.2546716374345,619.6717603167053,719.0485961346421
2025-12-12 18:15:29.128854,Right,471.6303200315451,624.5396983713144,607.5749728822848,524.6150156555232,520.5077914400317,479.11686720111175,562.2032398311421,662.0526237849845
2025-12-12 18:15:29.133936,Right,662.2726355771883,862.89055307128,837.4687680408824,718.9583601601771,359.4633689596958,669.0954861149075,783.5608413564041,893.9656031699851
2025-12-12 18:15:29.137950,Right,819.9415583566879,1042.320119938231,1015.8600726503646,883.5508314641775,147.07002986982116,824.3716426456813,952.5684082239168,1074.8684530414175
2025-12-12 18:15:29.141978,Right,701.5762448617024,896.1850886037573,878.2890360230813,769.5861584369559,314.5782855571306,706.2231324437307,814.460087216692,934.7712725648889
2025-12-12 18:15:29.146005,Right,518.5290911161574,684.622842714889,670.2623565332033,581.4069802438607,543.0813733427494,525.7456382309902,615.9737698315876,719.6804296779446
2025-12-12 18:15:29.149950,Right,576.5497061720816,755.2751217473997,734.6398859189358,632.494468375924,377.4850576604658,584.2876657624147,685.6072019858984,780.158317438676
2025-12-12 18:15:29.153007,Right,773.4923177738674,986.1616250054212,962.1820809706114,835.4973828563234,121.51591056823963,780.2653328626184,902.196434744983,1011.7842160648433
2025-12-12 18:15:29.157009,Right,800.2000556715066,1026.8996765410993,1008.8646740854019,876.2219742349116,282.4938015763764,809.2745876545087,933.2353657088242,1064.3542143523227
2025-12-12 18:15:29.162007,Right,652.0323648015037,864.5314223030582,851.1998189145233,727.5269987664651,588.017988786567,665.4580665361136,776.7016150995623,904.8003841576865
2025-12-12 18:15:29.166025,Right,583.8434226044919,775.1844992596889,758.7978766807355,640.9636266361922,460.63350262411404,597.0341114961775,699.9634690275416,803.7761127529666
2025-12-12 18:15:29.169967,Right,668.0354054974159,853.4297654188704,835.5318873986835,715.269927852205,109.70676494820509,676.0794285769807,780.6542729699286,875.7454645446269
2025-12-12 18:15:29.174038,Right,738.058555288706,941.58526616171,930.0299683499616,799.8400302320952,182.38775101478677,743.4269724051701,856.1426381818019,973.6513440355193
2025-12-12 18:15:29.177026,Right,715.9501677936641,947.9360595800681,941.4921957912156,795.0192090361379,569.69786169898,723.9257146723103,848.3533706583548,988.1863902992336
2025-12-12 18:15:29.181028,Right,686.7228555399925,924.2390465004137,914.9705967048649,759.9692488303408,579.9304824300343,696.7103191976203,826.0915951322531,956.2116154087707
2025-12-12 18:15:29.185074,Right,675.6698624358978,883.0935035330476,871.8885494350689,731.2345859491033,197.16598381462973,683.8246332776034,800.6090767644346,903.9687234587036
2025-12-12 18:15:29.189075,Right,633.4757262377534,814.7801040955819,809.4865710659651,689.0288727481384,118.13707178336335,641.0600233962759,741.7783509414876,839.3279602935072
2025-12-12 18:15:29.194082,Right,616.6465318422997,820.398302275571,819.4449236658402,690.3248941038037,487.1058367827791,627.8216229580576,737.4326166255632,854.6341915732482
2025-12-12 18:15:29.198102,Right,708.1293511965778,957.8915198544273,951.3691476158565,790.7130969772115,641.1730921429116,721.0427730957745,859.3091959209414,989.6724192420952
2025-12-12 18:15:29.202124,Right,790.5509015052812,1041.00012282026,1028.8976690554991,861.7299852721626,319.5545866249013,799.2950779799139,944.3835288585396,1062.208236897015
2025-12-12 18:15:29.205108,Right,690.7303091058275,890.4985865196213,883.8600656723138,749.2797162949573,115.673314080399,696.1760917485226,812.3877689073561,909.7358078646939
2025-12-12 18:15:29.209128,Right,521.459351973841,693.9312046495033,694.9713776123244,582.5476590401959,376.9898819939117,531.5752869788557,625.7055410947651,719.4526099372888
2025-12-12 18:15:29.213164,Right,552.067527747131,762.4473555027507,759.7466244812822,622.9215904965531,600.9878976916661,569.9959132032236,682.7214746624231,789.0185612052446
2025-12-12 18:15:29.217150,Right,739.9305094705196,994.4762329204241,983.2120610720012,813.7642684197053,397.7605212604976,759.522371346713,900.3073812166695,1016.167010728037
2025-12-12 18:15:29.222194,Right,757.1090673642466,994.0117284770822,984.95819533756,826.7566676425049,188.8932555350475,772.7370320293121,904.2631531400839,1015.4318908865098
2025-12-12 18:15:29.227192,Right,540.5321777742356,726.3312669238076,726.9280953529524,605.295160023612,375.19233694591094,554.2323306631297,653.0112231029198,751.5428357967176
2025-12-12 18:15:29.231135,Right,425.1425591133302,602.3275851433864,603.8810256078141,487.0306509839138,584.7673246369231,440.7548548942432,533.9001935522538,625.971279794001
2025-12-12 18:15:29.234213,Right,589.5217726505361,805.5179030750878,799.4535313843517,652.5848080317955,404.99003438604996,606.3325125451665,725.7740084944526,825.1844144725474
2025-12-12 18:15:29.237207,Right,752.3105478190118,989.7702366802841,983.106992446119,821.9809843731346,176.44759480899666,768.685328447842,901.5756440021796,1014.4102505509509
2025-12-12 18:15:29.241159,Right,646.3953945522662,858.8074165994767,861.1540326949907,720.8821418071166,335.6772166293813,663.8909254291793,778.1340922863455,893.346331060864
2025-12-12 18:15:29.245239,Right,453.6402552280342,635.443362184451,641.9411825614516,521.4557566703297,568.8369766712422,472.6149347065948,568.0253195569385,669.1085310656345
2025-12-12 18:15:29.250242,Right,470.7518070525257,653.2795642605051,654.2116394485347,526.2851720140316,403.4542481873068,486.93121504678857,588.7801541570807,676.277374124038
2025-12-12 18:15:29.254214,Right,618.0789166077739,817.2282760303933,815.5670539635466,672.729986302089,125.23336296353955,628.7119907753076,745.2718517977046,837.6134017752483
2025-12-12 18:15:29.258288,Right,624.1637228397885,828.2576999918092,833.034323666594,689.9031599154696,259.4665295908344,633.0698091371451,750.5637884914177,857.13346663618
2025-12-12 18:15:29.261268,Right,498.8597556988243,696.4189010962145,705.4280249939766,567.8514192437287,565.7885385869304,510.1819997065468,621.3916464061476,726.9207042879425
2025-12-12 18:15:29.265320,Right,461.54993718327023,651.1004374248441,655.2968248934485,517.9077861418482,457.28579259762773,473.0877731034998,582.9370463963132,669.9356613688869
2025-12-12 18:15:29.269314,Right,528.7719678529538,709.3446701255161,709.7226466551656,575.4874609047547,99.606944864674,537.1091252324404,644.9229992175242,721.0759825346759
2025-12-12 18:15:29.273322,Right,529.2401646189392,704.9647939153947,709.7817313621053,584.47774981556,130.49343680089805,536.9061327652307,638.137802339741,724.9111289661378
2025-12-12 18:15:29.277342,Right,452.94910794729367,637.3361252496252,645.5723738066154,520.4941161650931,485.467171008524,463.73679950635415,565.1772466708208,665.0521293524653
2025-12-12 18:15:29.282364,Right,445.0792455741903,639.5382598148426,642.7191374669783,508.51048030983657,505.3502404431347,455.8603774184594,565.9628489454044,660.0663761808537
2025-12-12 18:15:29.285303,Right,494.2482374262763,676.150921441731,675.2195172376232,544.2998728564708,145.2638206895208,499.14341847156174,608.1487888320116,686.1547211771831
2025-12-12 18:15:29.289365,Right,454.0028965516249,609.6841385947773,614.2420160423499,502.61769988539163,53.97133572190069,454.66196038294584,548.2106353914132,621.6195478623267
2025-12-12 18:15:29.293335,Right,354.99401197896805,508.16275994258467,518.6960216065636,414.24782833561767,377.07055050943745,358.90599694440607,446.1717626871541,527.1009000067133
2025-12-12 18:15:29.297394,Right,372.339534622035,550.3169187356252,557.0267566718394,436.2177723639179,498.4178480770206,381.7848212560639,483.3471828874899,566.7620260606054
2025-12-12 18:15:29.301389,Right,480.1303904352244,667.114363677334,668.3652674695477,538.09635109792,185.67935426224722,490.52459484233987,601.4928943134146,676.9341516705463
2025-12-12 18:15:29.305377,Right,465.93097220978234,625.4191829832271,631.4531800522236,520.4730569315143,7.529105030349456,474.9842323012417,569.8250577980652,637.9198948002886
2025-12-12 18:15:29.310415,Right,320.20763925882056,453.5022949343547,467.70971296087373,378.1203032999765,265.81375663360814,330.63905632763635,405.51323994540144,472.97942013689317
2025-12-12 18:15:29.313380,Right,276.9307199547766,418.9551096712239,431.0148768046638,334.40031238424126,446.1507994157728,288.83505027589854,367.7381078572944,435.45034478616435
2025-12-12 18:15:29.316419,Right,396.7611745088361,556.7116425294662,560.7090337630361,446.7686786694685,196.13083094451576,405.32974504691083,498.08677352801897,563.8788742063334
2025-12-12 18:15:29.321466,Right,448.2015569412615,597.2502783221425,601.8508853242965,494.2125455138739,-17.137431161187124,452.0911277640844,537.9551858794875,603.8639712234726
2025-12-12 18:15:29.325479,Right,320.1602578361053,443.7735494778026,456.1224294004496,369.03647612035275,204.10173670295626,325.08598735835403,389.8729725474259,457.29885598737746
2025-12-12 18:15:29.329488,Right,219.98640710150357,340.3570798652945,353.62225681869313,268.2453156776028,435.069935272506,230.07918189791963,289.4911627911497,353.49130480224267
2025-12-12 18:15:29.333486,Right,295.2214598816354,428.4118813171517,435.3003117215121,335.8438177588396,228.7939865910448,307.1983804947231,376.45333769649733,433.63122318545356
2025-12-12 18:15:29.337457,Right,373.21892876084894,502.85970458376687,509.03200663859025,410.2263520604465,-37.7099713247153,383.307945779874,450.92195661051665,506.965932328254
2025-12-12 18:15:29.341540,Right,289.89467693900224,402.27567519946024,414.722398405429,331.8891215211479,131.63054917298723,299.9553627455607,352.57504504790995,412.9566495389445
2025-12-12 18:15:29.344533,Right,189.58031449094415,299.7184697185876,312.7205380491214,233.44935555313714,414.1028571363422,201.49451005226,250.81461195647717,309.7918159093242
2025-12-12 18:15:29.349544,Right,243.41194951161742,363.2175673925085,368.8869236962637,279.547054569819,263.6400117544108,253.7698057112284,314.6840381886577,363.58575277146883
2025-12-12 18:15:29.353540,Right,324.5228400292108,436.6709199863253,440.24753555783536,355.0573951576371,-65.40487237687921,330.5164297974552,392.8272982350318,434.465524686384
2025-12-12 18:15:29.357569,Right,250.74225618405035,340.8348108981736,351.40981043549255,286.9312914519105,16.318625836865976,255.93913108867127,304.0236364005832,348.02297336782794
2025-12-12 18:15:29.361586,Right,132.76700764655834,219.35923972236924,232.82547632290516,175.3588913754793,340.3412336866022,140.94945711951004,184.40109550696798,231.5564675743226
2025-12-12 18:15:29.365635,Right,168.27155884803506,270.86884825048037,277.0875910621835,205.98873809690122,296.60770038724877,176.0496944715851,232.34592809272,274.8369201256428
2025-12-12 18:15:29.369601,Right,266.8144808578654,368.4909192965133,369.88186550315004,295.2135004247539,-33.90621895896038,268.97286216629436,329.41763041657396,364.7290337055456
2025-12-12 18:15:29.372619,Right,214.5127998588141,290.0997015447356,297.33787179912906,241.41103786492022,-41.17144634242868,213.13788516662316,256.7107950822683,290.0190832813969
2025-12-12 18:15:29.377638,Right,77.52841741481097,139.1650507649174,151.8610627503367,107.3807768409024,270.6486275161151,78.8570624840795,110.42374760273378,143.6114753804868
2025-12-12 18:15:29.381650,Right,86.23915988148656,163.8716170268599,171.82287627656478,113.80687767686322,299.15914600441465,90.97451529809041,133.61077247862704,163.06784148979932
2025-12-12 18:15:29.385661,Right,205.9651669857558,296.37828560965136,298.725221661618,229.32087891397532,-21.498680166434497,209.6481001796783,263.9474316772539,289.78916739695705
2025-12-12 18:15:29.389674,Right,192.9978782152757,266.8737694674637,273.51045087573584,218.55566027545137,-100.39573683391791,194.35111105500255,237.9140526088886,264.4001941164024
2025-12-12 18:15:29.393691,Right,41.13198035641108,93.31788398139179,106.28231504361611,70.38877040677471,195.68298995005898,43.067739208287094,70.14549851685297,95.91328975488432
2025-12-12 18:15:29.396693,Right,-1.5728129909839481,52.70519953256007,62.44011061463971,23.214575383928604,291.53427713218844,1.1461949921795167,31.04724880232243,50.174194981111214
2025-12-12 18:15:29.402720,Right,121.1494982985314,186.48693265556358,189.76912049850216,138.61776467220625,-12.2201378197351,121.18442772031995,162.84250333008822,177.23499563679798
2025-12-12 18:15:29.405719,Right,176.85934368224116,235.67813037516316,241.58411338937003,195.97280993801542,-160.5291380995768,173.79076567932498,211.782589174225,230.42791547585512
2025-12-12 18:15:29.409744,Right,64.22165043931454,107.6418643394718,120.5158642110764,89.2893924061209,112.1528904789593,61.503865282284096,85.86800294625573,108.60138336190721
2025-12-12 18:15:29.413741,Right,-19.08426313981181,21.66115521575557,33.036823601229116,1.8058979094494134,275.43426706737955,-21.150013405364007,1.1881344938301481,15.925648841832299
2025-12-12 18:15:29.417696,Right,51.36794424097752,95.06774697848596,99.5478016124689,60.43818092555739,-4.748545847804053,46.334572791529354,74.70375492644962,76.55522378656315
2025-12-12 18:15:29.421761,Right,112.41306680481648,147.66368222644087,152.8884973585955,118.8824880674365,-229.5161759679031,104.71037862135563,128.26297149347374,128.88349452998955
2025-12-12 18:15:29.424782,Right,33.33897042169701,58.433207833208144,70.6096372626489,48.148032555996906,9.127539800683735,28.782799039036036,40.90065340080764,50.16831747780088
2025-12-12 18:15:29.428725,Right,-48.61245110654272,-19.694030388316605,-7.242444048577454,-31.613868348416872,260.7463235994801,-47.41380239330465,-34.84118188585853,-24.93809844268253
2025-12-12 18:15:29.432788,Right,-5.754768311540829,26.780716551991645,32.984183397493325,1.2915935547207482,47.36956022141385,-3.3757446247909684,16.37148966488894,14.769230087345932
2025-12-12 18:15:29.436799,Right,39.39917473125388,56.64251479570521,62.797506580885965,39.978658111183904,-246.22223348342231,39.06525197427254,52.86523005150957,43.950336466543376
2025-12-12 18:15:29.441757,Right,-33.178149684972595,-32.23541503812885,-19.135484743863344,-26.019066007400397,-83.63107442142791,-33.69437115287292,-33.1435326358187,-36.031401144806296
2025-12-12 18:15:29.445820,Right,-97.58627395229996,-87.94475080666598,-74.0668135607848,-83.91871133702807,229.66408713691635,-95.5485285858449,-92.46392919437494,-88.4728299016715
2025-12-12 18:15:29.449824,Right,-29.0529309597041,-3.620944972266443,2.433090624632314,-21.453367534675635,115.99987427878659,-27.783405285328627,-11.335129727522144,-12.005247343622614
2025-12-12 18:15:29.452832,Right,34.868900096276775,47.31572259630775,50.25492598634446,32.95484410863719,-205.81882503267843,31.445609117479762,44.140722750802524,34.024472855380736
2025-12-12 18:15:29.456844,Right,-57.304158629325684,-74.88974708531168,-65.77565222143312,-58.698479747370584,-137.52871113069705,-62.57620246539591,-70.24370880654897,-82.51685317335068
2025-12-12 18:15:29.460875,Right,-168.21102094996604,-188.5900809217128,-176.53994648891967,-163.72583026316715,184.90936521775438,-169.86479245478404,-182.68779335569707,-191.66332267638063
2025-12-12 18:15:29.464881,Right,-108.2058866849402,-103.61704033886781,-97.9418042129837,-103.97462669209926,155.34254862787202,-106.44760971245705,-101.9232678572007,-111.002277923777
2025-12-12 18:15:29.469912,Right,4.239726542902645,15.060172201832756,17.031657702929806,4.586168537265621,-169.41944072261686,5.656188154578558,17.952672658429947,5.1990354829176795
2025-12-12 18:15:29.473846,Right,-57.91106836331892,-74.00451702353894,-65.40318176802248,-56.41657471808139,-186.80245368574106,-56.515438998278114,-61.85669651097851,-76.79554063308751
2025-12-12 18:15:29.477909,Right,-211.65315877187822,-246.3240508560848,-232.25973339984193,-207.36231023163418,118.2449504998367,-207.58336987275106,-227.5338894163433,-243.7729623459163
2025-12-12 18:15:29.480915,Right,-200.18901031764108,-220.18167169447406,-211.66448372145533,-199.56896947130735,153.1403815504309,-195.63589132757625,-204.55078699417936,-223.40440490923356
2025-12-12 18:15:29.484975,Right,-54.78975985200668,-59.16295673607965,-57.226519169533276,-59.94564216188155,-161.3588616699708,-54.64646586946037,-49.163090354792075,-68.44755899900338
2025-12-12 18:15:29.488981,Right,-42.22053467261139,-60.61049834318692,-54.80229111317021,-46.40495777637989,-242.34250136089395,-46.00274493301549,-49.37553808723169,-65.32752960613288
2025-12-12 18:15:29.493001,Right,-188.22950805295113,-228.7217112260405,-216.44586461411382,-189.46236455984763,53.82361091936764,-191.68150059645268,-212.22262638236862,-228.27675625788106
2025-12-12 18:15:29.496993,Right,-240.5048651481775,-280.476955279657,-271.2994107731356,-246.80755112456245,157.03686593587918,-244.03195262118606,-262.8885696057405,-286.52567587800877
2025-12-12 18:15:29.502022,Right,-127.59221723104747,-156.74106818401197,-154.19149742681475,-141.91916940182637,-142.1937865216023,-135.44441165032185,-142.27636907251144,-171.45762286557874
2025-12-12 18:15:29.506007,Right,-73.92243662084047,-108.06579884175153,-103.20360919051018,-86.99573555059033,-290.8420501802466,-85.57091742229113,-95.05427371588303,-118.99532979997821
2025-12-12 18:15:29.509120,Right,-179.91173111110402,-226.72487602721776,-215.15395921447634,-186.53145008092986,-9.947188166050182,-189.96094282941704,-212.1747257129541,-228.9386136141993
2025-12-12 18:15:29.513047,Right,-249.63058512102725,-295.81582102075845,-285.8720610301525,-259.2388766230524,171.6383651425058,-256.6401066258186,-279.8235481003594,-301.02697016159254
2025-12-12 18:15:29.517058,Right,-165.4740021694597,-206.40639309037215,-203.2171810369291,-185.89452754290687,-100.26071203202446,-173.41849641087538,-189.57734282671663,-221.8052144504436
2025-12-12 18:15:29.521067,Right,-98.71602073535178,-148.15829102722637,-143.80887363174043,-121.28938718041172,-336.60138019698934,-108.55040956463927,-129.6682544298601,-163.43434100392915
2025-12-12 18:15:29.525097,Right,-177.3138888060057,-237.494173102059,-225.97227827036113,-191.04014877361624,-109.46998696497394,-184.32350139632763,-217.77390269516036,-243.5955762916492
2025-12-12 18:15:29.530062,Right,-251.05466747643368,-304.7992786936229,-293.66189477704756,-261.5297356637602,150.5145700080866,-253.2467659223912,-285.3840199188562,-309.70037040319585
2025-12-12 18:15:29.533106,Right,-188.95096389003447,-233.55200104200048,-230.24579916372022,-208.56930743530393,-45.52905564505636,-191.5767382993654,-212.63253962442104,-246.385645020855
2025-12-12 18:15:29.537078,Right,-130.93958219725755,-188.0819969217264,-186.34879165708844,-157.80428808198485,-335.0336070618887,-138.47851412299497,-161.45357512769988,-201.65300107096846
2025-12-12 18:15:29.541101,Right,-213.52962141824537,-290.57011032503215,-282.2939734891115,-236.0537031612621,-180.76943314273194,-222.8616445462103,-258.9472846007702,-294.7267768444581
2025-12-12 18:15:29.545096,Right,-297.72503932670224,-370.75661548695643,-361.0227325140295,-315.28075331958826,127.99830323431615,-304.2743234413938,-340.45609274311573,-371.34934317233274
2025-12-12 18:15:29.549117,Right,-227.6395279509452,-282.0984870318789,-279.3006309271732,-249.9998551782919,16.07401116442452,-232.8783297950431,-255.74853696936043,-290.1582007224497
2025-12-12 18:15:29.553142,Right,-135.07280576738412,-192.40750078452402,-192.0890778953326,-163.57096504388028,-307.0316494975177,-142.07417335905484,-164.8712946730957,-203.95626813729177
2025-12-12 18:15:29.558153,Right,-203.10660154325888,-283.09846768679563,-276.0548985408677,-228.93966529637692,-242.64017235601932,-209.65237707732012,-250.37419775666785,-287.1063749472378
2025-12-12 18:15:29.562103,Right,-320.7406934016908,-405.86007398113725,-395.5331846384215,-342.1641330543498,81.0142725770711,-323.56394358200487,-372.2021398129873,-405.168548974616
2025-12-12 18:15:29.565120,Right,-280.9454165881907,-347.37038638073136,-343.83998707550927,-306.13260335623636,56.634475456121436,-282.64318021174404,-318.30116843621363,-353.5738290542795
2025-12-12 18:15:29.569165,Right,-163.4849104467139,-222.9890553232981,-224.45146771287546,-194.17897756962338,-263.52485881642497,-168.1767980621371,-196.2405043276085,-235.19137392062112
2025-12-12 18:15:29.573179,Right,-189.21471541147912,-266.6678158697614,-262.82493124116445,-216.8999007474049,-271.86070698325784,-194.76844584778883,-236.69610503999866,-274.06245145094
2025-12-12 18:15:29.577205,Right,-310.6743556516594,-399.3603653382452,-390.45452651256346,-332.9011302955623,49.70756788380095,-312.46724151304807,-367.21583748902776,-402.6399973499938
2025-12-12 18:15:29.581198,Right,-299.34053200573544,-375.27076155273244,-371.452138619381,-325.19879597140243,94.66670137428446,-299.1955670734169,-346.6023717432108,-386.2500241213129
2025-12-12 18:15:29.586169,Right,-171.15122523144237,-237.9838638129877,-240.36541386309545,-204.99282461736584,-227.87031661606306,-175.03535461594583,-213.34048867109232,-257.61457157478435
2025-12-12 18:15:29.589229,Right,-160.2351787140651,-241.4996290715062,-240.26328841381473,-193.8073931648105,-317.6631120888487,-168.39541341582662,-215.9772819894133,-257.3515372966067
2025-12-12 18:15:29.592251,Right,-287.8985214731656,-382.59038904693443,-375.5346910334192,-315.5018512115639,-4.7371017589612165,-294.8027259427472,-354.2600376146147,-390.80890544934664
2025-12-12 18:15:29.597244,Right,-326.12629742050194,-411.005549953843,-407.76788281457266,-354.44250761240255,132.5027414385113,-329.9101862903626,-382.54139786522137,-422.0807432793663
2025-12-12 18:15:29.601259,Right,-218.89586947966018,-292.1287300574477,-296.242107787868,-253.33427938370733,-150.88742163479037,-223.3232845084567,-263.96449338039383,-310.17378457967425
2025-12-12 18:15:29.605267,Right,-176.8537409118435,-260.75479683233425,-263.1128384481999,-210.468954757147,-310.13455595835694,-183.32304380525602,-229.79468841437483,-275.3523597595631
2025-12-12 18:15:29.609286,Right,-278.26444306466146,-376.8493909230456,-372.64382719103014,-304.67514551535714,-33.18165268158191,-283.55834150349256,-343.1437895092531,-382.53250880585983
2025-12-12 18:15:29.614313,Right,-326.9469086048193,-418.7580055461731,-416.08923466602573,-353.33148878702195,173.74515525180323,-330.4782871902571,-386.52967761439504,-425.2719943837146
2025-12-12 18:15:29.617307,Right,-227.55008222843753,-306.96576228603953,-311.17024882580154,-262.73114741395693,-66.5084065648116,-233.26646809320664,-277.0778821493732,-320.99517665302847
2025-12-12 18:15:29.620306,Right,-167.86907583393622,-256.26773501135176,-259.60570490307873,-206.68133764865343,-295.89599612992606,-176.45791152096353,-224.2716876307386,-269.00101170438575
2025-12-12 18:15:29.625329,Right,-263.86150151706534,-368.70761128142476,-364.8615906504565,-296.263879014994,-78.68494665433536,-270.0806920173927,-332.64968248840887,-372.41778659273405
2025-12-12 18:15:29.629339,Right,-336.2278831586591,-435.03924500680296,-431.12234531523427,-364.16432580549736,182.08822401211364,-337.2412996018538,-398.68523839418776,-437.23446565383347
2025-12-12 18:15:29.633349,Right,-243.27985258738045,-323.97072058630874,-327.2776875522104,-274.8329666801146,-2.244003957370296,-243.46973087650258,-289.49855053197825,-332.5370857474045
2025-12-12 18:15:29.637318,Right,-148.877711399924,-232.2344378872076,-236.42619220842607,-182.0999014529516,-292.763312905794,-152.5646838885732,-196.09914270514855,-239.9346628934727
2025-12-12 18:15:29.642383,Right,-221.17079076368827,-323.320739634044,-320.1129634169629,-248.46906850719824,-158.8842105467047,-226.1578100611805,-283.1193356892909,-321.4502834471059
2025-12-12 18:15:29.645393,Right,-321.6107154636993,-425.2803467102349,-420.0264309809427,-345.8667101832689,128.44941756915068,-324.61788864276605,-385.1148118721321,-421.1839425259386
2025-12-12 18:15:29.648344,Right,-263.37920484395,-350.24649993894855,-352.2045564116561,-294.45957042468945,7.303499383648159,-266.856369855057,-314.7463943924522,-355.4381419821875
2025-12-12 18:15:29.653395,Right,-157.66650042118272,-241.31118358724052,-246.51636252820026,-194.97911150974687,-317.6277427843306,-165.39743609243305,-208.84684711368755,-251.58774691272993
2025-12-12 18:15:29.658367,Right,-204.43135617411463,-303.72070231608814,-302.2815226871171,-238.00070358492667,-254.23283657364664,-214.31709640298504,-270.2960511132842,-307.8390796959284
2025-12-12 18:15:29.661425,Right,-319.24056740733795,-423.01582087244606,-417.22693696949864,-347.6527325718198,68.06398728533532,-326.90314219676657,-389.11944608722115,-423.83044365339447
2025-12-12 18:15:29.664441,Right,-290.32185490755364,-378.7090576321352,-378.4101824784302,-322.28092590282904,37.38369598778081,-296.74607343168464,-347.15934542834293,-387.7737097427016
2025-12-12 18:15:29.669446,Right,-171.0478825366008,-252.01413233298808,-256.17195331538096,-207.75371775054373,-297.4590202567342,-179.62679561518598,-221.9678539223969,-267.92065921466565
2025-12-12 18:15:29.673462,Right,-177.7688017807668,-270.57907529361546,-269.55985739972675,-209.5002913796925,-318.4607462044223,-186.29526060068747,-239.16777109837858,-281.37880132033024
2025-12-12 18:15:29.677488,Right,-288.5961249123793,-387.12419756740564,-381.1550492410315,-312.5578966457397,5.785870755411452,-291.87077110481914,-354.81712998310104,-392.0928882184671
2025-12-12 18:15:29.681487,Right,-291.81298319261987,-377.82375229959143,-376.84691836091224,-318.02175885345787,62.536107473191805,-290.69139291287865,-346.61041189631214,-387.88813945883885
2025-12-12 18:15:29.684493,Right,-184.90319635503693,-265.1080546849407,-270.2487685479573,-218.4801373310038,-257.13692957232706,-185.09816794790095,-233.39868123683846,-281.57308461278444
2025-12-12 18:15:29.688503,Right,-172.81281142891385,-267.3235036498518,-268.70957158331294,-204.92079384549288,-353.7978291490581,-175.3771732954774,-232.6320522580063,-279.1717088810983
2025-12-12 18:15:29.692522,Right,-274.9256669876049,-377.56578836619155,-372.651920969598,-299.0051998915733,-42.33191019712831,-275.4681896936381,-342.52355302649084,-382.4715202610241
2025-12-12 18:15:29.697524,Right,-287.0444252633024,-374.12879698042525,-372.29701081552776,-310.5784472695668,98.38638998317765,-284.6721301575308,-343.31966368918074,-383.42822569655254
2025-12-12 18:15:29.701534,Right,-171.9688422376057,-246.12346701213391,-251.05913885496557,-202.45585851039505,-195.1679439530708,-171.46865608013468,-217.95074173645116,-263.65666576690273
2025-12-12 18:15:29.705547,Right,-137.92968009831384,-224.95381128619192,-228.11727553163655,-169.2364211039967,-379.0109995061066,-141.42652755987365,-193.41814722918207,-238.94913570256904
2025-12-12 18:15:29.709640,Right,-248.24089569796342,-350.21716482163174,-347.9058244660264,-272.20397477655206,-116.07690666700364,-251.71260068321135,-314.4688089219853,-353.7366919979686
2025-12-12 18:15:29.712573,Right,-295.9155059560435,-386.5926548819989,-388.32882464613067,-317.0149380399962,98.22518780257087,-296.6159082031227,-351.5712694457616,-388.95892549993005
2025-12-12 18:15:29.716530,Right,-187.8566861608997,-260.19628670212114,-272.0065576075576,-213.8845212814049,-134.75515778528643,-188.62442664254922,-227.2365903230966,-268.7222950568539
2025-12-12 18:15:29.722599,Right,-121.72773184016114,-200.99497425125446,-214.32275457220385,-148.86310365219833,-373.4524555283133,-124.7680713890586,-165.47040135244606,-207.57885308383266
2025-12-12 18:15:29.725600,Right,-217.97088951762998,-316.2260076000239,-323.1688875942491,-238.6296438924037,-166.86901576971286,-220.93718590465141,-276.58747974800644,-313.450470662734
2025-12-12 18:15:29.729611,Right,-290.56828249181854,-385.61928292247467,-392.5103550242493,-308.7992947360035,98.75941480390611,-292.65433030895656,-347.36442221328616,-381.4691654051421
2025-12-12 18:15:29.733631,Right,-189.8941725488985,-266.426787985547,-281.040579162247,-214.77530846983427,-77.15674723504344,-195.47876380872913,-233.5594074332621,-269.8318402672303
2025-12-12 18:15:29.737621,Right,-85.0253529996844,-162.00953085400397,-178.53255562193226,-114.34106153203174,-371.7468500676623,-96.5909265516093,-130.95823703962378,-166.46577479608823
2025-12-12 18:15:29.740667,Right,-157.61004827386932,-252.7878798111342,-262.4383313446888,-182.6328537898953,-242.16503217528225,-170.63166404655203,-219.18185071961489,-249.09491327696014
2025-12-12 18:15:29.744648,Right,-269.58002408442553,-367.4276756912586,-374.6699439334916,-291.8582754752133,60.944025130185764,-279.72580513189314,-333.5122206461965,-362.03469167475123
2025-12-12 18:15:29.748648,Right,-217.55158566165483,-298.5146125081228,-312.60125999269076,-245.74873637541896,-32.61341657402227,-227.97160574357258,-268.66022667178186,-302.818083315331
2025-12-12 18:15:29.752621,Right,-102.52630651352229,-177.6956995113287,-195.48584012140054,-135.06449932337273,-342.5238105521712,-118.02822873200057,-150.69712711730972,-187.31015510839643
2025-12-12 18:15:29.756689,Right,-136.01318367233034,-224.00279612251325,-236.08881037856918,-162.7631074761739,-278.5750617730955,-154.29477968567517,-195.45057462673867,-226.04956921824487
2025-12-12 18:15:29.761711,Right,-249.36918949097162,-341.07599168497836,-349.44403434044216,-270.3037615052308,47.53166856311145,-264.4866695095552,-310.2747558054398,-336.0663553978666
2025-12-12 18:15:29.765722,Right,-228.81882276193937,-306.10663832956925,-319.99174942675745,-254.80466599628562,26.4646753873094,-239.68786655477015,-274.9498632012983,-304.46476968895877
2025-12-12 18:15:29.769734,Right,-114.79828707134584,-185.7899910073029,-203.43487769545754,-147.9799969465821,-306.68255513938493,-123.47622091509402,-153.360452175315,-186.72861574753188
2025-12-12 18:15:29.772716,Right,-118.81571321777301,-201.9430856667459,-212.75751015846618,-148.39993449661415,-333.0524415906402,-123.66228550561937,-166.33728861279087,-195.05900045583257
2025-12-12 18:15:29.776733,Right,-222.58828547707526,-310.3129573763581,-313.73706510075135,-244.1076554528554,-5.606614609103417,-220.76799665222643,-273.93479301343905,-296.6821269739885
2025-12-12 18:15:29.780690,Right,-217.0132558408659,-289.576766809274,-295.3060062804725,-239.8532188393874,62.16154858659138,-211.72706929099513,-256.24951661971863,-281.5489295061561
2025-12-12 18:15:29.784774,Right,-102.7358229548554,-166.66722104902146,-175.7938626668183,-132.24863083957462,-256.1996139358671,-100.12680905230809,-134.74949198175455,-165.51841839932604
2025-12-12 18:15:29.789762,Right,-91.85109095659573,-168.97375679283869,-171.51965877250768,-119.01888649986358,-361.6381359540683,-91.46054527367232,-133.73037860362092,-162.02688761311583
2025-12-12 18:15:29.793776,Right,-205.80125377560034,-291.31820335035445,-284.9444104197901,-223.11719917069422,-48.14995892214938,-201.4780256776139,-253.23114002571674,-274.8510903089191
2025-12-12 18:15:29.796799,Right,-228.76230711914832,-297.59617525932845,-292.5766134232399,-243.00645913521294,110.93732240336249,-219.0539170029224,-261.7632946302183,-284.16050241544144
2025-12-12 18:15:29.800795,Right,-109.58794850244885,-161.666428800032,-162.6963645456126,-128.8703257671441,-169.39148137634038,-99.90492951730266,-129.30341284786118,-158.6863719666144
2025-12-12 18:15:29.804756,Right,-60.19810314103961,-121.22514378465712,-119.6921818247647,-80.09725636226358,-357.6616490659653,-53.53760223946301,-88.64547672873596,-119.86385715537472
2025-12-12 18:15:29.808830,Right,-162.21071317518363,-237.31239513977198,-228.1054038819857,-176.15447980409954,-99.90245303785196,-154.98735203640535,-203.81614806014113,-230.7380187989911
2025-12-12 18:15:29.812783,Right,-215.1766869353596,-280.3761622174061,-271.6496661453857,-228.3966096927761,124.15187785885064,-204.76043012487935,-249.98489923391026,-276.3222594453837
2025-12-12 18:15:29.817849,Right,-111.56580914347433,-158.61377270612866,-156.3251097399625,-131.91695647622691,-95.5122395514336,-100.99277079646708,-132.34985099750338,-163.3336807677406
2025-12-12 18:15:29.821872,Right,-38.1279888068093,-89.78598202602006,-86.11888930544956,-61.26100990426494,-332.3560197619954,-29.58032986940816,-63.07603942096466,-94.85187533474527
2025-12-12 18:15:29.824890,Right,-125.65257895796094,-193.71945505787153,-181.23294008919038,-142.91898919286905,-128.23492309989524,-115.86806358472677,-164.16170325595886,-191.19569828250678
2025-12-12 18:15:29.828881,Right,-201.75272894260706,-266.0024125886848,-251.21177254855866,-216.33315321308328,141.1230800570629,-188.72068361879792,-237.64291722665075,-263.42550660518464
2025-12-12 18:15:29.832896,Right,-111.46992281841813,-157.954070020176,-149.05826422548853,-132.35961854591733,-33.92678502405761,-99.6072658833582,-134.3947256305255,-164.4413834118168
2025-12-12 18:15:29.836976,Right,-8.361841146368533,-55.17680285644019,-46.90915685513755,-33.215516697091516,-339.56890477985144,-1.5060363810043782,-33.917589119344484,-64.18933336570626
2025-12-12 18:15:29.840976,Right,-70.93671411339892,-133.84005239565158,-117.76283820171375,-89.97595788788749,-219.38240397462505,-65.59978134505218,-111.62906731624389,-134.92375740921125
2025-12-12 18:15:29.844989,Right,-171.85528349602828,-234.66020746494178,-215.5200785996858,-185.7841976727359,89.60169380748994,-163.30323957005749,-213.32785746332956,-232.3881029956392
2025-12-12 18:15:29.848979,Right,-116.13883784651989,-161.22050368908094,-148.53743047494208,-134.47694984136615,3.7085824160603806,-106.1515481051756,-143.11467353010084,-165.7390269151074
2025-12-12 18:15:29.851993,Right,-2.6757504307315685,-43.950833690643776,-34.50615397351794,-25.46323275193572,-314.51018460837076,5.105916811153293,-26.042666091467254,-50.72691715200199
2025-12-12 18:15:29.856922,Right,-35.241695959935896,-91.60917751042871,-75.6880844894913,-52.3628333278466,-263.3839715606882,-27.317476912459824,-69.95363330404507,-88.61238177819178
2025-12-12 18:15:29.860998,Right,-140.2695036843652,-199.4347545452183,-179.17032580124214,-149.56420794758014,67.70120824608603,-127.66543111024657,-176.0012465447071,-188.7854117124807
2025-12-12 18:15:29.864927,Right,-107.76623822224792,-148.51557910174597,-134.07608641771367,-118.08998714177869,64.26970481680473,-92.08546187944012,-127.65852583723608,-142.4602170647704
2025-12-12 18:15:29.869008,Right,12.072144302073866,-19.419164114398882,-10.411942122853361,-2.0731174654792994,-261.04755987861427,25.441813674697187,-0.5297562598134391,-18.32814875873737
2025-12-12 18:15:29.873044,Right,3.3342391107580625,-41.28925169375725,-28.345065298082773,-6.732974961400032,-289.99042336727143,13.522326525911922,-21.152015279280022,-34.51849233417306
2025-12-12 18:15:29.877035,Right,-108.31437668821309,-160.13035855424823,-143.57326447748346,-111.99435187957715,43.87456483585993,-98.28879432179383,-140.0843203671393,-147.37621812697034
2025-12-12 18:15:29.880055,Right,-102.52447449666215,-138.79773350118194,-129.0906391540193,-108.85069717181614,128.648252174753,-92.7454381470161,-122.73888937412994,-131.30916807701578
2025-12-12 18:15:29.885040,Right,21.172552770614857,-2.6576678091078065,-1.3049739364068955,8.382786921400111,-182.95103211671812,28.11011265864363,10.550301879353356,-1.8315575360902585
2025-12-12 18:15:29.889055,Right,38.55546072055586,4.4932947239722125,8.164823165570851,28.797401270538103,-298.1215576491668,44.216880558931734,19.655107472615782,10.738189857976977
2025-12-12 18:15:29.893080,Right,-82.37556472508004,-125.77991054672748,-115.75206593528856,-82.72433171671582,9.319392398552736,-73.48772619527881,-108.39122516632779,-110.13735360029386
2025-12-12 18:15:29.897078,Right,-119.90791081264615,-149.4114762370009,-141.7804085019743,-119.04187568638008,178.87650400566054,-108.63536290806951,-134.13237848842982,-135.547610967129
2025-12-12 18:15:29.901107,Right,-7.992892128590029,-21.435328523570206,-20.37084027437959,-14.15630296987365,-87.48579684179276,-0.6018294267705642,-9.411881653300952,-15.490837747987825
2025-12-12 18:15:29.905090,Right,45.60689138961607,25.140579466766212,28.01860432745889,38.080218329821946,-271.42873258903273,46.728485453291796,36.98885978333419,31.830681192688644
2025-12-12 18:15:29.908138,Right,-50.46214050560957,-83.1271057954873,-73.70448426780058,-51.380472677672515,-12.796532199383364,-51.40655802533729,-71.37158483525855,-70.31697570922552
2025-12-12 18:15:29.912143,Right,-102.94990852067713,-125.09258823556593,-117.46610282402253,-101.72163564088987,215.80359964493255,-103.32499049013131,-117.78621565629146,-115.35065007105004
2025-12-12 18:15:29.917148,Right,0.5638618147349916,-2.2468260042369366,-2.3407026870409027,-3.42416806469555,-2.7129848098702496,-2.0099032685393468,-0.6648457385017537,-2.3213213755516335
2025-12-12 18:15:29.921198,Right,79.0421876302571,74.66676382900914,74.67089888488408,74.68987667525653,-245.1647878980002,73.27933487473638,75.17260601065936,73.75606949767098
2025-12-12 18:15:29.925166,Right,-3.3970779846131336,-20.754483836935833,-13.576769438222982,0.4171660700230859,-39.57466291169112,-7.439844532491406,-17.966924662265228,-13.763703810342122
2025-12-12 18:15:29.929166,Right,-82.54801194433821,-94.24509793551988,-87.00402237873641,-74.92691918381024,248.15421653220255,-81.39062615818693,-91.52744594367687,-86.71857294550864
2025-12-12 18:15:29.932151,Right,-1.8550881133996882,4.591432345157955,3.5740697813453153,-0.7871608405257575,95.10225658467971,0.840088988567004,4.923226678190986,3.1445465541328304
2025-12-12 18:15:29.936187,Right,93.27048744578497,99.8359105354757,96.6156137197977,89.82348303776234,-201.76255130008212,93.10139732275275,100.07020164764253,95.73592147001182
2025-12-12 18:15:29.940199,Right,26.980186271335697,18.89818876859499,23.199915966077242,29.666425566043472,-80.14038385915046,25.982129035750404,21.176683649799088,23.080612983176252
2025-12-12 18:15:29.945219,Right,-77.10316861094907,-83.02121123447432,-75.06164574099239,-68.113041657547,239.17806139490858,-75.21159785721102,-81.05772819422418,-74.50158231527894
2025-12-12 18:15:29.949222,Right,-25.117640239797765,-11.533855329529615,-9.540468657301972,-19.788310573378112,169.50665322666464,-22.526185600319877,-12.339086418127408,-9.6395779112936
2025-12-12 18:15:29.953216,Right,86.68763817450963,104.91255307005486,103.44737902164343,86.64487622171873,-143.42181982121838,85.55384769733064,103.38370105263311,102.09334179310827
2025-12-12 18:15:29.959249,Right,53.788740108022466,56.807712795678526,61.267341579834465,57.096067430014955,-97.80559648117924,50.075251926493365,56.74562797546969,58.950541770871496
2025-12-12 18:15:29.962244,Right,-53.8307474302419,-54.01256624417147,-45.32532561768312,-45.10484500610619,234.12111498172453,-55.90584455392673,-55.46098559832899,-49.153009903850034
2025-12-12 18:15:29.965261,Right,-25.778624007449253,-7.614440637000371,-4.135553123196587,-19.560802945052274,240.74401302025944,-26.25566071193316,-13.709830580075504,-10.565553412365261
2025-12-12 18:15:29.968271,Right,90.40304449514952,118.00921375179314,117.30227195908083,92.77969600717188,-82.22438236330345,89.05064345904975,110.2521237298206,108.87756998109398
2025-12-12 18:15:29.972276,Right,77.00358233645966,91.71613477639039,96.70152581998263,85.24180743613397,-122.34252392337658,76.782851830445,87.52607023745077,88.55015260761138
2025-12-12 18:15:29.977238,Right,-43.02751301390526,-34.64724969229428,-24.09190021266113,-25.27922650493565,203.36548738667625,-37.53649901188328,-35.9857114952174,-30.563282557588536
2025-12-12 18:15:29.981314,Right,-44.30085190657701,-18.35040465221391,-13.13452795642661,-26.67350686012651,293.27099597347114,-34.085136359382886,-21.44166542662424,-18.103305791533785
2025-12-12 18:15:29.985283,Right,81.29707991276518,121.72817160421982,119.24826636404032,92.32814783298818,-12.874311061692424,90.3306395146501,116.91574487634352,115.9410546097206
2025-12-12 18:15:29.988351,Right,106.22511035081698,136.1213269746222,136.18512449369882,117.64203754167829,-134.72851203194296,112.58568952673522,134.0834908816032,135.57168820747756
2025-12-12 18:15:29.992346,Right,-13.060431290476117,4.302089213830186,11.14251880228403,4.860856377243181,162.79083186470962,-4.675438005710021,5.769560817730962,12.86690732309944
2025-12-12 18:15:29.996375,Right,-56.66199305013288,-28.94228768334142,-24.019302197324578,-38.916057864858885,331.4764220216384,-44.44753556627256,-28.42846610461129,-22.64400853725965
2025-12-12 18:15:30.000353,Right,52.603755801930674,95.05941431481915,93.51800912767067,63.306199083293905,66.46706221932254,63.8898216416419,92.41214050429699,92.33675676780695
2025-12-12 18:15:30.005317,Right,112.16770971813821,147.80287921371928,148.21366912547091,121.8959938413609,-126.4842907692946,119.19695326294459,144.5709284520417,145.2067671189725
2025-12-12 18:15:30.009381,Right,21.115430542849936,43.673453437077114,51.6280109470099,37.54575535780168,116.76524868460547,26.61443972424604,40.91708880291844,48.65231142853736
2025-12-12 18:15:30.013386,Right,-35.835332051778096,-5.604418121118215,2.157791494348203,-17.885970505682053,333.9727701569209,-29.667584032940795,-10.968115567084169,-0.6125683047575876
2025-12-12 18:15:30.016348,Right,58.13369940860139,104.22147521126317,105.2201673485979,69.44103071161953,104.54427089833916,62.1428278099047,95.05192381846427,102.01667923328932
2025-12-12 18:15:30.020412,Right,129.95609414910723,171.50518489167735,172.3625867931114,139.11276816220197,-155.97198294408008,129.69516551104607,161.95912997885898,169.24901055671216
2025-12-12 18:15:30.024437,Right,44.45485065196408,70.39671477550291,77.7229115930968,60.168394981577876,32.15278235600272,42.723992214327154,62.13258712201787,75.00951340563188
2025-12-12 18:15:30.028442,Right,-35.96086314920831,-6.762545131321531,0.08178108758875169,-17.71509998395777,315.1074525160002,-36.86775770510576,-17.30482991314784,-3.9339379004959483
2025-12-12 18:15:30.032487,Right,47.9417767743289,93.53645192752447,91.34893040235329,58.5876121309484,163.53519638425132,45.46245774293493,78.54358606984897,84.5303521129972
2025-12-12 18:15:30.037460,Right,151.4866267741163,195.94632457735133,190.10238832902542,156.7211926216405,-140.58547250106494,146.01719951022824,180.3130343730736,182.0488084062672
2025-12-12 18:15:30.041474,Right,91.49017105087842,119.7125529250552,119.6559815364235,101.96023127122317,-32.11452449430726,87.48655316537042,106.99919563855656,113.24155671015615
2025-12-12 18:15:30.044477,Right,-14.649146441130142,13.822657078308112,16.024088135294733,0.9370136743309558,282.3105145402478,-13.344718082458712,1.393676965017221,11.6424514698665
2025-12-12 18:15:30.048509,Right,31.05389657564956,77.64542713457922,72.81214242937858,41.54939157946501,214.62133640620232,33.59815138061094,61.73400967045018,68.76425775866664
2025-12-12 18:15:30.052509,Right,140.30467844220402,190.7051293915647,181.41475725683267,144.4856664034305,-103.22675409735166,137.8325739840584,173.25686281945673,177.4922832500888
2025-12-12 18:15:30.056514,Right,109.89490309618122,143.78368270497594,139.5533282751676,117.61536479200004,-69.94361741722605,103.6219853345865,128.7680077187797,137.37279953831603
2025-12-12 18:15:30.060476,Right,5.835054917446541,34.22177992878278,33.534312717154535,19.415941687369923,254.52725838662082,1.442308073554159,20.365622466215427,33.22148240315437
2025-12-12 18:15:30.065549,Right,36.91476963956666,80.9333457295943,74.22410053489511,46.58179004652993,259.3315135943267,34.82136131136576,64.24567519119228,73.6415181107368
2025-12-12 18:15:30.069554,Right,156.09040967249348,206.98870438600534,195.1616007259472,158.00550344937983,-71.74304341113748,152.47635727241868,188.2402872524999,193.0051359756726
2025-12-12 18:15:30.072558,Right,142.16022414179315,177.34840229231395,170.96353159952923,145.3749420483764,-126.11408384937022,137.734371722152,160.5534580066187,168.21444706181683
2025-12-12 18:15:30.076577,Right,13.139600930533561,38.34136846303181,38.64181085652854,22.637515593079115,194.5313773764483,12.621803722068762,23.36963492852192,36.44496422931479
2025-12-12 18:15:30.080591,Right,-2.6496358996253093,36.2152116597681,33.31202878699753,5.21355177559326,292.25323030979416,0.7361044315321124,19.56491631258541,31.58867478084551
2025-12-12 18:15:30.084595,Right,112.8354109506704,163.5031862312626,155.0881526495159,114.02144322651861,-8.82217075776316,115.01439665250598,145.3706783400412,153.71784274695074
2025-12-12 18:15:30.088546,Right,138.61390333712825,178.17634668069513,173.70820833503967,141.33172687775732,-137.1210970625907,137.9098869149684,161.95237483285018,172.92023138905643
2025-12-12 18:15:30.093619,Right,29.580788303177542,57.61321783997482,60.15226370516393,40.509528122298434,152.30990264411412,29.061094619705727,42.7232620574905,59.121028904372
2025-12-12 18:15:30.096621,Right,-1.8308703437596705,37.700110810146725,37.542060002822836,10.298809546000484,318.01315669679207,-2.0643479224381736,19.841435811777046,34.80005161222289
2025-12-12 18:15:30.099578,Right,112.36647295704825,166.67240666494763,158.81578132571667,118.28027078796367,47.51696697259831,108.52571975381943,145.6444834131944,154.93205956333622
2025-12-12 18:15:30.104646,Right,164.79722243427022,210.9535603241966,203.79360718006137,170.35481692270696,-155.36841390750305,157.67823934572152,191.58382020586578,201.59788556233616
2025-12-12 18:15:30.108719,Right,58.35450664039308,89.57197368755442,88.75609950542275,71.25840693845385,87.67901301088023,54.199143392052065,73.70063342392677,89.82506167606334
2025-12-12 18:15:30.112648,Right,-11.282165344360692,26.42651863136416,24.180108533073508,3.665701741261728,321.2549742661704,-9.566527625804156,10.328167123901949,26.855042469840555
2025-12-12 18:15:30.116712,Right,82.52413107475513,135.82741273618012,125.58586821102654,90.95037766938185,107.28887999969629,85.3298905169213,117.31711112223275,127.60742826252681
2025-12-12 18:15:30.120701,Right,164.08555900927604,212.62733206132543,201.45916108180245,170.3846009098561,-156.4759069398042,163.69530993893568,194.4510262046897,202.81968185470032
2025-12-12 18:15:30.124714,Right,84.42689108879131,116.77566571722127,112.28608093527873,98.09509210442775,18.626637533717258,83.29215381683753,100.49672184461815,114.21235609523865
2025-12-12 18:15:30.127713,Right,-1.6842590377782471,33.7683639490715,29.897611301661527,16.195424640303827,297.94046411149066,-0.4900449116466916,16.37057239140995,32.697966065738
2025-12-12 18:15:30.132730,Right,73.48356961077661,126.1255131977814,114.39244246789895,84.95784076314885,150.15198684606366,74.27931500916748,105.98748624950531,117.80186196274008
2025-12-12 18:15:30.136704,Right,176.6240882414786,228.77572392253205,214.0652036647516,182.2573034334273,-158.4267443695553,173.6017847499752,209.58710488685028,218.4692106667062
2025-12-12 18:15:30.140698,Right,122.14820825630159,157.08151048519358,148.54715787843452,131.61969727087853,-62.396338483863474,117.77375148515421,141.58911922246625,153.99438940103573
2025-12-12 18:15:30.144761,Right,17.45970779695199,50.45029280410381,44.548559955044766,31.185230491188122,245.3009015267853,15.464044494743575,34.9505012264417,49.21958756678214
2025-12-12 18:15:30.148787,Right,59.259043580212165,108.91228368088196,96.29281109622389,68.02711311630992,176.64049914837778,57.60420668109873,89.1760617820255,98.26978446517023
2025-12-12 18:15:30.152785,Right,164.12507861853373,217.49386873406183,200.82450164668262,166.91046240685682,-148.50225287197827,158.9924594403128,196.0168582235783,201.0928766935249
2025-12-12 18:15:30.155804,Right,127.27868950893026,163.9715826662723,153.29774426983204,133.33380003951606,-126.50187339935655,120.56219635535672,145.36887917114655,154.51447036444733
2025-12-12 18:15:30.159816,Right,11.047607630309358,41.24807267455617,35.537878451665165,22.35640646085085,197.53234071136285,7.15569785675325,24.318755964297452,38.25653102590877
2025-12-12 18:15:30.164760,Right,31.05459195367439,76.44557221436116,65.80047354083217,38.53332344061346,211.07548673789097,28.999067321477924,57.24879164862796,68.57455106764974
2025-12-12 18:15:30.168832,Right,151.20728877186775,204.65148082621454,188.95792653012904,152.18652672015014,-120.63116780103883,146.84346701519826,184.19379335659323,191.60551527094503
2025-12-12 18:15:30.172852,Right,147.31731860457512,186.54885161158745,175.66266147057468,151.42369138820504,-188.50576114507567,141.42971409563324,168.6036859985761,179.39653248115792
2025-12-12 18:15:30.176855,Right,22.213207416556543,51.42598257714417,46.66193762826151,34.07236883310543,124.18229003766646,19.1883892359765,34.970255443055066,51.10138707709848
2025-12-12 18:15:30.179852,Right,-1.0771443553821882,40.29546503731399,31.945353829520172,9.586905684831436,228.5111436920106,-1.6049482647067634,21.173930218239548,34.99635376101651
2025-12-12 18:15:30.183817,Right,107.39897500140069,158.8385882483417,144.32210677218973,110.519349565031,-65.61311039149223,104.25461788961547,137.63009444584895,145.42051556846127
2025-12-12 18:15:30.187869,Right,134.6589984405,173.39294559982955,161.93800538308278,137.62151815084508,-196.44186568877012,127.52049556441489,154.4576172077941,162.83609606973187
2025-12-12 18:15:30.191954,Right,26.87497873623215,52.40361813449999,47.37510745502368,36.53729983755329,92.67906121254236,19.789461356864194,35.60327580587182,49.11964005623304
2025-12-12 18:15:30.196984,Right,-9.474543512551463,26.242534899763996,18.296146726221195,0.23335000951192342,267.74481167429803,-14.970209315637476,6.744870820373762,19.7848706679506
2025-12-12 18:15:30.200954,Right,103.92403277780977,153.802870981468,137.97291196386504,105.90329980707611,0.5919177015566675,96.55795822216896,130.68155307525012,138.5016884454817
2025-12-12 18:15:30.204951,Right,167.4922908305016,208.61594864005747,193.56614791075117,167.31991395828663,-217.47132051193512,157.62105875495763,186.83968088017718,194.59020350631909
2025-12-12 18:15:30.207950,Right,75.45253111103375,100.43107827311906,92.5711431594973,81.49426654636045,5.514272962978794,68.16207802511053,82.77330500155222,95.43291787472845
2025-12-12 18:15:30.211952,Right,11.530528670351487,41.60593152299407,33.62958058289951,19.202015892922645,230.9668001857499,9.052746242130524,24.872161215622327,37.3910750253126
2025-12-12 18:15:30.215969,Right,100.27291324461112,144.79262820017175,129.74551345441432,100.57797575043514,16.055713083782393,97.23994821186352,126.23386580708029,132.8895131665049
2025-12-12 18:15:30.219968,Right,170.84850849852955,209.11346227495233,193.37903918747907,167.12595474912087,-251.14453188030893,162.43137955087877,190.79830615104584,196.2523700396705
2025-12-12 18:15:30.224935,Right,78.6185773750185,98.2792372447002,89.26335892356292,80.37745535919385,-74.66585352341644,67.79187028521847,82.18670653158915,93.17212858778657
2025-12-12 18:15:30.228980,Right,-19.18634125130484,1.2197053240379319,-6.874623119103489,-13.562784486173769,220.28939829139563,-27.239850497382577,-14.822670625246246,-2.033940020133741
2025-12-12 18:15:30.233003,Right,48.16523873328697,84.95686509752704,69.5550705541682,48.632295045637875,92.01637610182297,42.446218895260245,67.34131768535008,74.32789254820091
2025-12-12 18:15:30.235978,Right,149.0667771296139,185.87296356615843,168.22690954233985,145.35679996227555,-209.3612056034508,142.99225510995893,169.77895225754764,173.3198475829704
2025-12-12 18:15:30.240037,Right,95.00077420998423,114.770520385282,104.35410886001773,96.45626697324042,-114.41220359998624,90.1791764528898,102.85397279288736,110.99386649987719
2025-12-12 18:15:30.244029,Right,-10.489373589734896,6.61981436140195,0.1420416500477586,-3.6385646797862137,198.913232111674,-11.52707726706285,-4.124421893546241,7.98122796730604
2025-12-12 18:15:30.248054,Right,29.887428286325303,62.95003112626728,50.84517764548946,32.97798817201692,141.37105528065877,29.876250444867765,49.68804640133749,58.526508404815104
2025-12-12 18:15:30.253055,Right,134.2808593459049,170.77168644065387,155.2023085772089,132.5286348368245,-179.71666325869592,131.02880265990098,157.0001621605188,162.9051482821087
2025-12-12 18:15:30.257082,Right,95.04556033982954,114.30462151783286,104.95994074059126,97.54555939933925,-158.24042164196362,90.00072030808951,103.69068494747626,113.9156291904219
2025-12-12 18:15:30.261108,Right,-27.03220580042398,-15.258090888877632,-19.688836472079856,-18.49225971935084,174.9112865934112,-29.713849362480687,-24.42458459653426,-9.925062926282408
2025-12-12 18:15:30.264098,Right,-8.929802819751785,17.370317551947664,7.597957419391605,-4.084941378707299,205.2093560633839,-10.485595188860316,5.422542334737955,16.260702683823183
2025-12-12 18:15:30.268117,Right,121.45516570140899,155.7522111547878,140.4963400947454,118.91508723096922,-119.89605901968753,116.43819918796362,141.60667239040777,147.716378419791
2025-12-12 18:15:30.272114,Right,135.92263299154,156.18395570543362,145.86412288305291,135.45898507887614,-195.7453888045966,128.54821624036413,143.71477780934947,153.42421078080952
2025-12-12 18:15:30.276136,Right,25.715933665342163,36.50089130806737,33.01252461319382,33.18233845359646,107.12819245946957,22.0355235337629,25.765727026198874,41.93784339923877
2025-12-12 18:15:30.280097,Right,8.53040912891447,32.86724925818271,26.50783851367305,16.261345354025252,203.36305960055688,9.804768400994362,20.600318814336788,35.76491795034963
2025-12-12 18:15:30.285149,Right,116.22085137691465,152.28715356075554,140.13625270607008,117.80949715903262,-106.76191965957332,117.47030584100867,138.43805827450706,148.76815423724474
2025-12-12 18:15:30.289193,Right,137.3248512686987,160.9601403544657,152.08174643201346,139.00651395361638,-259.14600516906285,136.07978536303563,148.69458872168616,160.59813942483743
2025-12-12 18:15:30.292186,Right,18.552143696011626,27.240531397983432,25.08842047819053,26.35360664293694,20.01715868690735,17.776387316844193,16.94171482665115,34.103917119209655
2025-12-12 18:15:30.296199,Right,-30.635519679475692,-13.827290606306633,-18.50912589697691,-22.77334747268469,200.25922665924736,-29.41206446691649,-24.61815147275047,-9.139734679512912
2025-12-12 18:15:30.300219,Right,71.78404328109173,102.47899347178463,90.32372380950255,73.52105266347644,-63.0582927645446,72.40867965761572,91.94722840901522,100.43313990000752
2025-12-12 18:15:30.304202,Right,126.63914956360532,150.0915398698562,139.29994553286815,128.8332053702179,-285.41805842140093,125.97604850890639,143.81559334621124,151.42265165713616
2025-12-12 18:15:30.308199,Right,26.05133516956994,35.05943305371329,32.33001030079322,36.62886538780003,-60.41982235819887,27.402218746879953,32.96668536227662,46.48242761497386
2025-12-12 18:15:30.313246,Right,-44.0131648851675,-28.843847542826552,-30.902556358356378,-30.86579614340735,179.82628708330594,-39.77053860513843,-32.12096898796153,-16.744999714268488
2025-12-12 18:15:30.316300,Right,48.90073069425125,79.24137181205151,70.36516286710685,54.800154692609794,-26.143170141211158,52.00091063321452,72.52349936014798,83.28081334853778
2025-12-12 18:15:30.320246,Right,134.8024567276443,159.3994645930652,149.85615550575312,136.8776339120377,-305.4175276422393,134.6855647626071,153.58795159554575,162.88159141714277
2025-12-12 18:15:30.324284,Right,56.88357963664748,63.10005749388074,60.741250132006826,65.0420003417239,-148.66850031561262,57.47914718367974,61.27378350679646,75.1714655932592
2025-12-12 18:15:30.328267,Right,-37.29673915691092,-29.887833045446314,-30.38467255642172,-24.73318008077331,137.9724428780537,-32.632406515214825,-31.212649864974082,-16.042232526291627
2025-12-12 18:15:30.332331,Right,27.16736398397188,52.02175812899077,45.101280277376645,34.67301477996807,8.81292603692782,32.60847495542839,47.34729493166378,56.90775530379324
2025-12-12 18:15:30.336309,Right,126.2328296450869,151.86380465546972,143.26071708090603,129.32032288311166,-298.19959887668665,127.81219517369755,145.554646756922,152.25766706113063
2025-12-12 18:15:30.340263,Right,70.30325388240453,78.04668489555479,77.05483967809414,78.1284420581942,-207.49700090706756,69.51071704820788,72.98057553594117,84.51953901938396
2025-12-12 18:15:30.344327,Right,-41.035361455375096,-38.05862829691614,-34.84903181318077,-28.495312005805317,115.50125837578526,-40.19062849144393,-43.189407371304696,-28.429186622292036
2025-12-12 18:15:30.348314,Right,-5.245754042538465,12.237704885948915,9.827418887405656,2.521796943692607,73.23129511703155,-3.7666643967240816,5.320037973098806,15.30984667604207
2025-12-12 18:15:30.352350,Right,105.18696440833446,126.38739267278288,120.3821231925831,107.10287921903364,-246.53995036447668,104.00604142667726,120.3827947647078,126.21969642241311
2025-12-12 18:15:30.356356,Right,79.03428151283879,84.20732339771348,84.63133619216387,84.9891421784705,-236.4528828182847,76.93225700734183,81.9782985925558,92.15363889449509
2025-12-12 18:15:30.360311,Right,-38.38953616388608,-39.72053156634502,-33.68986807804322,-25.417358434016933,92.48409174802146,-37.11914306906692,-41.01208024198422,-25.389609920079238
2025-12-12 18:15:30.364372,Right,-30.709861949348124,-16.86311672377633,-15.596954104534234,-19.88718298113963,131.58883322259862,-27.22297315731703,-21.72467515937751,-8.70349341937981
2025-12-12 18:15:30.369399,Right,83.63816759528709,105.83354204392526,101.3963570476044,88.09689263398468,-185.2144264152812,84.15928264247486,98.67414992323029,106.6449560958863
2025-12-12 18:15:30.372398,Right,86.7524359558447,94.22907827842573,93.80864006813499,93.013811225057,-257.6774433115861,83.71093621203909,89.27473927162646,99.26459562516538
2025-12-12 18:15:30.375415,Right,-28.54738010537403,-32.49720032684854,-27.170423512798152,-16.037083208022523,55.92446508625653,-30.84617377379618,-35.58044955848891,-20.846904037389322
2025-12-12 18:15:30.379429,Right,-44.52721597213531,-36.966331759045715,-35.59993256586313,-34.37884859541373,172.63850274499418,-45.11854563652014,-42.30814604279294,-29.93468011546065
2025-12-12 18:15:30.384464,Right,71.76204189931741,89.99991610935831,84.45884209603537,73.07680854538921,-123.55776337257703,69.28277217858704,82.55840649889433,88.72758673362841
2025-12-12 18:15:30.388435,Right,103.8722469581262,109.46952009708912,106.44187358386989,103.6879461081553,-276.5918134286803,99.44735521251278,104.49327763318433,110.84369812585646
2025-12-12 18:15:30.392449,Right,-10.000595292003709,-19.15174374698836,-15.395427557159564,-4.12021028160234,1.3859702074369125,-11.316712152285618,-20.773589390169946,-9.804202777057071
2025-12-12 18:15:30.396485,Right,-60.72734221398423,-61.382720686422545,-59.44668732539867,-54.722890994060435,192.31816083583544,-57.587275147554465,-63.72635746804008,-53.948660504538566
2025-12-12 18:15:30.400483,Right,41.47016250646266,54.479641017722315,49.66119428255479,39.61092824446678,-56.028650507571,43.773759031129885,50.119227767776465,53.91155707820144
2025-12-12 18:15:30.403503,Right,100.98543579581019,105.01083153567743,101.89270897184906,96.37823291578388,-269.9865602998834,99.25418117054505,102.24607398103399,105.91643005616788
2025-12-12 18:15:30.408493,Right,5.141043269613874,-8.031061372545082,-3.0239719730598154,6.670306714688195,-38.63434839544425,2.909264944086317,-8.065459170407848,1.727793437690707
2025-12-12 18:15:30.412521,Right,-64.1044474888622,-72.87246880872408,-67.13502917974256,-59.87889010933577,213.93260550236664,-63.89808688542689,-74.22546596699976,-62.914185076981084
2025-12-12 18:15:30.416544,Right,28.421439029829344,35.46326394901553,34.58507377040223,26.849688923059148,20.56565976796628,28.288291519726044,31.01691662304802,36.98938141729741
2025-12-12 18:15:30.420532,Right,115.67982592585031,119.13576831253886,117.93111549154855,111.46709643617214,-254.3857577866911,113.24836300364404,115.90554827945016,119.8250197427551
2025-12-12 18:15:30.424491,Right,37.83842854433169,24.573036056754063,30.846114933825447,40.4509506343893,-95.3951012100697,37.23642070344067,25.694211062567774,34.32968993128452
2025-12-12 18:15:30.427553,Right,-61.32305684433959,-72.98712442912802,-64.93008873080544,-53.46237949653005,201.8735830145306,-56.5853983880952,-70.79947450209875,-60.15607852685207
2025-12-12 18:15:30.431559,Right,-4.81056099923444,1.201993831578875,2.341865272508585,-0.9403575956675922,87.02557389293361,1.9724457567499485,0.9312660675786901,6.480331014463445
2025-12-12 18:15:30.435516,Right,88.7196722956869,96.96238421683665,96.00158457661746,89.65522673129453,-213.40420790884855,93.65172513415746,96.44055025775742,98.88930724588863
2025-12-12 18:15:30.441583,Right,33.169225515724975,26.393398355241516,33.18257325181912,40.92534289903415,-122.19169483551741,38.56743409115006,28.477861814491916,35.3571968053875
2025-12-12 18:15:30.444610,Right,-71.83222515194211,-80.26745644163748,-68.77982506848639,-57.63404969625117,203.85294259168222,-62.84201288598706,-78.2618908204604,-67.91086631335202
2025-12-12 18:15:30.448616,Right,-26.985027739880024,-19.028506309710792,-13.047226300710463,-17.718642785519478,164.12978883824871,-17.92953640048654,-20.83565400178486,-14.748688216437586
2025-12-12 18:15:30.452616,Right,90.78173939815315,102.43489381714608,103.99885540182004,91.98098309512716,-162.61046194765913,94.18921994023549,98.8454303714534,100.2874798320554
2025-12-12 18:15:30.455628,Right,67.62260412249452,61.63918447749165,68.00100233894773,69.95947193022585,-164.1741672288772,66.07106679592835,60.239531908118806,64.31850494566606
2025-12-12 18:15:30.459638,Right,-50.96964073324489,-65.49916649307124,-55.41925367740623,-43.970318923325976,162.64061139032856,-52.77838015258749,-66.50092335944646,-58.48902408176218
2025-12-12 18:15:30.463669,Right,-45.52750992956135,-45.95404817193048,-42.396737659335486,-42.28777103560424,209.1552078483628,-47.26114876825886,-51.1756412104296,-46.01729884945962
2025-12-12 18:15:30.468652,Right,69.26875233314058,77.4477663827929,73.78795290978451,65.15124616438698,-104.55669840400287,64.49759879099292,69.16544972666452,69.63523055048427
2025-12-12 18:15:30.472665,Right,74.53556042853597,68.70672076467599,67.90014524225262,72.1903300609265,-180.60606117084126,67.9187743618022,62.670597985481436,65.09827845146356
2025-12-12 18:15:30.476687,Right,-41.176561154694355,-57.79062587153021,-53.57481178352464,-35.98210695583839,133.7646348620167,-44.67674038693076,-61.034922619997815,-54.310085574761615
2025-12-12 18:15:30.480685,Right,-58.9388953994785,-62.9245924841598,-63.01563285403245,-54.04478308058606,253.27256502808075,-58.81401690169878,-67.47313310397294,-63.406060572582646
2025-12-12 18:15:30.483699,Right,60.446016146132024,68.94947183706972,62.02555843607115,58.2361151460791,-55.164126195222366,59.77408416107937,62.80191750932863,60.725070909982605
2025-12-12 18:15:30.487658,Right,100.33667752613837,97.66221006072738,94.10111896089074,97.53912330442836,-235.18259361989362,98.02321811414731,94.36081588688103,93.07299568626331
2025-12-12 18:15:30.491733,Right,-10.116612364348839,-27.33845411559014,-22.418089838109154,-6.275977581310144,24.660116957325954,-9.717410168370407,-26.56408589275088,-21.82333716819994
2025-12-12 18:15:30.495728,Right,-67.22763324693369,-76.23966249600926,-71.36601058759697,-62.22724209556327,217.99937023003804,-62.96723849018599,-75.07960534315498,-69.70352740979433
2025-12-12 18:15:30.500751,Right,23.734651678103546,29.019199338828912,28.090144704285194,22.581236042329692,-23.424772181674598,27.187644406076288,29.55653052499838,30.13691538598505
2025-12-12 18:15:30.504748,Right,73.83496969419502,71.61737439174613,72.5118565897501,71.51373416343995,-240.17704483060152,74.07529673501995,75.41591883372166,75.79005337941635
2025-12-12 18:15:30.508753,Right,-29.64628437360807,-48.065920169479796,-39.145785018845345,-25.671662283981277,-12.35696937517514,-29.19083365183178,-39.937804082503135,-34.39039034635789
2025-12-12 18:15:30.511783,Right,-106.9666125383228,-121.15887561447016,-111.5893696866915,-102.24301339602243,246.7143866609058,-104.49165347362577,-113.65323769227689,-107.647430172241
2025-12-12 18:15:30.515807,Right,-19.49059880052664,-18.634366838734422,-15.947021408210276,-23.876511614776973,61.0505464975613,-19.08976542770688,-15.113253652270942,-15.17663943174557
2025-12-12 18:15:30.519802,Right,70.71155580771301,67.37821305572288,69.45828666828311,60.866051974051516,-215.9851823731533,66.30485810102255,69.88573283707228,67.66760928484291
2025-12-12 18:15:30.523846,Right,1.262618028682482,-19.12666135312611,-9.192840333445929,-2.8007192998338724,-61.046291871429275,-3.759723825729452,-14.742207938423235,-11.602235568905598
2025-12-12 18:15:30.528832,Right,-89.96884091932588,-108.95957811384142,-96.0916541340921,-88.73735271883197,240.29388645095423,-91.34467595392198,-105.35524257885481,-99.29255103348987
2025-12-12 18:15:30.532885,Right,-25.404761143945507,-27.15673723519285,-20.12874817456759,-29.09585400731885,127.96612483302488,-26.075209470705886,-27.157653633759764,-25.735155807706178
2025-12-12 18:15:30.536886,Right,78.29886699393683,77.12111428951539,82.40271045158443,68.45082983090106,-183.85164994462866,73.5095698929872,76.46244146405661,74.6103833608795
2025-12-12 18:15:30.539866,Right,28.085513942394755,8.704863944458339,21.74565258637449,20.786885296096443,-106.93756379261868,20.59931731834513,11.431678040571569,13.62963613447937
2025-12-12 18:15:30.543872,Right,-83.64893571881112,-107.38323576484981,-89.39046327447068,-86.90532461751718,219.98722695736978,-89.38724399432613,-102.89139237960626,-97.4793262838648
2025-12-12 18:15:30.547926,Right,-50.657007849702495,-57.42636405717349,-44.48964849346157,-57.690665288322634,189.87253861045247,-54.695648808730766,-54.99442266051483,-53.875725287947716
2025-12-12 18:15:30.551931,Right,63.02713988113828,63.9957182391081,72.99150134156298,51.82257985873002,-138.29003594697497,58.43592558768796,65.3193144873585,62.12167856578162
2025-12-12 18:15:30.555939,Right,44.72497634746469,33.01328279802692,47.65123553815647,39.38549162357958,-151.28854997593226,41.79207642185065,36.426252298206236,36.27030012709292
2025-12-12 18:15:30.560927,Right,-68.80427667490221,-85.40779841825133,-65.45954240668289,-65.39753509194634,171.61889974043515,-66.30532903575659,-81.3427743913453,-78.06958090449189
2025-12-12 18:15:30.563936,Right,-62.30880604132108,-62.55301186921861,-47.02853047355529,-59.96181966327276,223.10433969758378,-56.50204012557879,-61.624664278815544,-63.15859583649217
2025-12-12 18:15:30.567942,Right,52.6734880151962,62.599910159120554,72.97672072258501,48.87646188531653,-93.34098248794908,56.48807674253476,61.71178228505232,53.07258508708037
2025-12-12 18:15:30.571892,Right,58.42704260051687,55.15001183989989,70.37260451451584,56.689412527419336,-183.7624464784676,60.70037332910579,57.35239425691725,49.470716608902876
2025-12-12 18:15:30.575968,Right,-59.87020100087102,-74.17811255016932,-51.66768524414147,-53.86683465952956,120.69483830899117,-53.87657856788428,-68.4929862427216,-71.26889875989582
2025-12-12 18:15:30.579975,Right,-83.07271730229331,-85.49121392252164,-64.82917011567042,-76.94941061792633,243.1599882821829,-72.80039689439218,-80.49192282467993,-83.64598262047002
2025-12-12 18:15:30.584022,Right,33.65505297592972,43.236625158288916,59.13184958181955,32.9460117716917,-60.124887719117396,42.84320604547247,46.563716305309754,39.77034013029879
2025-12-12 18:15:30.589007,Right,76.13090055060457,74.23259395320656,94.88865161384638,74.77794457626442,-239.06248438739203,82.23450991989739,79.23584078736349,74.8044754311486
2025-12-12 18:15:30.591993,Right,-30.57322548063894,-47.47200839793459,-17.28054062074625,-25.29519063587577,25.982177775116725,-23.124777868246383,-40.17443441425621,-38.34747044686992
2025-12-12 18:15:30.596025,Right,-84.75483922263811,-93.75627540978803,-62.6515183615229,-78.08090389521385,227.35099285697652,-73.58179201537496,-87.8993676079117,-86.00400573032493
2025-12-12 18:15:30.600032,Right,13.28005236287754,18.818548229825637,44.87297050030156,14.037115699142305,-21.401898905773123,24.2718208100614,22.047309432490692,18.766192893953303
2025-12-12 18:15:30.603989,Right,74.89465836095769,73.21310656507285,101.81061979460992,75.0523611060853,-263.4715298764895,83.1406044199448,77.68235856493499,74.62295568848276
2025-12-12 18:15:30.608049,Right,-23.183275447992855,-41.37571774243406,-3.5958375711124972,-14.532846796866579,-53.52898734137489,-13.815787777621154,-33.188791612782325,-30.037011939386957
2025-12-12 18:15:30.612067,Right,-106.59033778900084,-120.73707593483869,-80.90079601964277,-92.81441756168533,209.41052196551755,-92.5254929689836,-111.1581862928706,-106.73777542993048
2025-12-12 18:15:30.617086,Right,-27.349603595959707,-25.642766440496416,8.08610438757637,-17.933980458413316,29.264651122895884,-11.234331869211928,-16.325894155259448,-18.12389506858213
2025-12-12 18:15:30.620092,Right,61.82576164603961,60.20829461134599,92.95804235403921,68.13330659538315,-259.1380491820055,76.28851713230142,71.52352320609953,66.5126591843457
2025-12-12 18:15:30.624104,Right,-3.9809477016169694,-23.222005906038248,16.153810750458433,7.110418327177285,-118.62520980657064,9.592961657364867,-9.468437109228034,-10.203695306207464
2025-12-12 18:15:30.628044,Right,-92.64537744376412,-112.20880348134415,-71.56916319802986,-79.33814200498,184.15029107188457,-79.48975350898354,-101.1896832457569,-99.1203952453152
2025-12-12 18:15:30.632127,Right,-25.539272877403164,-29.203042432831353,3.4675420423736796,-20.527821107865748,79.99107982848727,-17.664348059308395,-25.153392871932738,-26.80705725041389
2025-12-12 18:15:30.636156,Right,82.71159746382182,79.2090539846813,107.50328885065392,79.22743403626112,-234.90301314692624,81.41157567235132,79.38833837774655,75.5440272484866
2025-12-12 18:15:30.642155,Right,34.07287870797063,12.037525410989474,45.330303986111176,32.60149063799622,-165.64390874349192,28.297901763998265,13.980257206483657,14.811058812911142
2025-12-12 18:15:30.645117,Right,-83.72074490516798,-111.0347707022629,-75.28470882552574,-80.12519192090576,167.52676458145288,-86.03311823293575,-106.6290161073266,-102.27858675085554
2025-12-12 18:15:30.648136,Right,-58.66187803548246,-70.42550679961641,-41.88266000283329,-57.6631306676818,154.10570191354054,-56.552615637393956,-65.42232165996029,-65.18622278436123
2025-12-12 18:15:30.651197,Right,53.60792784523892,47.61904340723413,70.44819405132876,50.15382591956768,-165.2821743253662,55.507922565652734,54.720839474040986,50.76756969279813
2025-12-12 18:15:30.655128,Right,38.49980519285555,16.94622990762582,44.041448156465776,38.68542638734198,-178.02559925919923,38.796883815566616,28.40085366484709,27.918943238015345
2025-12-12 18:15:30.660214,Right,-74.33996807100175,-104.24415643365865,-73.23962032250711,-68.54984359602895,151.3252496485511,-73.32467390543025,-91.05619636546544,-87.05700790569244
2025-12-12 18:15:30.664209,Right,-69.85427239828095,-86.30666997830122,-61.870235012662306,-67.65964156331393,215.34113507834263,-68.66200257963555,-75.49297159877824,-74.69120636365915
2025-12-12 18:15:30.668157,Right,44.899216222866926,36.89996941599384,53.15968871887526,39.81943562533888,-97.39491885944881,43.237316792958154,46.8361239423175,42.4442409367839
2025-12-12 18:15:30.672236,Right,51.811340386523625,29.610274167222087,47.508227494250605,48.79865529608469,-193.5353052906139,48.583217009225336,43.31483054574346,41.420987068049726
2025-12-12 18:15:30.675251,Right,-68.79555263343536,-102.83752974768504,-80.47357647274475,-63.799599569887505,113.89243056897976,-68.6396653351203,-85.7738325743885,-81.80082592578037
2025-12-12 18:15:30.679248,Right,-98.49824585890292,-120.92675273934947,-103.21927023133321,-93.65715871635257,256.46253114110004,-94.7298360497989,-105.34146212039559,-102.67882164298862
2025-12-12 18:15:30.683260,Right,12.94057564232935,3.084788317384664,12.603814176443848,9.929530501696718,-24.344050127569062,15.034815220862583,16.356552894380002,12.872621221271402
2025-12-12 18:15:30.688275,Right,54.73752795560904,34.17982581130491,44.593790819817514,49.82866113327327,-194.01088130351127,53.41088671788384,49.455660033370805,45.42792264037416
2025-12-12 18:15:30.692282,Right,-50.92260176429954,-86.08066313939344,-69.67845357547776,-50.05830180872363,72.17520860803779,-51.2213995775146,-67.34009239732404,-67.03911788248661
2025-12-12 18:15:30.696252,Right,-105.79063144925931,-132.545246943846,-118.1362947871603,-104.01606961471043,280.85894780916715,-102.96810621178884,-114.24077778503852,-114.57125166417245
2025-12-12 18:15:30.700328,Right,-9.853932660036662,-20.84434257234534,-14.222436131938593,-14.71958485430514,46.859314648281725,-8.117124605108984,-5.2246838021383155,-11.220045772097365
2025-12-12 18:15:30.703336,Right,50.43495741964762,33.821330776620016,39.755990419347654,43.40199479836883,-182.765968833628,48.22384466458607,49.0705517212773,42.06967087810335
2025-12-12 18:15:30.707344,Right,-46.55608896215381,-78.48570392678812,-67.29101850854931,-47.837925757292396,34.8938880771384,-49.48618780033212,-63.00012001548748,-65.5502804975913
2025-12-12 18:15:30.711367,Right,-126.43810040768585,-153.7240045510698,-144.66517732359353,-126.21855987494928,308.02296411132556,-127.35970510534025,-141.7078013332357,-144.26677489490248
2025-12-12 18:15:30.716420,Right,-41.959645237235236,-52.94602241069515,-53.6773756959883,-49.40906620468013,141.63914029305306,-43.88004874683611,-45.720257622808276,-54.5595389420705
2025-12-12 18:15:30.720324,Right,53.86947940629034,40.18150347068877,36.00265234939434,41.515820898188394,-138.30454796895356,47.68064564811357,46.81180951353599,35.69229834219004
2025-12-12 18:15:30.724442,Right,-6.406794467977306,-37.11443498083827,-35.72152756953437,-14.243826675476157,2.0138147315446986,-15.004409123634105,-28.607426978764124,-34.57138267272239
2025-12-12 18:15:30.728399,Right,-95.03244153781634,-125.52585780705704,-123.04522489356168,-100.09805300313019,302.94433272824244,-103.79473621152647,-119.06407285833848,-122.60514313571912
2025-12-12 18:15:30.731419,Right,-32.94442209939007,-46.52329495127924,-52.215064840362174,-45.19589352391631,197.70161085610744,-44.53143521188031,-45.47627553407801,-54.704892863366695
2025-12-12 18:15:30.735428,Right,70.49439609298133,58.86057619308849,48.112775357527426,51.52154723944477,-123.14188965367066,53.769054013318964,58.21903556197503,44.36230058650108
2025-12-12 18:15:30.739419,Right,20.601861939489027,-7.425426770496415,-13.948838053518557,5.889013661599165,-63.775654038909124,3.36003271878144,-4.393855944792449,-15.028279436133744
2025-12-12 18:15:30.743443,Right,-95.00005656555004,-126.04127058688755,-130.33447885246278,-102.43082403965309,263.5673524172307,-106.3370277011818,-119.96924929786474,-127.31151728074474
2025-12-12 18:15:30.748471,Right,-64.5835388952255,-77.41956485084665,-88.5738434357554,-72.88029332676888,246.78327895452094,-70.66681606175916,-71.60520435963554,-82.9422682055083
2025-12-12 18:15:30.752455,Right,55.25654169575864,51.00270363798336,34.53665113099851,43.76545557976351,-84.37422229089134,49.49096883168022,57.67195776242443,42.09607580404554
2025-12-12 18:15:30.756473,Right,44.090848618718155,26.35685160135472,14.487825119605986,37.688397946309124,-116.65234647632315,38.77443784931529,36.97742951550026,25.184113613133377
2025-12-12 18:15:30.759502,Right,-74.38281952853868,-99.25945535327628,-106.53511900372541,-73.22433125218231,199.6651535122437,-74.87516254669754,-86.2388403246805,-92.29252613164863
2025-12-12 18:15:30.763455,Right,-80.52134555076555,-90.96502260378475,-103.58317700248153,-81.80013714974484,261.43408323732,-76.78973855997174,-79.61804501558072,-87.16991235926253
2025-12-12 18:15:30.767518,Right,28.9749828333006,27.71389641315909,8.328993163668201,18.970680993727,-54.40704752231977,30.77839306840542,37.61464373121271,25.853414448080002
2025-12-12 18:15:30.771522,Right,38.10039049830084,22.62378571161389,6.055566072827787,26.48484512570576,-159.91252029094903,35.4346445838637,34.129313028010074,24.752261752633785
2025-12-12 18:15:30.776535,Right,-77.81708064944178,-105.35712781558686,-116.60228610037302,-84.70448378314904,138.8541480876156,-81.5378141871006,-93.29570913352654,-97.36114794309105
2025-12-12 18:15:30.780564,Right,-101.8001933526175,-117.00469425438496,-132.31047459121328,-109.75221743497968,272.5758694886172,-104.99810630966022,-108.57881919807551,-114.21093315917824
2025-12-12 18:15:30.784510,Right,17.257589332377393,16.40983588706149,-6.696948900018469,2.626753117903718,-27.65202798707469,11.83845166946412,21.27017580478423,9.895058234113094
2025-12-12 18:15:30.787574,Right,63.948381967344176,54.24203563440824,32.34890842088498,49.29375753974455,-222.34902256813803,56.31985320455715,59.81350219196611,48.972642274718964
2025-12-12 18:15:30.791530,Right,-44.46597583917901,-67.45314135174704,-83.09294927743031,-51.81489342167333,34.348386727360776,-49.61796825379861,-60.61538276705687,-65.97043764556292
2025-12-12 18:15:30.795585,Right,-104.02587441376454,-117.2847478878175,-134.9409730114421,-109.73022848078108,252.85183781349042,-105.2280199188317,-113.65440481981204,-119.22952745128714
2025-12-12 18:15:30.799607,Right,-4.632665790672036,-0.46080116502707824,-26.130809854716063,-16.9142329791066,24.526668437603803,-6.494289346919686,-1.4203916026381194,-12.866959282539028
2025-12-12 18:15:30.804559,Right,66.06606041381747,65.79529055969033,39.7858740358206,51.89869103372621,-219.01844279059878,61.031615200779925,64.94260914346523,52.81862667098176
2025-12-12 18:15:30.808628,Right,-24.489102186533273,-40.00884851353476,-59.02789152387413,-31.287054390413687,-20.92362326521834,-28.629776828827744,-37.63799761516566,-43.672828094080614
2025-12-12 18:15:30.812641,Right,-106.50483559367785,-117.60178860135056,-135.84850991850544,-108.86549869040755,243.31447678137192,-106.82613672850857,-115.10900661748019,-118.78756277601497
2025-12-12 18:15:30.815666,Right,-26.871099391933967,-21.39748579866864,-46.53383946265967,-34.215137329447316,72.09241647141607,-27.633625182585092,-21.808996522369853,-29.96278323646402
2025-12-12 18:15:30.819653,Right,64.70500115182585,67.4165812556239,40.84625783174124,53.61991255561588,-218.9711113633748,58.87349639038439,66.36204703371914,56.5943353976254
2025-12-12 18:15:30.823680,Right,-3.5516630012607493,-19.112753514731594,-38.85913930243987,-9.751472861840739,-86.08256172374968,-11.943154268024955,-18.377878526618588,-22.90745778769633
2025-12-12 18:15:30.827683,Right,-104.5876729050724,-121.41304285991646,-139.07867397522205,-106.93865929497406,224.37893240405538,-110.87919613030681,-121.25924415254121,-122.9640991887718
2025-12-12 18:15:30.831681,Right,-51.954891853467416,-52.09569676056708,-76.88182169602078,-59.65004735322873,136.61538182567892,-57.09733855617378,-54.82302294392139,-61.064572587565635
2025-12-12 18:15:30.836707,Right,50.80539690319347,53.37971541052684,24.85692007909529,37.61855199031561,-176.98815176302014,43.53139385198301,50.70670010689355,41.49380744940572
2025-12-12 18:15:30.839697,Right,6.782189213841775,-6.842195601093408,-29.513727980098338,-2.603727025700209,-120.40455592425133,-1.1826949699679972,-6.190309705896652,-10.563888008517097
2025-12-12 18:15:30.843720,Right,-101.77733811247526,-119.63729006195354,-138.57154920217,-105.86188392549957,206.79611867263884,-106.95362774434034,-118.12608483020449,-117.94396342379332
2025-12-12 18:15:30.847740,Right,-65.67552239086945,-67.61923944363662,-92.6042179940705,-73.28310679941933,192.79961467631801,-69.4134716519693,-68.98080059893982,-71.95749796253222
2025-12-12 18:15:30.851749,Right,57.41648664731838,61.02565216209041,30.926818305495544,44.072922531559016,-141.75199551972764,51.29599830193183,58.9369889188456,51.89993604285701
2025-12-12 18:15:30.855712,Right,45.92869274875193,32.37364949590119,7.124544676800724,35.872281293195556,-180.03342066489859,38.472250414029986,34.12713317856105,30.109922262759937
2025-12-12 18:15:30.861780,Right,-74.69254575066952,-98.8506722542079,-119.02913507296762,-77.91325642952143,140.003531116894,-79.39726044953568,-94.21284710731561,-94.09047561353509
2025-12-12 18:15:30.864788,Right,-80.06532366530882,-91.40211422630091,-116.84808556565258,-85.50760567257385,212.0986600886572,-83.03386672664783,-88.45154162448307,-91.7259816186488
2025-12-12 18:15:30.867787,Right,35.1570851423603,33.7479474066713,0.9731125021353364,21.718726378385327,-103.00444210347268,28.651455518236617,34.845630076095404,25.881527445504616
2025-12-12 18:15:30.870786,Right,49.830165454033704,35.62126842016005,5.235798960624379,35.53623206289922,-218.27284964492355,39.14361144410941,38.49632693613239,31.36302096363943
2025-12-12 18:15:30.875845,Right,-68.34636548675189,-94.50522986327269,-119.30016794832773,-77.51747626546421,78.8691761833943,-78.36946252401685,-90.24145330022293,-91.71326347016293
2025-12-12 18:15:30.879818,Right,-102.13942286594101,-117.05872149455536,-145.476952621073,-112.36521154108777,227.84504040814863,-109.85983459057024,-116.07189360282791,-118.26322479569353
2025-12-12 18:15:30.883782,Right,8.992365191290446,7.458108815138985,-28.7660392823891,-7.980137160971935,-54.99645753812001,-0.3269061967803282,4.22837796962267,-2.70681591637549
2025-12-12 18:15:30.887856,Right,56.61524117164663,45.646790400925966,10.521350151509978,39.70034106246749,-244.17092242632134,44.21782657757285,42.535499849873304,37.220999007317005
2025-12-12 18:15:30.891924,Right,-45.61304401499001,-70.73346990896243,-99.05889459032915,-55.05874846858205,11.161981589310017,-57.116123903004336,-71.93393903314427,-70.59206569774688
2025-12-12 18:15:30.895856,Right,-101.20337840862703,-117.82471403138334,-146.7789447890682,-109.05484108378005,228.46851706371672,-109.91396154620452,-120.70660611359926,-118.713216662778
2025-12-12 18:15:30.898922,Right,-1.415846819683793,-1.6653499825915787,-36.910528098087525,-16.40581820502848,-6.632812816853402,-10.952105224569095,-8.040548242322984,-11.99315440680948
2025-12-12 18:15:30.903907,Right,69.63356899608698,64.12134077089286,30.052323443131172,51.83973110849911,-264.70310063677607,57.44420071652712,57.77389158233564,52.102327949491155
2025-12-12 18:15:30.907914,Right,-19.101859332778986,-40.60235423454287,-66.7481376400101,-30.082910992648976,-75.07520647828642,-29.93425713272154,-44.75845678734913,-45.539100445079384
2025-12-12 18:15:30.911934,Right,-98.09242354454545,-115.24981766533892,-140.62202187736693,-104.12752268772601,195.13786195253851,-104.61234327187412,-120.4159049078371,-119.64269110270106
2025-12-12 18:15:30.915957,Right,-14.108193254782236,-13.19135581341834,-46.30637303533149,-23.40095348117029,30.375704521931766,-19.27035975236504,-21.36502460475458,-25.6710833929028
2025-12-12 18:15:30.919945,Right,80.24221027349631,81.25083446266217,45.798929946671706,69.55839165588259,-266.93095847406767,73.70962477480498,74.05507614414091,67.56860842249444
2025-12-12 18:15:30.923950,Right,8.321015362282196,-6.287163451859669,-35.007888748150435,4.3008247939797,-142.7514995303918,3.4456867320259335,-8.898394619136525,-10.444735821118229
2025-12-12 18:15:30.926973,Right,-101.08659905776585,-115.56962034908065,-141.43431253687595,-100.93140443559969,169.4005269379595,-101.01830434452859,-116.35491648675816,-115.12405284861597
2025-12-12 18:15:30.931959,Right,-52.37746973974208,-49.62663108745619,-81.62573256486212,-58.31882300112193,83.70930505019714,-50.39484616535265,-52.51878034794936,-56.14970907746465
2025-12-12 18:15:30.935919,Right,54.884186880215566,60.818722265692486,25.822965315979673,42.91109215358301,-241.10551685220526,53.74732764056171,57.04438867441786,49.618217121300404
2025-12-12 18:15:30.939984,Right,15.303398518964968,5.645705888782686,-22.794013566577632,7.765620159712853,-197.09264703137342,11.497161055103788,3.2846949090235285,-0.061946863075718284
2025-12-12 18:15:30.943997,Right,-97.93128051349413,-110.73235070737428,-134.47449304713518,-98.61320230855927,136.83434417084572,-100.87209259091105,-114.26153566773428,-113.26652085431124
2025-12-12 18:15:30.948019,Right,-71.4980309958155,-66.14928623411834,-94.8871032059833,-74.3457644619557,143.21742863484542,-73.99115376094414,-74.0943085948602,-76.2023362143591
2025-12-12 18:15:30.951019,Right,48.787675468600355,62.89841938427344,29.924286862609733,40.61542400219332,-180.41002794875385,44.102869528775045,53.453840590969776,47.27131727831147
2025-12-12 18:15:30.955020,Right,44.85407345290878,44.6067352481914,17.223478245461592,39.74301267723786,-221.18448856625946,39.962905083615624,39.045631795605004,36.032526794944715
2025-12-12 18:15:30.958994,Right,-65.30020132285426,-74.79034354206306,-96.32653683483659,-63.592369754915126,99.06743132170595,-65.79773115738135,-76.88411467055266,-75.3071243512095
2025-12-12 18:15:30.964060,Right,-63.0156130048199,-59.23782237774503,-85.18819630661164,-62.80421137185476,178.10057083929314,-60.13112188994637,-62.58479417009221,-64.16879207952297
2025-12-12 18:15:30.968067,Right,58.98195182019117,73.22885112360746,40.876777765210136,52.706245445915556,-137.1142701530207,59.587540974960575,67.64927300676209,60.05900092169031
2025-12-12 18:15:30.972100,Right,81.33473806465554,83.4310252571122,54.58049731981737,76.21934709742345,-262.68762737003635,78.68562031877445,78.6817278294875,72.60663978922821
2025-12-12 18:15:30.976108,Right,-31.66920898817989,-41.21702765790906,-62.9006874461993,-29.813925093018042,29.52432499410861,-32.67973846817404,-44.9764928819277,-45.043103383162816
2025-12-12 18:15:30.979107,Right,-65.4316068755179,-63.54614587065225,-86.62656153778516,-63.90040536325978,186.21880564533694,-63.02497477801808,-69.77644472215252,-69.92764898629684
2025-12-12 18:15:30.983127,Right,43.374737023616035,59.12551441572214,30.729217620122654,37.259331716380984,-89.48237363009684,44.888518149364245,49.99875764146054,44.861434965165245
2025-12-12 18:15:30.987071,Right,88.113524736611,94.68853369020508,69.27176258002874,80.09041054126646,-281.1655993108243,86.18778174823456,86.3040449943619,81.27740735521002
2025-12-12 18:15:30.991148,Right,-21.195891193983698,-29.498816008745052,-47.52003962297749,-23.46345555704829,-26.526698927739744,-23.455978351208614,-36.1446660780166,-36.1370681517983
2025-12-12 18:15:30.996146,Right,-87.83242999015056,-88.96703979972153,-108.39512233314599,-89.04127278859596,202.05790915636953,-88.414755248039,-96.98556737850231,-96.6476151562274
2025-12-12 18:15:31.000179,Right,5.8212338913363055,20.142654448620306,-7.254207332596707,-1.9942113727156539,-20.467503139414475,3.997150086062902,10.45760753959621,5.926514982031222
2025-12-12 18:15:31.004182,Right,79.35284831667013,87.94683996324966,60.11124979281158,69.64523134941919,-276.15174801071043,75.07701346763861,81.17194494841533,76.31137523612415
2025-12-12 18:15:31.007185,Right,-7.429058259098383,-15.547246101101337,-35.94255747911666,-9.807610757557995,-84.62092458445204,-9.695389455097029,-17.569836503658735,-16.8326673393276
2025-12-12 18:15:31.011145,Right,-91.81711556638402,-96.51452610839988,-115.07819003482291,-90.0010097143313,198.83402587934052,-89.25097109249327,-98.43491901214657,-96.17759476311767
2025-12-12 18:15:31.015225,Right,-13.216157802395173,-0.26349328396099736,-24.541279988545284,-17.08554839700082,47.554513442720236,-10.176371674082475,-6.046300037691253,-9.004226639211993
2025-12-12 18:15:31.019216,Right,85.93421932103229,99.04781966786868,74.54690028974437,77.72144383082923,-253.31776847063884,84.71292047497263,91.59840421353147,86.75735027863993
2025-12-12 18:15:31.025230,Right,26.1879299062457,23.624600627714244,7.617844803851767,23.45947787379191,-143.50458766975862,22.92313764489154,17.464135816004273,18.294800254978327
2025-12-12 18:15:31.028232,Right,-75.64008593132894,-78.23993900704227,-90.10064552318727,-72.63184552492385,164.49017480990824,-76.68465817869219,-85.11790258087058,-80.84155293148433
2025-12-12 18:15:31.032202,Right,-27.839077843236737,-12.765938587814162,-30.058394570580276,-28.34656721799911,88.78050774531403,-28.01812330158282,-23.00608033438766,-23.641936733463808
2025-12-12 18:15:31.035255,Right,77.85492378668278,97.1502998933338,77.28071499670114,72.5972157155229,-227.56008142208793,75.04886376756804,85.99370541560711,80.77855210524649
2025-12-12 18:15:31.039219,Right,41.107829796819715,45.42057635592391,33.11409798806926,39.96138770910329,-184.43829933295,37.53264346344986,36.816210454606335,35.169164280308905
2025-12-12 18:15:31.043284,Right,-69.70973063885685,-68.90061084431727,-74.37799804856331,-64.57307459816002,148.2633850878674,-69.56980336393644,-76.72309887962001,-73.33251000214659
2025-12-12 18:15:31.047303,Right,-46.29056601903358,-27.79626459399151,-35.532590603881545,-43.020029990464536,158.4402449035997,-42.99011497802712,-38.10777237775983,-36.273243924657436
2025-12-12 18:15:31.051301,Right,66.96933403453295,94.63452791579948,85.0152932678775,66.22912582063145,-163.97174636349337,69.7311642099412,84.01076033118261,82.9955352743691
2025-12-12 18:15:31.056324,Right,53.73136245119531,67.98003530807728,65.56320036628676,57.75835659161385,-209.085110580535,56.84738462148016,61.58505290843641,64.02121819284184
2025-12-12 18:15:31.060284,Right,-69.02507667525606,-63.42374002487668,-58.64180380205653,-57.096708112150736,111.39505729459597,-61.64048894244843,-66.52814900353951,-59.671945656869866
2025-12-12 18:15:31.063290,Right,-79.43835160272829,-60.33793654314195,-58.275163467966195,-69.28297827356073,200.50893393175284,-69.31952063400786,-65.08555025304486,-61.09750926903871
2025-12-12 18:15:31.067341,Right,36.2857636042354,66.15189087974704,64.07529018404057,38.58921095600999,-104.06389823400605,43.20453818707756,58.76562411395025,57.68573056774403
2025-12-12 18:15:31.071372,Right,56.94538663408639,75.09978354875238,79.23484824919069,59.287526964189965,-223.83215963257317,60.2150796568294,68.05417538221809,69.28991254171706
2025-12-12 18:15:31.075381,Right,-61.636798186777014,-54.33034283819006,-40.498120442677646,-51.827206548305185,79.07199448765277,-55.98959933680089,-61.13620782272301,-54.00640294506957
2025-12-12 18:15:31.079393,Right,-103.93215000229975,-83.62211623341454,-69.95856785378191,-92.24001660577778,256.4302608317648,-93.56466198202361,-93.38808579249235,-87.27681181276512
2025-12-12 18:15:31.084396,Right,4.62952280484933,40.522550759427304,48.295145928911325,11.329407474455365,-2.4860279154800082,14.765568971370158,28.670937114788103,28.92224069038639
2025-12-12 18:15:31.087400,Right,61.60512861793359,88.44850537558216,97.91819648877714,68.28391410382574,-194.19007734752995,67.90224536241112,79.62320373717012,80.08372589413557
2025-12-12 18:15:31.091357,Right,-31.93173707903952,-22.115796832590007,-5.5907066691606815,-18.492165200539603,51.830578175426126,-26.87516165117995,-26.71536248891516,-20.072153751656515
2025-12-12 18:15:31.095425,Right,-88.02795591251925,-73.89289704201974,-57.777386725603264,-72.98895176282895,278.76286515006177,-82.21077938822873,-78.95302320834799,-70.70151802557712
2025-12-12 18:15:31.099443,Right,11.490092897074646,39.53314321482617,49.13551698058109,19.983254313179714,61.12411614890334,15.185410057057197,31.429006435968404,35.171879983844974
2025-12-12 18:15:31.103473,Right,89.72267455617475,112.080731183627,122.28255613024339,95.62447048395916,-194.9287196044006,90.12624537726515,104.29574388240326,106.88324768529492
2025-12-12 18:15:31.107478,Right,5.679664541590682,11.861342950083326,29.75829593792514,17.609287476992904,-10.73393281060271,7.293828427698827,6.780092492358563,13.471133448751743
2025-12-12 18:15:31.112482,Right,-80.09266005116115,-70.38744216944133,-51.36858830410347,-65.36073108330493,268.6686483133217,-74.54052051348253,-76.04060842719696,-69.37934065909724
2025-12-12 18:15:31.115495,Right,-5.5648755312249705,21.076438008001787,32.69421282023177,2.179194597042624,121.01296442062085,-0.40452572082494953,12.05900477261099,12.086860597281884
2025-12-12 18:15:31.118502,Right,89.06880536453173,114.06815448443467,123.28549563465822,91.10161124101296,-174.8967133575461,89.93994451192907,104.69016636295794,101.55568811709054
2025-12-12 18:15:31.123510,Right,24.273033135195874,30.98437109298993,46.84913793080523,30.428450358941973,-61.995611219277635,24.694030866315643,24.671500382460863,26.401085325988333
2025-12-12 18:15:31.127538,Right,-81.27725610964444,-76.78328089688694,-57.80068138705974,-70.46705204099248,250.53315635662148,-76.03172365373962,-82.16247480958646,-76.6975219674041
2025-12-12 18:15:31.131553,Right,-31.33763288931914,-9.930779270907806,3.2618339595137513,-24.654005512879394,178.0385069380518,-23.408710181035048,-17.57510502528885,-15.407205887693635
2025-12-12 18:15:31.135554,Right,81.39036991067769,107.1709532481882,117.6080748461136,83.4570145768435,-145.03694234761133,86.77523979191324,99.47502934302338,99.17605214320429
2025-12-12 18:15:31.139526,Right,47.93204063022222,58.68694915723245,76.22130993743485,55.33406126358122,-116.40844713025581,51.9105841411174,54.83817454642667,59.27556011668639
2025-12-12 18:15:31.143551,Right,-68.86702267526834,-61.91027548918828,-38.62940451101895,-52.984036681504676,207.76858597439605,-60.79449065576955,-63.0740642565097,-54.134384011138536
2025-12-12 18:15:31.146566,Right,-54.82014070736204,-30.278231834099643,-11.020320823969087,-38.72591565813718,220.11013365470535,-41.742601619263496,-31.874893383480412,-26.223388256807084
2025-12-12 18:15:31.151534,Right,55.12434200579992,88.22766298017996,103.65313853264524,67.42889177880579,-99.71301980352291,69.42234432233909,87.86726276882655,88.90897652786589
2025-12-12 18:15:31.155590,Right,45.5776973730126,62.978587043506195,84.31102275427838,60.116489064890175,-147.9684406993565,59.82310644833615,67.38911398160053,71.0468665088556
2025-12-12 18:15:31.159573,Right,-72.04649431692815,-66.83220502870608,-38.786274641246564,-53.93043481675613,170.4581313386043,-56.415802404953865,-59.710023922587425,-51.386476753192255
2025-12-12 18:15:31.163636,Right,-77.68319976757994,-61.95912093112929,-37.27160021088639,-65.5194138704037,262.0130230238119,-63.00227357648055,-57.710875743214274,-51.59812789078569
2025-12-12 18:15:31.167662,Right,45.85225277982954,70.87970577152373,89.64303360715348,47.55621630772839,-44.969555160403615,54.439202546637716,71.60049287482252,73.07012866894001
2025-12-12 18:15:31.171654,Right,78.14268763366317,90.71274400507536,112.88593947739355,79.24115974314918,-178.88336516473828,81.11841604080655,92.22636163606512,96.34113364121731
2025-12-12 18:15:31.174674,Right,-29.954853209843122,-29.40166458713975,-0.35274905955884606,-20.665848936315342,104.83261500505068,-26.26213205098429,-25.89083919813129,-15.32204479770553
2025-12-12 18:15:31.178676,Right,-67.83789445077764,-55.785358036235266,-28.87630881989753,-55.96598463230475,266.1350582325049,-60.95312670954718,-53.779463797625795,-43.78914341870586
2025-12-12 18:15:31.183703,Right,38.58763635622768,65.181619431336,85.2784635815915,44.77855296841062,-6.953418587806482,44.43122769740512,64.51170856599674,68.297661103672
2025-12-12 18:15:31.187687,Right,88.70860008500608,105.87349022400122,127.41004750259162,92.53746670931378,-211.79633541775365,91.13707114956196,105.58303125693783,108.32063338055559
2025-12-12 18:15:31.191718,Right,-14.548326384701113,-14.470045276293604,13.8365129051017,-7.065074008798547,30.149042970231676,-11.947912128352982,-13.76544776971241,-6.5786059483580175
2025-12-12 18:15:31.195731,Right,-79.82331473786064,-75.21255847776229,-48.26821911705338,-73.60409626082583,265.71612332998757,-74.78325998967375,-77.35006184432314,-70.24043994534077
2025-12-12 18:15:31.199759,Right,15.89364611834958,34.93465471388481,53.624834676113096,13.325192587284619,57.51879214089331,19.766752786756115,28.57213103185859,30.065121785162773
2025-12-12 18:15:31.202741,Right,96.16629174317632,109.71667035092469,127.00728833013272,89.40409644253486,-199.56406232386325,96.05183261071033,102.98523278403627,103.29542785006197
2025-12-12 18:15:31.206759,Right,13.486031369049215,10.077242523329915,33.435798344136856,12.007269849373188,-19.820311924309863,12.665015690845394,5.268167311371144,10.71740541019608
2025-12-12 18:15:31.210756,Right,-76.36929974951408,-77.34872715274832,-54.051755719403445,-74.7075176934377,263.33668574341664,-74.67850357858879,-83.34020616116686,-76.60994474888139
2025-12-12 18:15:31.215780,Right,-6.440447700198547,9.46009810364194,24.249030124330602,-10.704624981821325,122.34521297519473,-5.359955966574489,-0.016328971563780215,0.7315538565489987
2025-12-12 18:15:31.219790,Right,90.08535333090003,105.3925351490252,116.62020004697115,81.10904354029117,-175.65346131709902,86.66153805332397,95.61000786295335,93.04825075986082
2025-12-12 18:15:31.223744,Right,31.21941003077518,29.122923088074458,46.07890378466982,26.927701476857692,-69.10648533064762,25.913837732929096,22.272946569366468,24.2908756873112
2025-12-12 18:15:31.226803,Right,-71.53513323383868,-75.75095932696058,-56.123122101933404,-70.6129336198519,243.22860385997797,-73.9887855162142,-81.57778389399027,-75.8640430972082
2025-12-12 18:15:31.230757,Right,-21.72325677470144,-9.036749478542333,4.759030821063789,-23.823592723312686,169.5689071761567,-22.150118078203377,-16.221495007510384,-13.892418001025362
2025-12-12 18:15:31.234826,Right,93.17987954252658,110.43713199147896,121.82056917477166,87.83052916153974,-168.3179350186033,91.54371469752186,104.5026704630327,104.08178858905012
2025-12-12 18:15:31.238913,Right,64.23805329954757,65.9022586535284,85.16648127642111,64.77028820002488,-159.6823557951584,63.00096157078042,64.490210414795,68.59306460282096
2025-12-12 18:15:31.243931,Right,-49.26608598815346,-53.48543419663838,-27.635510361556953,-41.72418315432515,157.35933561394177,-46.7088600121333,-52.721272935410525,-44.23723351878289
2025-12-12 18:15:31.247896,Right,-32.40768053799911,-21.71405602456798,0.22664545953739434,-28.50303645231361,172.17755372296324,-28.617857147013638,-23.17209099515094,-18.291834070296318
2025-12-12 18:15:31.251844,Right,82.22952811764571,99.91297680830758,117.0275279740963,77.77007717911147,-153.26664633856308,81.719066308131,97.03689905648207,96.89790094759155
2025-12-12 18:15:31.254854,Right,75.10427791517031,77.33241611013727,98.60500823330949,70.8543952382206,-214.4951258881174,71.21626772895615,76.93803192922132,79.3586657688902
2025-12-12 18:15:31.258900,Right,-49.13541541389441,-57.31511474094805,-31.30343972350238,-47.16300250653512,101.7794232072738,-49.96497814812392,-55.51052026990874,-48.31022550195485
2025-12-12 18:15:31.262849,Right,-68.14710406823906,-63.097617015642754,-42.435477944171,-66.07531608137651,204.4694723239263,-63.86602505888004,-62.43555284621107,-58.18083150550956
2025-12-12 18:15:31.266907,Right,45.49454134266125,62.307325634399604,75.12172197680775,42.83793823193628,-95.62156873919048,50.70591697740019,62.41494029912792,59.79436488923966
2025-12-12 18:15:31.271930,Right,76.55634593266223,81.36518640735085,96.0765547273113,75.56970618452033,-232.68435783272434,80.50802802725593,84.60332603248389,81.68495071959478
2025-12-12 18:15:31.275935,Right,-28.241847339950255,-37.61655459899339,-16.77634991168452,-22.547214752510627,52.51610890571828,-23.138926715775597,-31.969396358719678,-30.366586452561023
2025-12-12 18:15:31.279969,Right,-63.07839463720302,-64.17799871733587,-45.645053217798704,-57.91917404329433,226.0243526639515,-56.951588041174546,-61.31323690735735,-60.060230749990296
2025-12-12 18:15:31.282934,Right,45.90124533695962,57.29836796092059,68.95499168274546,43.49271586253599,-38.10529203999613,48.13843165173239,55.85926119194846,53.018869431540224
2025-12-12 18:15:31.286956,Right,98.35757026708416,100.32486071515086,113.44420749787969,94.58181365222481,-244.79352025672415,95.10275598134467,98.80005009992237,97.52413136387258
2025-12-12 18:15:31.290999,Right,-4.364899034188056,-18.08839249608718,2.2719846567633795,-1.1143402860143397,-3.9919552591345564,-7.566102765464166,-16.914207994290337,-12.1216151917979
2025-12-12 18:15:31.295009,Right,-70.7793669681705,-78.25327285571984,-58.4627759523064,-65.05396885208756,236.9265825587463,-69.35561552711442,-76.2200336326714,-71.48928073201387
2025-12-12 18:15:31.300013,Right,25.993620466228094,34.09700463601985,45.98198892076471,25.438830596645857,27.11692317834968,29.540612335316837,36.18659409627435,34.28138534844766
2025-12-12 18:15:31.303961,Right,111.91685115054861,114.5968132762282,124.7116249390674,108.67547842270505,-246.15221969711638,114.26757435395848,119.64629213776425,115.69455747263419
2025-12-12 18:15:31.308124,Right,35.02267668124841,20.04588817904005,36.000816738298454,38.92811488838561,-81.12546966952141,38.52997976689585,28.696837648007204,30.048800479049532
2025-12-12 18:15:31.311059,Right,-55.03954550289927,-67.85732744826237,-51.105758680423605,-45.197581606735184,204.35081344971695,-47.33879968835754,-60.24861089762271,-56.516496822336194
2025-12-12 18:15:31.315061,Right,10.214359387688091,15.335138586207904,25.49712385316525,17.104565988265676,72.69592784464112,19.665445247908792,18.835468088956986,17.817859832917748
2025-12-12 18:15:31.319101,Right,104.65129345925925,110.82440304349439,119.79908732219337,108.90432466404673,-227.30372124837595,112.50835283674314,113.72548294622175,110.10725057594755
2025-12-12 18:15:31.323114,Right,47.49301589227616,36.61371290038733,53.60808510134666,56.8975593617979,-131.46018239793193,55.59716311210286,42.92083056856427,44.01165695995951
2025-12-12 18:15:31.327048,Right,-56.39686086948677,-71.29553667569417,-50.00979940994148,-43.3901138002002,177.70407516979685,-45.458588257482916,-63.42632374952882,-58.859992818994215
2025-12-12 18:15:31.332147,Right,-13.872248220028268,-15.258871366233507,0.4453637287733727,-7.705973281284969,110.63879375179386,-3.221977497854823,-9.058593521334842,-8.31566240837492
2025-12-12 18:15:31.335098,Right,92.489509069208,92.0153466337324,104.01686561639508,90.30551625942462,-221.4606110924069,98.44397620459131,98.29753648375481,95.85686102065301
2025-12-12 18:15:31.338092,Right,58.09426346449618,38.8529003599142,56.6881381845742,57.45180592412362,-208.1105861308206,61.629529101239314,48.42201185960948,50.47526126270532
2025-12-12 18:15:31.343138,Right,-58.497877045780115,-85.61818344784115,-62.902279657369945,-53.772970515787165,120.69381894738035,-51.35645454916812,-74.36470403116255,-67.5071286808743
2025-12-12 18:15:31.347174,Right,-42.05659904939603,-54.45718726845371,-36.491894797109126,-39.39511506615236,148.52480626813121,-30.49178202035546,-44.74695975601571,-41.17122167769048
2025-12-12 18:15:31.351176,Right,77.11330772064866,72.81412468383496,85.9538985958352,74.96427635011787,-177.44799352026894,89.0262706124413,82.6936300256566,80.84866972890086
2025-12-12 18:15:31.355204,Right,76.9516913672287,58.0230582721415,76.05676731857238,78.28895749412914,-249.24659736237663,88.09024039809447,71.79536027355425,71.42497504120911
2025-12-12 18:15:31.359219,Right,-44.13985660205799,-73.90845371500109,-49.894295708938444,-35.49237376478413,65.8742543663393,-31.208670953034016,-57.77100287990106,-54.29769259442401
2025-12-12 18:15:31.363201,Right,-64.51217766060472,-82.15395610152336,-62.21059325533861,-57.36469893078538,180.72886234158796,-50.462028393056244,-68.32669921029083,-67.69302010713363
2025-12-12 18:15:31.366183,Right,48.569160550370725,42.09567791740483,55.18201340107771,47.84802868408224,-110.85236149458797,59.12343460652846,53.5377793135267,48.6228787655964
2025-12-12 18:15:31.371234,Right,80.78203445742474,62.8489027903488,78.65052400362038,79.14715028025603,-250.57022368815524,86.84193681598481,75.64238433377977,72.48979147190767
2025-12-12 18:15:31.375235,Right,-27.178881831232502,-57.469283671627636,-34.73471202704968,-22.62291884397564,34.446807073683885,-21.26309517086338,-43.46480074962528,-40.100395070367085
2025-12-12 18:15:31.379197,Right,-70.40379946653957,-89.26834900540416,-68.33880609399785,-65.06260358244253,217.72445894128032,-62.70017832605299,-78.29306347760576,-74.2492418646616
2025-12-12 18:15:31.383258,Right,34.871647229882,32.39903287218476,46.226517404233164,34.223651230280666,-41.30502544181945,40.83142611317089,39.84423913863793,39.44784374543815
2025-12-12 18:15:31.387283,Right,94.43367138345639,85.58087086362502,100.04800861627155,93.38148399371858,-258.7508055319995,96.70917393948548,94.10753119160654,94.30421251699954
2025-12-12 18:15:31.391282,Right,0.9612625926238252,-22.416027145107364,-1.4953016319414019,7.838027057492582,-31.24777518461633,2.7208649932508706,-11.00460122117147,-4.970788847702352
2025-12-12 18:15:31.394291,Right,-64.88886640230521,-81.58270565840576,-61.468124459795945,-54.020965042818716,209.6880294921648,-61.911216417844116,-71.01473387885562,-64.10972387122456
2025-12-12 18:15:31.399331,Right,23.39500578254956,23.926332766306587,36.71300787079235,29.77082890498059,7.496037172626529,24.29038717993535,31.889612682880397,33.26748167110418
2025-12-12 18:15:31.403327,Right,95.66086070522397,93.75270737804749,106.22600184309704,100.44646242153976,-261.3568599707651,92.95337327534799,103.0075853360213,102.65340985479634
2025-12-12 18:15:31.407276,Right,1.971009917639094,-14.912444099376444,5.21152729143796,13.559362169511587,-89.195362009159,0.36898599271444255,-1.9478088575488073,2.712788087359513
2025-12-12 18:15:31.411339,Right,-101.4968000903009,-114.97277489185217,-93.05293236972648,-85.94979464420612,213.2288660121194,-98.08844938269249,-102.00702653479311,-95.34845565494106
2025-12-12 18:15:31.415371,Right,-35.17778844141503,-30.525369952403707,-15.83243650256918,-25.623272286473366,95.5814460182446,-29.915794596507112,-20.684707086544222,-19.40930608983399
2025-12-12 18:15:31.419378,Right,74.90726556606023,80.5947279704742,92.29106181785755,79.18859185717156,-208.22461858473253,77.6690790315588,90.48945260487744,88.0464121018631
2025-12-12 18:15:31.422369,Right,32.154159503354094,21.18556357225316,39.152941669854044,40.97010225821941,-124.08590201291372,34.340056277258554,34.801417350317934,35.804978412386845
2025-12-12 18:15:31.426391,Right,-70.80397689056917,-84.17467736360413,-63.05581664935016,-56.5145343938857,186.52436222233518,-65.07880429256511,-69.23956156860004,-65.75829720274123
2025-12-12 18:15:31.431345,Right,-34.74473975716319,-31.08885284873395,-16.55049966849765,-23.896775378969323,133.71661965141539,-26.993027747363158,-18.77094142058195,-19.84503271212816
