timestamp,label,FC3,C3,CP3,Cz,FCz,FC4,C4,CP4
2025-12-12 20:47:07.899293,Right,1980.8509622917693,2174.220786855149,2212.150696868485,2059.7721407705635,1661.8445197044941,1661.9699537326067,2014.830196832617,2314.379847519487
2025-12-12 20:47:07.916411,Right,10666.565269443296,11707.415922381573,11911.022577053074,11091.045500846212,8950.211495809672,8948.113710908223,10847.998370189895,12462.4030609863
2025-12-12 20:47:07.919364,Right,24436.840319058952,26819.83391614164,27283.832310141235,25407.35065185741,20505.444366665924,20495.444490459613,24846.985561769896,28549.941057257623
2025-12-12 20:47:07.923473,Right,30560.13077083505,33536.31753545568,34110.48796271328,31768.967684159463,25630.505601207093,25622.2170928049,31060.61461027348,35699.189502833506
2025-12-12 20:47:07.927472,Right,20729.88144559943,22740.597147237604,23118.11852520924,21540.712608647387,17336.967757638668,17366.952446255513,21046.97979228651,24202.631859930247
2025-12-12 20:47:07.930464,Right,2462.2274465668306,2684.324733923946,2705.863174446742,2541.7363349944644,1956.154778243901,2039.9641772635805,2457.434004627037,2845.163539897476
2025-12-12 20:47:07.934454,Right,-11293.650872096128,-12417.370201204234,-12661.830065262155,-11761.830946165544,-9587.605142364948,-9500.672106382408,-11537.905681957986,-13233.672379394295
2025-12-12 20:47:07.938470,Right,-14783.413641794992,-16246.089549367782,-16556.13464665244,-15387.612126426247,-12463.050212746806,-12430.699129201414,-15086.094731705496,-17304.36087003263
2025-12-12 20:47:07.942430,Right,-10584.66365374974,-11631.48378547543,-11856.477318914898,-11017.611838128942,-8902.943096847623,-8906.294071573997,-10806.188985184068,-12386.177382104332
2025-12-12 20:47:07.946503,Right,-4545.290019214619,-4997.481185712386,-5101.537004410464,-4734.694953191269,-3849.885108691,-3831.265451384359,-4651.286417668103,-5324.417161932273
2025-12-12 20:47:07.950573,Right,-1244.401713456784,-1374.4173370180652,-1412.5201700842008,-1301.8564713723026,-1097.3812606604188,-1056.3859936728259,-1289.7185459774337,-1470.074100992526
2025-12-12 20:47:07.955577,Right,-1937.6781130427262,-2138.1375474542147,-2188.6980033169966,-2024.0210349285044,-1659.8950286043691,-1640.6101438813494,-1999.2932649831055,-2281.0936206275364
2025-12-12 20:47:07.958573,Right,-4696.277845697827,-5166.497393161408,-5267.838312757667,-4893.151476241997,-3955.4680629263166,-3957.5880510391435,-4807.265778435511,-5500.918492094614
2025-12-12 20:47:07.962564,Right,-6449.467754138983,-7088.760053448379,-7220.189832486445,-6715.258792756707,-5441.9565112906275,-5423.951679272461,-6585.854597877944,-7547.606112891226
2025-12-12 20:47:07.966569,Right,-5731.320521507296,-6299.289723477792,-6415.055075100157,-5967.459118051105,-4852.7616548775695,-4816.458546016365,-5852.206809090683,-6710.148800426745
2025-12-12 20:47:07.970585,Right,-3759.0553018032806,-4134.68799989589,-4213.152116108919,-3916.610710385954,-3172.6052654163213,-3163.7061327917036,-3848.995987672475,-4405.360328977695
2025-12-12 20:47:07.974589,Right,-2740.4239527046448,-3015.892296576174,-3074.8693711005617,-2857.5378403703216,-2291.5349713327596,-2311.6629376666388,-2814.1991046040785,-3211.8766224271385
2025-12-12 20:47:07.978627,Right,-3346.2705066354247,-3679.287364136777,-3747.9399147895165,-3486.8849820728647,-2816.6661184994737,-2814.8080229422776,-3424.895830049645,-3919.807227542158
2025-12-12 20:47:07.983602,Right,-4249.672217557323,-4670.711393304984,-4754.808522843872,-4425.69206025661,-3600.2636396081652,-3565.5893777910387,-4338.518967361655,-4979.691623211838
2025-12-12 20:47:07.986650,Right,-4047.1673585135723,-4449.050278072595,-4528.727954463568,-4215.528028488159,-3411.8874529550085,-3396.5998147290666,-4133.819522706326,-4743.487812430481
2025-12-12 20:47:07.990628,Right,-2989.2442818387644,-3285.977049496956,-3344.2135263748933,-3115.96510260331,-2488.508886284777,-2514.444281993434,-3059.4912293974776,-3500.3751816587755
2025-12-12 20:47:07.994680,Right,-2420.862877048552,-2657.9697020925814,-2702.2672800250584,-2524.143244110397,-2018.400294562336,-2036.854273591307,-2476.6320913297823,-2829.9794371838216
2025-12-12 20:47:07.998694,Right,-2891.7605720289284,-3172.6499750481453,-3223.169844671269,-3012.007057968527,-2446.80151496653,-2426.242451101425,-2949.5368340279674,-3380.9149997724453
2025-12-12 20:47:08.002676,Right,-3492.8984158218373,-3833.4880019181874,-3894.6699769810075,-3635.4213131677825,-2948.0770660615526,-2929.8586709494703,-3560.8259934949456,-4085.0070383747807
2025-12-12 20:47:08.006693,Right,-3180.7574166295817,-3491.205126379966,-3545.6281460529426,-3309.241328839329,-2651.2832829894032,-2671.920576327713,-3244.514470427297,-3716.1468269383768
2025-12-12 20:47:08.011694,Right,-2203.9213139472995,-2416.3781262994744,-2449.592046228703,-2291.6329930137144,-1827.0847483959515,-1851.3097872340586,-2245.92175181699,-2569.9846997994464
2025-12-12 20:47:08.014696,Right,-1721.031117679784,-1883.7191530057462,-1905.4537769140443,-1788.4199309488758,-1452.5054119447013,-1439.8869495919207,-1748.1776375696063,-2008.1179037985858
2025-12-12 20:47:08.018725,Right,-2195.839110329631,-2404.6465484366054,-2435.810337751871,-2282.6362627259223,-1856.8839133485453,-1836.9082561588148,-2231.810149164754,-2568.2635918204905
2025-12-12 20:47:08.022718,Right,-2781.5068648352753,-3047.168621919933,-3090.5388520982815,-2892.240249198978,-2316.4035296400543,-2333.456038956763,-2831.641406396171,-3251.8501835311763
2025-12-12 20:47:08.026679,Right,-2507.951879305532,-2744.1288855588064,-2780.7267164778896,-2606.591805757489,-2073.3027284105774,-2105.3928530487465,-2550.4578197337687,-2926.885979867424
2025-12-12 20:47:08.030739,Right,-1607.8729195762426,-1753.442853233195,-1769.7250461744843,-1668.3840962487739,-1343.3891281617107,-1344.6291314916452,-1626.270488615497,-1873.287925753044
2025-12-12 20:47:08.034747,Right,-1161.6101910434663,-1263.862387839239,-1270.3434928576462,-1203.3290845026495,-981.7240251329495,-967.167158122058,-1168.5317940186942,-1352.886418324546
2025-12-12 20:47:08.038787,Right,-1593.7168198132422,-1739.341737570474,-1754.803682040074,-1653.193061708589,-1318.78821006394,-1333.8588301577838,-1610.1586911362829,-1854.8056703512557
2025-12-12 20:47:08.041777,Right,-2123.278679432231,-2319.4170319772093,-2345.119528639014,-2204.065032676561,-1746.1502601867542,-1780.4631978690159,-2147.6169130866183,-2467.4416005122475
2025-12-12 20:47:08.045790,Right,-1886.5545706525445,-2057.4495156347984,-2077.810464150505,-1957.1744808728108,-1568.3556788874557,-1576.2242769476725,-1900.6085186741548,-2189.146870940225
2025-12-12 20:47:08.050808,Right,-1112.3896686030785,-1207.9192912898725,-1213.7414035518887,-1152.00726929761,-934.0371250504395,-921.4035477534635,-1110.6832845769823,-1287.4699646792142
2025-12-12 20:47:08.054802,Right,-738.0940248733386,-798.4945492508123,-798.4565901730675,-763.818445673096,-596.7911438283045,-610.070002396591,-733.7316607635003,-849.9598347807769
2025-12-12 20:47:08.058815,Right,-1094.3591901396867,-1188.5742852325784,-1195.4448625430232,-1134.9447015508777,-874.5374829941429,-913.4005184416892,-1097.5446598366834,-1261.5781269224826
2025-12-12 20:47:08.062835,Right,-1515.6173390608747,-1648.2138486199547,-1662.065839181072,-1572.3531006446574,-1245.9186810572864,-1265.35230329365,-1521.5270633420441,-1751.7890133251203
2025-12-12 20:47:08.066843,Right,-1320.1004300508648,-1432.8282512552105,-1443.3096183062298,-1368.07559559145,-1101.3634141508956,-1098.9443347804481,-1320.1106570250122,-1526.1655049121473
2025-12-12 20:47:08.070860,Right,-711.9773703062674,-766.6947904203553,-767.7455143489642,-734.9624144257978,-570.0338117078063,-592.3273932841257,-704.978796568932,-816.2425849770661
2025-12-12 20:47:08.073867,Right,-412.97710672940593,-438.80865986901335,-435.49577123473864,-422.6181739360327,-291.7903674346744,-345.33720593177713,-402.19506798218936,-462.5440208124928
2025-12-12 20:47:08.078879,Right,-659.3689757920802,-708.4170220847009,-709.5166682603303,-676.7632666031132,-513.5966737892595,-547.7895007911138,-646.9042476121103,-748.7745486004278
2025-12-12 20:47:08.082888,Right,-957.2398373615579,-1036.5988554831129,-1044.0334543472854,-985.6602990892716,-792.7507429098478,-790.135995916382,-944.6693856544443,-1102.3104886645451
2025-12-12 20:47:08.086918,Right,-810.0035149013856,-878.3394323664252,-885.7134512740886,-833.945582966262,-658.3980506155058,-666.1515109451138,-797.6701232242049,-935.7442536258604
2025-12-12 20:47:08.090874,Right,-349.735392582661,-374.7809305424453,-375.60566875111545,-357.38481548940763,-241.45598035276635,-284.9650027670432,-334.33351614390267,-397.1861343617202
2025-12-12 20:47:08.093942,Right,-90.0001551671885,-88.5785685844603,-84.14348668180173,-88.11212672188412,-29.59515501052374,-67.94758482673205,-69.39051960170036,-91.77858499600552
2025-12-12 20:47:08.097895,Right,-238.4363227331778,-251.10425811674213,-248.31344166322378,-242.34551814047154,-184.49900220002746,-189.72960429551313,-218.351600901864,-267.66637096204795
2025-12-12 20:47:08.101973,Right,-478.8832116673584,-516.7757743359543,-518.2993805825827,-492.5021290947916,-382.40118974243524,-393.59074693889124,-466.520324314537,-550.6582947800052
2025-12-12 20:47:08.105962,Right,-422.9818190941005,-456.1468410806847,-456.03386117343325,-434.4041418811539,-302.34800319976057,-352.92191887350054,-414.2723096314585,-481.6725614206516
2025-12-12 20:47:08.110918,Right,-96.06507616327144,-95.51172017888166,-87.02015016053338,-93.4732975322404,-25.229762387869414,-79.42712255369406,-79.52793255425058,-95.72578000678914
2025-12-12 20:47:08.114972,Right,139.81780999424518,164.34988464222988,179.40700205566827,153.25328334173537,141.56744117930066,123.65612879363471,165.46810019752593,177.21945635194425
2025-12-12 20:47:08.119002,Right,73.7485502846539,89.80539916633279,104.03018370436621,85.38538593784324,80.19521079288097,69.70097919748514,97.24355232718517,95.26143088174285
2025-12-12 20:47:08.122010,Right,-102.96989765012404,-105.90552297479007,-94.2549182937073,-97.64257425090182,-36.4785985420458,-82.5806213793694,-86.9117925617611,-109.46326990777743
2025-12-12 20:47:08.126001,Right,-82.34659442704287,-81.82916340272641,-66.10810788307572,-74.34488736561616,-6.28203025944822,-65.22881881830108,-63.838775008305674,-79.05918067650055
2025-12-12 20:47:08.130032,Right,150.4238821080653,175.64815970193013,200.66689557339123,170.22883946869115,163.71097433612158,137.23042869055644,180.87461391664692,195.62115940872172
2025-12-12 20:47:08.134036,Right,331.0317403474037,373.0174210364494,403.77310365437006,359.4871518072323,304.1919911957302,293.34639721462736,368.30440058708336,405.9362571057136
2025-12-12 20:47:08.138012,Right,296.8221772957695,333.4875120743018,363.03343163250975,323.91491209787637,303.33609609064297,261.24215637657835,331.06870731675735,368.04960283537366
2025-12-12 20:47:08.143065,Right,184.8502039566447,210.88743081874964,237.46397563213213,207.51296647377876,226.24215718846244,164.02863953431682,216.96351849235634,240.89767118906184
2025-12-12 20:47:08.147076,Right,201.9491094250261,231.21117258352024,257.42107147059505,226.19814508522177,216.1834095292652,181.72308350167805,238.89325707067474,259.4785460617604
2025-12-12 20:47:08.150097,Right,343.1280759860965,385.85456950265507,412.3509880115744,373.7999214086667,316.15754346724134,303.7259141759132,384.24870807726984,419.21801947863423
2025-12-12 20:47:08.154104,Right,451.13202951668063,502.6706206153176,527.5454314054805,485.78253222860803,430.75037414697,391.73513471150363,490.20746153120126,543.9272457743064
2025-12-12 20:47:08.158056,Right,460.5093354205892,512.1024407864606,535.2027127828915,494.2485304388392,461.7590021230717,396.5199067008216,497.11504068088834,556.7954600840167
2025-12-12 20:47:08.162141,Right,444.5094179609441,493.4754775816109,516.664663678821,475.64172128855716,427.59820243599825,385.86502121409285,482.20605667028576,535.3809823851043
2025-12-12 20:47:08.166143,Right,464.1415275235486,511.19649880431825,534.6739450283931,493.1098892762675,416.5725662188488,405.3757474737358,500.1141419786145,549.9778846809058
2025-12-12 20:47:08.171113,Right,505.09468266071053,551.1534685054212,573.5967171966622,532.1406361550908,464.48766782306484,436.34896823694,532.918078884657,592.3604481942893
2025-12-12 20:47:08.175166,Right,556.3043577078788,605.2747782871593,627.4439191648853,582.7867140862509,531.7440732673276,475.67603741926723,577.8206762268092,653.1841094134143
2025-12-12 20:47:08.178256,Right,629.7566314632422,686.3379792211927,710.5506017209846,658.1612556379987,577.4253780493455,542.0654685071495,652.8294718100224,739.5647632762557
2025-12-12 20:47:08.182144,Right,688.5819017789909,749.4317729750765,775.2929832500522,718.4096872175578,594.7689514954109,599.0579503518529,713.0613203982357,804.1180544227245
2025-12-12 20:47:08.186239,Right,669.6631029339042,724.4621468615951,748.9784027606947,696.7000785999699,584.9635248215054,582.5275350669981,687.163315447222,778.8856347636902
2025-12-12 20:47:08.190153,Right,608.2508758009644,654.3511558367172,676.9837511150399,630.9982614954934,560.475747774879,524.4691519370535,617.1140003080363,709.0972406669171
2025-12-12 20:47:08.194239,Right,626.3302046745084,675.0563954194076,698.9895122557064,649.9746950073168,568.048909161007,538.4107748285751,635.3012734971126,731.4374441452092
2025-12-12 20:47:08.198240,Right,746.3509730444639,808.4039241910214,835.4186307464261,776.6239015767351,637.4755639471696,643.3162263204576,760.7407133431989,868.0061387708993
2025-12-12 20:47:08.203207,Right,827.6978441670071,898.3134618111653,925.7059224168188,863.2569565256708,707.9200648980332,711.6184377486352,842.8632777614985,961.0484817113029
2025-12-12 20:47:08.206247,Right,766.5845245867968,832.9691745051532,857.5664359413786,801.6280142181204,687.7031212099828,655.7140880300431,779.0413234717562,894.7402545650257
2025-12-12 20:47:08.210216,Right,664.1320886389585,723.9368234210415,746.4571833548835,696.9807272762409,602.6950397953042,569.4436476493138,678.6039468063391,780.4950623222394
2025-12-12 20:47:08.214279,Right,688.8091849482153,752.7395867160521,775.8624884381425,723.4718282128451,590.699695607298,594.6560430714744,708.7649463987909,807.1712690652348
2025-12-12 20:47:08.218306,Right,831.2575953339692,907.5345197053393,931.8433741250774,870.6600643360289,702.5198852060712,714.0803330233321,851.8805931261741,968.4439157637535
2025-12-12 20:47:08.222317,Right,917.011505668168,1000.2441087401239,1024.399954687222,958.6097532681888,803.1290274944622,780.2098306096159,933.969619102776,1069.4034114992246
2025-12-12 20:47:08.227311,Right,851.0301385141211,929.268169615767,952.4270509090275,890.3808934972622,755.5072713114205,723.4172660943004,868.0610846112249,996.9282771932194
2025-12-12 20:47:08.230279,Right,739.9041145750089,809.2078803767217,831.2690604648087,776.1882522166707,629.9386895213393,635.8006212834152,761.1129700245801,867.5567627913551
2025-12-12 20:47:08.234342,Right,739.4590888239909,808.295288884081,829.333201184636,776.0069560046541,611.9246864148881,637.7257682457566,761.636513839243,864.6743134940043
2025-12-12 20:47:08.238361,Right,854.1466332601849,933.4159392738948,954.421254820656,894.3992812470533,732.3310287236236,727.9671832346357,873.8298838291084,1001.2050683011767
2025-12-12 20:47:08.243326,Right,942.1055786621291,1031.9132478217361,1054.3845734238857,985.6656298069283,822.2092777006328,796.8852946191328,963.2144886209862,1110.4083048484754
2025-12-12 20:47:08.246387,Right,896.0768958207918,984.3408440350322,1007.8516246054787,938.6668106107973,758.598174904706,761.3430722752819,922.6823868721258,1058.496247617877
2025-12-12 20:47:08.250393,Right,774.7651021995116,851.6193411380518,874.0394529844634,812.9309223246528,636.0520296829054,663.0859755456913,802.7735622702166,913.6504566316726
2025-12-12 20:47:08.254425,Right,735.8102068493608,807.761313850875,829.3921017101966,771.9103321140865,624.7959675759776,626.730944289011,760.3647166626761,868.3966919285012
2025-12-12 20:47:08.258432,Right,842.3723372047534,925.4332245768746,949.8964458192931,882.5741406960879,736.4362085647881,710.9536451289896,867.3399074464105,997.7121396196308
2025-12-12 20:47:08.262464,Right,968.3973327076528,1065.599340359331,1094.1228251524735,1014.1971673336811,821.3123487733537,817.3662231932394,998.8224649387412,1145.628559071687
2025-12-12 20:47:08.266465,Right,944.5814716789173,1039.3187436440494,1067.3374096980551,989.4520803636406,773.4771602182882,798.9433795997174,975.2281382661313,1111.9128229316557
2025-12-12 20:47:08.270484,Right,790.1283481694991,868.6276059470838,891.7613981892355,828.16067183204,658.6581397030968,664.626210737275,812.9132972656516,928.0435910134111
2025-12-12 20:47:08.274507,Right,710.053875835496,782.317848369712,803.1792646663962,745.1639356744708,620.1267758713802,591.7065344003495,728.9760474459035,838.4067402075743
2025-12-12 20:47:08.277582,Right,817.2968873869395,903.7539950460196,928.2715688120807,858.2275627027266,699.580647131661,683.2077500533778,843.3494713067776,967.5709296916611
2025-12-12 20:47:08.282575,Right,957.7153954281239,1059.0975548235,1087.5855725565925,1004.9212553487159,788.6163148428313,805.1610924350098,990.8763612738112,1129.5023205482867
2025-12-12 20:47:08.286551,Right,919.4935079285642,1014.8251924916403,1041.9330607269658,963.7194343047449,763.545056148083,770.6414851024747,948.9660859075375,1082.1458186474629
2025-12-12 20:47:08.290510,Right,744.7762455559568,821.2542174574919,844.7127359772567,780.2892472712556,644.8585144227836,618.6300453725271,767.3932360203471,880.3700005622813
2025-12-12 20:47:08.294544,Right,675.8756788736209,746.4661774137057,770.3006529300474,708.7953947145725,580.5112961133709,562.7039291377878,701.0401670774445,802.5528613688657
2025-12-12 20:47:08.298565,Right,801.4714095485397,885.1525160653982,912.4476663753157,840.8659617586527,654.0334966796217,675.4835146750556,834.9443375199335,946.5652074584505
2025-12-12 20:47:08.302577,Right,928.7268354496919,1024.044486634666,1051.3857198302867,974.1282496047206,761.3049367063213,784.2689111715881,963.8150267797755,1091.3255194087978
2025-12-12 20:47:08.305576,Right,870.0246754607651,959.5382319699274,981.6158445521723,913.2761085102102,743.4891222020378,730.67371701519,899.8521291182842,1023.636256706086
2025-12-12 20:47:08.309585,Right,708.7038008298259,784.0445533869788,800.2442964463262,745.6135539556853,612.2222823798656,594.145091510145,736.380177377956,837.2274736154359
2025-12-12 20:47:08.314570,Right,659.670547906775,730.4334171398077,743.7257259087637,694.182697534794,541.0991431738948,557.0126006930368,690.1123322168132,777.3913525483804
2025-12-12 20:47:08.318588,Right,759.2930082617095,837.4942936415318,849.4172717804322,796.5216948068701,617.5195960259298,641.3579522897489,790.4340837739874,891.0336308713304
2025-12-12 20:47:08.322629,Right,839.5079482740257,924.521929726121,934.4058307327796,879.2628887895262,714.1544319927925,704.0143655787688,868.4093656269833,989.3045745365089
2025-12-12 20:47:08.325611,Right,782.3185173572274,864.3486632307759,871.7586010468658,820.7811494444031,676.6996643369785,654.4561365755508,811.6987095468212,930.2877150828717
2025-12-12 20:47:08.329624,Right,664.2623108590487,737.4332653076854,742.6749799816171,699.1947826244868,548.7012567458441,559.7662170309341,695.810750938952,793.2234937094618
2025-12-12 20:47:08.333643,Right,622.8512417775346,690.9112538127229,694.422218537773,655.2907758484362,498.3220097857993,526.6167380971601,651.3176527784672,739.4075609717984
2025-12-12 20:47:08.337656,Right,678.4178578392603,748.9866046604002,752.2538166993763,710.4273473469075,569.6871759973001,567.9256089737173,699.7729596075369,802.1039461900946
2025-12-12 20:47:08.342659,Right,737.7733669080772,812.7947790166363,818.2032632601913,769.6557219277602,634.635000435519,613.969005391351,756.7385619070847,873.7765026380075
2025-12-12 20:47:08.346680,Right,721.4147661271272,793.6190792984562,801.3120241846191,750.7070080103585,592.8550028578611,603.4238574834308,743.0459379628301,853.4298272704473
2025-12-12 20:47:08.350693,Right,643.9563367676456,704.3762450813083,711.0355908607598,667.4563154571224,503.1541032564128,540.5967517637182,663.878682043287,756.234755628393
2025-12-12 20:47:08.353700,Right,586.4508337839507,636.015805590665,638.899588094675,604.1966017844388,474.540210447507,487.0368538547773,598.3513961210847,684.3391763970722
2025-12-12 20:47:08.357717,Right,606.0549515031744,655.8525832023006,656.1444820321631,622.2933539033402,514.4999763956293,498.3355165681569,613.5120747266337,707.0023017742205
2025-12-12 20:47:08.361718,Right,666.9164729459444,724.2745727944421,724.0261127077974,685.3759231074946,546.6013966068858,552.6478282484459,677.6727423816919,775.8871187978657
2025-12-12 20:47:08.365670,Right,674.627718306845,733.7155077771749,731.585500011337,694.0243520581862,525.6529691779288,564.661227009492,687.2758866294753,779.1467418017564
2025-12-12 20:47:08.369805,Right,598.2020791557152,649.6672454294749,643.1032756409841,615.0450975322165,476.043406024226,499.1815867314581,605.6472783576464,688.3174916032003
2025-12-12 20:47:08.374761,Right,522.5132761892164,568.0213639038848,558.1767188613303,537.3153902849881,441.5450802802807,431.53332096885424,525.8650480952347,605.0678710078355
2025-12-12 20:47:08.378841,Right,533.7620512160938,582.8665738869458,573.2373101866106,550.5713241070043,440.8073990364792,442.8293503995519,540.7604634852614,621.1703776179347
2025-12-12 20:47:08.381773,Right,590.6745527654421,645.1591052162694,635.7946190239163,610.2311502351658,459.33275427261833,494.9888887864072,601.1444310267689,682.688801716431
2025-12-12 20:47:08.385757,Right,583.2292395879049,634.0941358607961,621.3807978444966,601.0562989597674,460.1495144334622,486.5552863901248,588.455465762876,668.1877781278454
2025-12-12 20:47:08.389825,Right,499.5939106956357,540.9798992696451,523.5709436000325,512.4853886126075,419.4022786245914,410.38681729126256,497.3015438322909,570.8888915446587
2025-12-12 20:47:08.393855,Right,442.6897253462812,479.7947227648692,460.62479685328435,452.91012159211095,365.60814053786453,363.1553118592128,440.57621468103025,505.64818080712575
2025-12-12 20:47:08.397845,Right,470.33768698445056,509.91669028869364,491.29667541733943,481.1011035554111,353.84240142290946,392.77075765945483,472.14099646301474,532.7620066789677
2025-12-12 20:47:08.402847,Right,513.8749170957599,554.5940771598835,535.3076299595414,524.4204568446148,386.45179565192666,431.68240065535065,513.6983417160809,577.0434276995948
2025-12-12 20:47:08.406872,Right,494.72754912171513,531.9230848519364,510.7679471959127,502.82601228309795,400.5950180288637,412.93731585424393,489.2428445315454,555.7016411458608
2025-12-12 20:47:08.409851,Right,436.8585526177194,470.81567846180405,449.21566724812146,443.3070532163838,358.14107185113244,365.41118462686427,431.9773792048218,494.22443469718564
2025-12-12 20:47:08.413861,Right,404.38346667424776,437.9362065050518,416.8921939453576,411.51779205771163,301.81363378313836,343.8131007984048,404.0824590859702,458.6692367786309
2025-12-12 20:47:08.417878,Right,396.8717221855186,428.93869292200543,406.68331538618077,404.2840575603768,285.7216874040896,338.1794110579649,395.30974633747246,448.4457221869379
2025-12-12 20:47:08.421901,Right,377.9202736384468,405.6666299336357,380.6336449297378,383.04390558449086,294.8581857299432,315.6676222359529,369.59633498627227,426.9514888570411
2025-12-12 20:47:08.425918,Right,354.9019691343419,379.5397869523149,352.76944120426197,356.90787165111396,282.4043799081119,292.43662455526646,343.8656971339369,401.27254850417376
2025-12-12 20:47:08.430903,Right,354.1180596817285,378.5756709523266,350.9058128485922,354.1442931063939,249.98014955956023,295.07100732263643,345.277398236678,395.86265895259567
2025-12-12 20:47:08.434925,Right,354.7864823988639,377.91970175423194,347.5565645128954,353.1017581517808,233.09972938132705,297.457404594752,344.03114396857563,389.03959302348085
2025-12-12 20:47:08.437930,Right,322.6296446719207,341.7576326461276,307.2935109427199,318.8767275053542,231.81789474654943,265.4332187852124,304.5597502302844,349.8285593606997
2025-12-12 20:47:08.441938,Right,281.6306471891003,298.9644511579536,262.46942326182034,277.58500036469195,217.13600443751784,226.90124713128898,260.45704259129707,306.525561511633
2025-12-12 20:47:08.445949,Right,278.2715695410734,298.42322074074764,262.5988760391483,276.82175592519343,192.00406518694945,226.99132382974494,261.1995083228685,304.61042257444933
2025-12-12 20:47:08.449963,Right,292.88624288490973,314.7298073157435,278.8651512999786,293.716669849935,183.29211305239005,242.0988028497086,277.92956625518855,318.8354750422295
2025-12-12 20:47:08.453994,Right,264.56184511852916,282.0113295520423,243.83164910657797,264.0797546055401,180.73675003135577,214.11765614477918,245.37053945823573,285.76807692530565
2025-12-12 20:47:08.457998,Right,198.27847925852984,209.63231360632926,169.58666381100193,194.73496444977354,149.77378680667607,153.55035823973594,176.89357465540525,214.15519458218478
2025-12-12 20:47:08.463011,Right,166.16733821842354,176.6363574215211,136.99552141560707,161.82120585732628,104.47929489932721,128.94506933557568,149.83039629540872,180.68020028690808
2025-12-12 20:47:08.466015,Right,192.20961821603123,205.8686246770667,166.69829283782747,189.30378931493033,97.35953623260139,155.49312737060245,180.17545569327194,208.97738866275176
2025-12-12 20:47:08.470033,Right,213.55411038990133,228.26623759639915,187.79836433031596,211.07418772927485,126.34561763773672,171.9631617186824,198.29132975754328,231.7787908287719
2025-12-12 20:47:08.474058,Right,181.14643466169946,193.3511726950528,151.7042370805284,177.182295276667,124.95516256702831,140.7333598040277,161.4756760035525,196.1347039283719
2025-12-12 20:47:08.478018,Right,129.5731073790812,139.23773181682918,98.36356177181005,124.4423155214754,69.21287396631669,99.2473377448623,111.70195606071502,136.97431228600908
2025-12-12 20:47:08.482078,Right,111.93283366848482,120.36197487206664,80.53695319185499,106.9734243277926,22.996235568250995,89.06339907692745,97.37803749687737,112.35658194706775
2025-12-12 20:47:08.486097,Right,122.72815121774329,129.5969772731769,89.1973298646044,117.8620906235301,37.467255255323835,96.52998542727437,106.09702273464063,121.86001284094527
2025-12-12 20:47:08.491107,Right,124.43364617385669,129.4615591049078,88.30858053342672,118.90904699120438,69.03095441288315,92.47805338317994,104.66427887120517,126.73941252520308
2025-12-12 20:47:08.494111,Right,105.42367259133607,109.4642822847236,69.16229611611925,99.41697610571282,50.83422797569074,77.26993449073052,88.4658084923285,108.03817695897305
2025-12-12 20:47:08.497137,Right,75.94483766821213,78.54129824222764,39.08254277840024,69.69355916057248,-3.5804331106483005,58.740493195306044,63.406477209879085,71.92842205596389
2025-12-12 20:47:08.502139,Right,45.07406360999448,44.78076537349261,4.25712090882007,38.11681552865775,-29.370706356537994,33.97173090692377,30.61140695778886,33.52533700421918
2025-12-12 20:47:08.506156,Right,28.902257595327683,27.523865959839895,-13.937302232952788,21.679142842593137,-11.692266824247781,15.219134608865716,9.813573584891856,17.565594024723396
2025-12-12 20:47:08.510174,Right,41.10934577131411,42.59406078455504,2.945981308934279,35.00562024716055,2.95822338166181,23.40250573301455,23.29824985965388,35.56337797723245
2025-12-12 20:47:08.514189,Right,55.45301460340852,58.311384496395476,21.21851698833052,49.40502145071514,-16.615206165297423,38.4144103526487,41.869384245132096,49.531630881130695
2025-12-12 20:47:08.517199,Right,25.757378054782748,22.36592728085816,-14.930998335767072,15.390985765960068,-51.97017760007293,12.774816216493491,9.833287917484995,8.603549112507608
2025-12-12 20:47:08.521205,Right,-36.13998353452189,-48.85801244090544,-87.66980489494745,-53.36498095130082,-75.66122168398579,-45.49318107418367,-59.091798635956366,-65.22579614340793
2025-12-12 20:47:08.525229,Right,-58.82965658989269,-73.55166494677542,-110.89755359478295,-79.56946192932082,-81.98967798834201,-66.7063570728642,-82.56312922399957,-89.34279856819194
2025-12-12 20:47:08.530229,Right,-20.130884747894015,-29.264186478045303,-62.39295706822304,-39.09922662313329,-76.6664595346956,-28.173708954796894,-37.474898128421046,-44.740821887913626
2025-12-12 20:47:08.534226,Right,3.9740076650632545,-2.8031970462179743,-33.32340602163458,-12.386344671511324,-72.13787233730545,-3.0081467187555972,-10.229933843103936,-19.394880138803273
2025-12-12 20:47:08.538262,Right,-47.74259837844875,-60.204044714424526,-90.76557519976632,-64.23742474007304,-88.40181816610857,-48.99732330281404,-65.00158675122657,-77.78199628629955
2025-12-12 20:47:08.542273,Right,-117.88429808765068,-135.3324455023394,-164.94467025389895,-134.76859500224236,-124.39981034884113,-110.74320300883846,-135.20070618009777,-153.5077540272905
2025-12-12 20:47:08.545295,Right,-115.42996114335256,-129.52052298138733,-155.5498284152709,-129.64458426900092,-141.63915156199073,-105.15309693713789,-126.15241742922808,-148.5406075718638
2025-12-12 20:47:08.549226,Right,-62.03890620844322,-70.34572883567307,-93.22285374201601,-72.8409953507653,-116.99456836697937,-56.500964714126894,-68.44400369087816,-89.26171920757042
2025-12-12 20:47:08.553294,Right,-58.42015069720219,-68.04519074683776,-90.47540310560726,-69.51748022000538,-92.92355953768129,-55.97206745465519,-67.79351125555695,-85.09938202169724
2025-12-12 20:47:08.558302,Right,-122.83016305670026,-139.19115580938524,-161.69608787610196,-137.15255576148047,-121.24966149764077,-112.87039083409763,-134.37542272577411,-155.0302989804768
2025-12-12 20:47:08.562318,Right,-167.86733046121662,-187.78668261694838,-208.47784285707166,-183.75582623499213,-174.73396389439586,-146.2557542049908,-174.669233976776,-204.58786478315596
2025-12-12 20:47:08.566270,Right,-145.95768718882755,-164.52536219458852,-182.97377627879905,-160.6269663612038,-181.7455052098303,-121.81230325013166,-147.96858210298524,-181.15435306327709
2025-12-12 20:47:08.570432,Right,-116.9132168731594,-134.51036874724377,-152.3999480661587,-130.48590993239486,-141.89054682791902,-98.80226126943307,-120.64842628352926,-147.16670091098058
2025-12-12 20:47:08.573337,Right,-141.33353533019545,-160.41436985894688,-178.26762242018594,-155.09152705465385,-131.57539581233505,-124.12880858551944,-147.3643610105355,-169.52044177737844
2025-12-12 20:47:08.577411,Right,-191.46410275452945,-211.65312746173004,-228.21720677402482,-204.90120391037635,-182.01048022502073,-165.01165699656121,-193.60790182021447,-223.10519371517876
2025-12-12 20:47:08.581376,Right,-210.2705364741414,-230.27748098810116,-245.36392052200245,-222.49560984368873,-227.33605404967423,-175.98515041147039,-207.8135587211582,-247.19406386237097
2025-12-12 20:47:08.585398,Right,-195.6669841934272,-216.05047678406117,-230.7912356127781,-207.67818190668186,-208.94006608759082,-164.60486810247312,-195.26226789799694,-233.9749914948261
2025-12-12 20:47:08.590403,Right,-181.12933674944725,-202.1299784550356,-216.11785364537718,-194.34088706310285,-164.96673381839355,-157.585298435406,-184.86630696965767,-216.376387883387
2025-12-12 20:47:08.594422,Right,-179.163500207188,-199.46844846640124,-210.8562627857409,-193.3040171387638,-163.563776264833,-156.1567539157295,-181.58923649872668,-213.1525847242874
2025-12-12 20:47:08.598434,Right,-185.4810975322889,-205.51610546404117,-214.53438278808244,-199.82355292546345,-198.43301203661395,-157.05150064577538,-185.0941984160636,-225.01107372132174
2025-12-12 20:47:08.601437,Right,-202.41262931799793,-224.75509265849905,-233.8805144175858,-217.30595255515072,-213.58825442997477,-171.27099775629904,-205.37454401673313,-250.0626577630901
2025-12-12 20:47:08.605450,Right,-222.08344547663728,-246.1808562791848,-255.8728369473538,-237.3273143084516,-197.69667831072002,-192.56947294097336,-230.41736645931815,-271.7650998819663
2025-12-12 20:47:08.609469,Right,-220.7236138322187,-241.7863883766986,-249.30182523337135,-234.2484788051952,-188.13490948735853,-191.6275185821287,-226.98766550702567,-265.33696345723
2025-12-12 20:47:08.613502,Right,-201.72072011647106,-218.06452831263596,-221.7922656151204,-212.23040706182655,-199.7499249838147,-169.69940528823645,-201.09176907750953,-242.35632676458044
2025-12-12 20:47:08.617563,Right,-206.25723433987878,-223.04573027764854,-224.79999321223295,-215.6782585305773,-211.2891046393197,-171.02161862845242,-204.7645672900835,-249.4871915065596
2025-12-12 20:47:08.622556,Right,-246.6352492171718,-268.0156292695465,-269.3493267098238,-257.3936459841643,-214.20050482121587,-209.4540509256185,-250.5513116325601,-294.2992892479524
2025-12-12 20:47:08.626564,Right,-271.91329889636836,-294.0084523244004,-293.44644300371874,-283.29525778275274,-219.94523431459675,-233.41896378323145,-277.46801433048677,-319.2103256089031
2025-12-12 20:47:08.629580,Right,-245.41866000294976,-262.91098434480955,-259.0931074669352,-255.79172364270198,-224.63379723316757,-207.6528500851855,-247.3140330336173,-289.7223881500249
2025-12-12 20:47:08.633542,Right,-213.21507478051353,-229.06188944072346,-223.60430819072644,-224.45305883747642,-216.68230693647638,-179.28259231477568,-215.59473120624898,-258.96695950065623
2025-12-12 20:47:08.637506,Right,-235.15053661781712,-256.71959250356304,-251.03536330733914,-250.80456962480093,-212.46421972100507,-204.1273355342273,-244.17443987628212,-287.0215575277107
2025-12-12 20:47:08.641568,Right,-285.8014872504282,-313.7206630666333,-305.6037960044341,-305.329704509757,-235.07545329694403,-252.61177426209906,-297.488608926069,-341.37838114093756
2025-12-12 20:47:08.645584,Right,-297.04026767029427,-325.21732396798325,-312.0166656955553,-315.7936032851285,-265.2471883255057,-259.96082062105415,-303.2116606635682,-350.21926498934045
2025-12-12 20:47:08.650637,Right,-270.7220242130861,-296.3165513278509,-279.5535200506565,-285.8915769707528,-264.1587279335654,-233.856914138305,-272.35516773417476,-319.4416608494357
2025-12-12 20:47:08.654619,Right,-267.6197313084558,-293.59605968670803,-276.8730968205782,-280.6065871717874,-239.97585449009784,-232.8265951051726,-271.2890374150593,-314.29757499383413
2025-12-12 20:47:08.657623,Right,-299.36756506343954,-327.09552672092104,-310.8360949738999,-311.74385222178535,-238.03256859030807,-261.4885140976985,-304.08684231649386,-345.75787700456567
2025-12-12 20:47:08.661601,Right,-315.4522010353976,-342.0667795983027,-323.978256685863,-326.38622933774604,-264.0740171993384,-270.29177027064725,-314.67665800158284,-361.0414829919464
2025-12-12 20:47:08.665662,Right,-298.380158584303,-322.907552901248,-302.697599460982,-307.4772309101245,-274.8183821114071,-250.25494422775228,-293.0753310811706,-342.9052525810548
2025-12-12 20:47:08.669683,Right,-290.96417546260636,-316.61002454557456,-296.43120655498933,-300.2800440301071,-255.1649809180817,-246.36665125461877,-289.0406035509077,-335.31865882256534
2025-12-12 20:47:08.673688,Right,-313.4803609228693,-341.5431126866606,-322.1299082649057,-324.5978551331791,-244.62304133575526,-271.3104805802868,-316.406107336632,-358.34944696741877
2025-12-12 20:47:08.678633,Right,-328.35250201507006,-355.5459261567448,-335.6765659264056,-340.07235348172253,-265.3118537453702,-283.11373211222235,-329.63988275668817,-374.068826980365
2025-12-12 20:47:08.682711,Right,-313.44064526387956,-338.1055485710385,-318.0482821263722,-324.71002007607603,-282.25581736752065,-265.1967770815827,-311.75273128348636,-360.9316571682575
2025-12-12 20:47:08.685721,Right,-302.2454324027058,-327.95846627641004,-309.72494404233294,-315.0115325812367,-267.13639363413677,-256.04756173392525,-304.7044628263102,-352.18628699844703
2025-12-12 20:47:08.689738,Right,-317.4489630032913,-347.07731355761643,-330.5191008960828,-333.79487140785204,-248.1203587583732,-274.35720916098217,-326.9277534476714,-368.6147475949838
2025-12-12 20:47:08.693756,Right,-326.71875605126843,-357.670835931669,-339.86101587256417,-345.08684595598606,-256.3311955771642,-282.92497263726545,-336.6094194010948,-377.151417645975
2025-12-12 20:47:08.697751,Right,-305.74616675445577,-334.7945459978655,-314.4931005713879,-322.96157531632343,-270.2646043492714,-260.30069916998036,-311.66205798718147,-355.53003921575146
2025-12-12 20:47:08.701723,Right,-288.8488644635654,-317.2130049171974,-296.71074950904585,-304.30242355301743,-260.0166665461729,-244.83128069725353,-295.47960748977493,-339.69838835601695
2025-12-12 20:47:08.705787,Right,-307.73552545683924,-337.1723605818697,-318.2904446911416,-322.45827476889826,-244.88801241386682,-265.22572336910525,-318.610688383691,-359.6815817144234
2025-12-12 20:47:08.709830,Right,-330.0877474329318,-358.0377591783181,-339.57175539893797,-343.1543615045375,-254.81140015897108,-285.24918043089565,-340.0847514841589,-380.8727989998297
2025-12-12 20:47:08.712806,Right,-315.6402194800903,-339.4343795957975,-320.46892870310694,-325.2738960375427,-270.4668871011818,-268.138325030508,-320.69247541978257,-364.20707296277396
2025-12-12 20:47:08.716835,Right,-289.6096191792749,-312.2890208194731,-294.80221382313175,-297.0402704728767,-258.2717683959636,-243.94226210867055,-295.1808512407588,-337.88145317020826
2025-12-12 20:47:08.721787,Right,-297.4760137264966,-323.86663805221906,-309.49364304268965,-305.8378518745885,-235.69820619904203,-254.8012213119655,-309.17718005465576,-347.426454487897
2025-12-12 20:47:08.725857,Right,-323.4314120716299,-352.9487858231296,-340.0041764941416,-333.2152501362725,-242.16865759139182,-278.87207204662263,-336.9053366170847,-374.6614077401464
2025-12-12 20:47:08.729877,Right,-321.6825359306531,-350.5402967433329,-337.0931639203336,-330.83783717796905,-266.7515738757211,-272.794130766124,-330.7019653651514,-373.13318783807335
2025-12-12 20:47:08.733896,Right,-300.3935202877037,-328.6376438520965,-316.08892362890765,-308.5931895003305,-266.85056522872765,-251.70176808029646,-308.08223310363246,-351.88951080013067
2025-12-12 20:47:08.737882,Right,-303.07004622084787,-333.51854274224024,-324.24409466650104,-312.2586301827687,-245.11106120498152,-258.1398857088643,-315.4061215448892,-353.883228432911
2025-12-12 20:47:08.740906,Right,-325.99526890408015,-357.8829485947499,-351.64149413310224,-336.64949996588985,-243.80981887318194,-281.1815024797106,-340.1780249570729,-374.76434905221686
2025-12-12 20:47:08.744914,Right,-326.9120944865281,-356.7410872991313,-352.5458178262925,-337.2846859539859,-267.134311113914,-277.90101047838107,-336.63551973801805,-374.3637709156028
2025-12-12 20:47:08.749918,Right,-304.43123564193957,-332.27647984208306,-331.75985451985616,-313.9931001746445,-273.0640943843755,-253.63334667141316,-311.9542196987313,-353.18205691868206
2025-12-12 20:47:08.753930,Right,-297.03905331349233,-326.1028048086446,-331.4498668181477,-307.5100361739751,-248.46639301633695,-249.1018342707539,-309.25497730623465,-347.44678925233893
2025-12-12 20:47:08.757949,Right,-308.9711832702742,-339.40544221247546,-349.2097406143439,-321.35792485659476,-231.6566810940276,-263.2860655281693,-325.0297888168716,-358.40958852285985
2025-12-12 20:47:08.761962,Right,-307.55125228100223,-336.5994860554929,-347.166743304173,-321.01255739858607,-245.30442327843048,-260.72073619510047,-321.15881468425505,-355.1480336840614
2025-12-12 20:47:08.764974,Right,-292.73221307079075,-320.8557434163522,-330.69949356425786,-306.91892864374677,-261.70973156625405,-244.96086290152743,-304.33935587183805,-341.2568156677298
2025-12-12 20:47:08.768993,Right,-299.07012614409905,-329.8470177662675,-339.5059937371989,-314.73268429440213,-256.4380657476722,-252.50403358257608,-314.86181760096224,-349.91880903043784
2025-12-12 20:47:08.772945,Right,-323.20205913076643,-356.37814117537346,-364.68026241799816,-339.5230758584803,-246.5952575931442,-276.67233707546256,-342.9317870824598,-372.88391726033296
2025-12-12 20:47:08.777015,Right,-319.53291014314163,-350.23382961115567,-354.8074977369397,-333.63685477286344,-248.83142988430336,-270.6389480265789,-336.34792992373696,-364.41489749011816
2025-12-12 20:47:08.782040,Right,-283.69110349734547,-310.41983394959243,-311.8171113959979,-294.4853261647513,-246.2957428584341,-234.08591659995727,-296.7435162155889,-325.810161376663
2025-12-12 20:47:08.786058,Right,-270.2356670066947,-297.77039307076484,-298.9783084670198,-280.36996820761124,-228.84635821462143,-223.18402510264423,-286.52948306303006,-314.5378001653007
2025-12-12 20:47:08.789996,Right,-299.83770300721517,-331.1135179668199,-332.34083059517434,-311.76552190759685,-221.20041393843712,-254.2190855833469,-321.1262300484814,-346.7233043608139
2025-12-12 20:47:08.793058,Right,-318.93756786122685,-349.6591760017327,-347.41854294756195,-331.1655572319287,-236.32101956492988,-271.4780056482414,-337.44042435707524,-363.39208128041355
2025-12-12 20:47:08.797082,Right,-291.2854571319767,-316.9078408703208,-309.3649394441745,-300.96634531149175,-243.75406938156812,-243.1687184748007,-302.46741162391845,-329.5986359269591
2025-12-12 20:47:08.801085,Right,-261.48278407676844,-284.5724937939667,-274.2028664390673,-268.6961271475884,-222.07899220922263,-216.3305041634594,-271.01769056229386,-295.3809676745441
2025-12-12 20:47:08.806106,Right,-276.0662684320705,-301.5711876733112,-291.03613981819944,-282.5460442468757,-201.62757958564907,-232.33204145811033,-288.80513844575034,-309.2268386761425
2025-12-12 20:47:08.810125,Right,-302.63566086115316,-330.044047752046,-318.9093912951648,-307.97193125489866,-212.1191868193564,-255.15761623345315,-314.2783371001715,-336.2612488939194
2025-12-12 20:47:08.814161,Right,-288.7397943160031,-314.6232062118943,-302.1090991710662,-291.28776534239296,-225.95172667742008,-238.0358849185286,-295.1405337250908,-322.17393042426556
2025-12-12 20:47:08.818163,Right,-251.28165616147453,-276.3291070999112,-264.04876154783415,-251.78260899073211,-204.02399884659098,-203.8111252008821,-257.17202652123524,-284.4172248025425
2025-12-12 20:47:08.821116,Right,-240.73537186841713,-268.2984042466269,-257.5799971498782,-241.60816125798738,-166.69653526385082,-198.36049915093463,-251.25521685549757,-273.81987965793815
2025-12-12 20:47:08.825126,Right,-253.58662380033638,-283.36267579183914,-272.37940306431847,-255.07855936221313,-161.43050990626216,-210.12222779769218,-264.7851710227551,-286.28619630169123
2025-12-12 20:47:08.829194,Right,-248.62089003814617,-277.51332440576516,-263.99881667550653,-248.83813951245975,-181.12629288609605,-199.84422471007565,-255.13988001231337,-280.8150991302682
2025-12-12 20:47:08.833215,Right,-225.8721728134551,-253.86487658281112,-238.63872627425008,-224.5151546455454,-178.05730819737073,-176.09000362927327,-231.67172155418666,-258.02257305703824
2025-12-12 20:47:08.838236,Right,-220.984022905468,-250.69352546113078,-235.65334479755256,-219.99639524234226,-148.73734328884166,-175.2964511248283,-233.08545771928038,-252.9370919102803
2025-12-12 20:47:08.842233,Right,-233.58724614960374,-264.6955392268719,-249.28719252796145,-233.83399312442634,-137.70582291996107,-189.6791076483205,-250.30005667899968,-264.8002751506865
2025-12-12 20:47:08.846264,Right,-228.69625610962976,-258.31237741583027,-240.97605718963314,-228.8655583371292,-155.84463072393555,-181.70938804245088,-243.78339332225733,-260.0948055666522
2025-12-12 20:47:08.849279,Right,-205.4421597767505,-233.75778792682104,-215.16914022777928,-204.76669457776006,-162.24980327452067,-155.96016014640918,-219.80239259492373,-238.6220849789679
2025-12-12 20:47:08.853294,Right,-198.13599919935223,-228.0262944737915,-209.752173654153,-197.3504229047685,-138.78796834876994,-149.3045225474052,-216.83935068442952,-231.79044980258914
2025-12-12 20:47:08.857301,Right,-208.2191247754381,-238.92673102364643,-220.15139760595048,-206.95557032589568,-119.62620798702119,-158.98576378816506,-228.79465730575612,-238.03519645216875
2025-12-12 20:47:08.861328,Right,-201.88628910441184,-229.02624464803375,-207.89745372335892,-198.063602581562,-127.49706849170616,-149.42184693960007,-216.69434579252265,-225.7239758273936
2025-12-12 20:47:08.865316,Right,-179.65840970218414,-202.5650059352629,-179.97441327932756,-172.9664619328105,-137.5232206923538,-125.60943535069237,-188.90225774614373,-200.5679986345931
2025-12-12 20:47:08.870332,Right,-179.59695071319584,-202.77274125127587,-181.3671281632851,-172.93606311822077,-128.67066244542366,-128.0108196256915,-191.16839796723798,-201.67460018821293
2025-12-12 20:47:08.874350,Right,-201.94595625100192,-227.3356980913668,-207.0704382234253,-197.56715670379344,-120.00459244009107,-153.09634163975716,-218.07792074239114,-225.16448945231969
2025-12-12 20:47:08.877352,Right,-201.09904943057336,-224.77205165458145,-203.03725240880158,-197.841099908459,-127.63379029236967,-152.88739808328683,-215.9666100082104,-222.83453355182428
2025-12-12 20:47:08.881363,Right,-168.79991358797997,-187.9894055480254,-164.3766679285327,-165.14049169281498,-131.6108634826378,-122.42690239252988,-180.8408285366022,-188.89310447935713
2025-12-12 20:47:08.885310,Right,-154.56659404258244,-172.21127124712802,-149.52209117863094,-151.6861527985311,-117.3505174999591,-112.9566044069361,-170.04104680969613,-175.3558267034241
2025-12-12 20:47:08.889369,Right,-178.5840653006453,-197.4147846105625,-177.27735439391108,-177.9205369707197,-108.43908625474432,-140.50289756199345,-199.71799958962947,-200.6010370849981
2025-12-12 20:47:08.893426,Right,-192.99274198355852,-210.53170069272164,-191.44008010812104,-193.10275083198212,-122.5976744547952,-154.8705678091501,-213.21639644826064,-214.2070675138384
2025-12-12 20:47:08.898421,Right,-165.2263229591772,-178.86785792506998,-159.43582446477376,-163.7829587860615,-133.3419657619088,-127.92676127405139,-180.58120818220777,-184.43110441416502
2025-12-12 20:47:08.901416,Right,-136.2883368228795,-148.68333749193698,-129.54489245754667,-133.50933608302148,-116.21551496704342,-103.58817213115981,-151.58138821058674,-154.0311291902326
2025-12-12 20:47:08.904440,Right,-148.84173708828166,-163.3253459437983,-144.44555384549312,-146.25200941372896,-97.2250920124352,-119.65460454340791,-167.0358804029529,-164.83207997347927
2025-12-12 20:47:08.909433,Right,-172.905255016929,-187.2577446673531,-166.36204351246124,-169.9629151270492,-108.33827962761279,-142.12158832029672,-187.96185431652702,-185.4263707625796
2025-12-12 20:47:08.913400,Right,-160.6050298626069,-170.6486608303967,-146.40504672919633,-155.49179102340713,-127.05163700622506,-128.24616954283556,-167.7973867758992,-169.17784779088106
2025-12-12 20:47:08.917451,Right,-128.76895136543317,-135.26823209261056,-109.67127022554632,-121.80018993822159,-113.23081723577343,-100.9562116144225,-133.56642054743133,-135.0267150030122
2025-12-12 20:47:08.921489,Right,-122.53376811218914,-128.98519641294843,-104.32496633322444,-115.68121655465802,-80.08029710489791,-101.49679921212373,-131.22194144659443,-127.65567770332564
2025-12-12 20:47:08.925566,Right,-133.01828946726164,-138.8775390998344,-114.58593664236832,-126.33607496571494,-70.8400489249616,-113.20192575769033,-141.85638392344117,-136.39870505826548
2025-12-12 20:47:08.929563,Right,-120.72683358727954,-122.76187305839267,-97.72610656969482,-112.43831070401939,-83.54974252474494,-97.75401416380191,-123.29282440256793,-122.06649390328676
2025-12-12 20:47:08.932543,Right,-94.60608635208337,-93.4347504027537,-69.0718975791824,-84.67682103876723,-79.88172638963442,-71.43539804394823,-93.55486410600133,-95.08279037993634
2025-12-12 20:47:08.936574,Right,-95.24557251733495,-94.44492480455665,-72.40488475665916,-85.56506989442278,-58.03007656423142,-75.42683344503166,-96.8323545375606,-95.23089496762259
2025-12-12 20:47:08.941540,Right,-115.94655142346164,-115.58187153592007,-94.27355738554616,-106.78598152601626,-54.04572194427601,-97.04114352579927,-118.08921660424676,-113.85449682245962
2025-12-12 20:47:08.945571,Right,-113.58037772454554,-110.6319100917317,-87.37877793161897,-103.17424330709036,-72.20391505415319,-92.46057971019763,-110.16933953872649,-108.8208349472261
2025-12-12 20:47:08.949585,Right,-89.75718271674123,-84.53820784157142,-59.861318252806086,-77.87726949970238,-76.02924868982518,-69.01884675276233,-82.91552156279795,-84.59298563090852
2025-12-12 20:47:08.953599,Right,-87.74948511528783,-83.81947565329028,-60.11505956295878,-76.40647885296494,-55.57643321758951,-70.97972664632834,-84.46883766405517,-84.04796563310083
2025-12-12 20:47:08.957553,Right,-109.44844833790557,-106.88177419692511,-83.78166678186972,-99.12494854239048,-44.31064980660449,-94.40969138371293,-108.41773093666416,-105.5679041587282
2025-12-12 20:47:08.960647,Right,-109.33444049378159,-104.23318006581394,-79.04412448365474,-97.7894680062891,-55.12137499588425,-92.00676952005597,-102.73333841265412,-102.77231285144808
2025-12-12 20:47:08.964641,Right,-78.52671622688649,-70.26925249677151,-42.64862246211851,-64.69930936180754,-56.21432024054229,-60.53446171974065,-66.01919551985338,-69.97721621982055
2025-12-12 20:47:08.969682,Right,-62.524202035041526,-55.22404063481372,-27.632289963483345,-48.34492653305642,-32.083638403506484,-47.933046802994795,-51.611303324694745,-54.26128583488753
2025-12-12 20:47:08.973658,Right,-78.38418820116203,-73.33124074432999,-46.84337335283635,-65.12273669592105,-14.601420258375583,-65.86109173501609,-70.49445590132382,-70.18629522906849
2025-12-12 20:47:08.977706,Right,-83.78449973854003,-76.74815667740768,-50.12853956199251,-69.92388085403945,-24.486908766819397,-69.1461303421238,-72.13465176196769,-74.03632958244998
2025-12-12 20:47:08.981688,Right,-55.709626769588795,-44.351470464724116,-17.60047516663326,-40.31754662684398,-32.45989060602733,-40.28377803211333,-38.808952363266144,-45.24532372987596
2025-12-12 20:47:08.984700,Right,-32.888372536574025,-20.90902827848913,3.9824995535309426,-18.17273438425036,-13.660639012581669,-21.96988515238627,-18.323840188677423,-24.09297570527997
2025-12-12 20:47:08.988660,Right,-43.88097789481981,-34.58486706513213,-11.762049548036885,-32.15535707602976,5.703504421951948,-37.82295665223501,-35.19183148519369,-36.627638303500134
2025-12-12 20:47:08.992738,Right,-56.73708521423396,-47.809008714801166,-24.23881339505897,-46.867368316918146,-3.88299712294247,-50.51872604712844,-47.3764524202561,-48.23044045845745
2025-12-12 20:47:08.996700,Right,-42.15456301573431,-30.560647728445474,-4.294521243835334,-31.36113883246435,-21.319638327986468,-33.7107828820881,-27.224117014207877,-30.516914229898248
2025-12-12 20:47:09.001767,Right,-27.78726853732951,-15.134895763651002,12.701659042271785,-15.555367393186316,-13.575072695646668,-20.14220749877859,-11.896948338020593,-13.331196282699239
2025-12-12 20:47:09.005766,Right,-42.06566406841739,-30.768797231954522,-2.4293375610141084,-29.80702692869818,5.345878039981471,-36.59465385458316,-29.827857651631348,-25.396001030749176
2025-12-12 20:47:09.009733,Right,-55.66720065160189,-43.88286887074355,-13.819293458014727,-43.74357145576505,3.833059175434755,-49.94128294647089,-43.55643462148146,-37.31067989056464
2025-12-12 20:47:09.012792,Right,-33.42388590198243,-18.779630834353156,13.560572451387998,-21.453467695071595,-6.40895534309675,-27.250143297715113,-18.00269593441044,-15.411890945513733
2025-12-12 20:47:09.016744,Right,-1.3488197192491498,13.599851044418756,45.71729691271321,9.314062740915688,6.823250550281955,1.569033634121297,12.638972899643704,13.773653031617869
2025-12-12 20:47:09.020801,Right,-1.2683941381401382,10.216745956684463,39.677920340735,6.1009308744978625,33.64063917516614,-2.5508258078771178,6.561128642701078,11.221047284256201
2025-12-12 20:47:09.024808,Right,-15.402092786331195,-5.763066186045762,22.010829095292138,-10.491268947109347,38.60105826414656,-16.712704890727764,-9.122138316859491,-2.596287831751397
2025-12-12 20:47:09.029764,Right,-2.166574596922146,9.813151381444186,37.86008574717562,3.135065154870972,25.149918307259213,-1.3614259563037194,8.707807507918915,12.195891056326218
2025-12-12 20:47:09.033835,Right,24.263956928247353,37.95922477316344,65.40870196392643,30.35400469668093,27.58940647628333,23.085475545492955,36.00732250942383,37.504637577018
2025-12-12 20:47:09.037789,Right,20.81511466106167,32.281043420371134,57.07431324553909,25.18122661259258,46.97368571041443,13.73985626923968,25.965896395471646,30.091780383925652
2025-12-12 20:47:09.040810,Right,-1.5929044049989898,7.989158830285305,30.833154560619732,0.1831247584486846,51.05044421333878,-12.235522745351773,-0.9908757785742637,5.072768494719639
2025-12-12 20:47:09.044862,Right,3.8974568357225507,15.943708553764736,39.2542204799538,5.513701481017051,36.63090010192536,-6.090803648869041,8.238233233656501,12.007142411370296
2025-12-12 20:47:09.048878,Right,32.31989491797867,47.526065092592034,71.42052140834858,35.648280242981855,35.37395350768929,23.23070879711304,41.57763820330729,44.137286358571146
2025-12-12 20:47:09.052897,Right,33.61544653685996,48.0166647923179,70.73198232855066,37.69676485157106,52.103491636618855,24.876877575094113,42.596456964471145,48.902173744892934
2025-12-12 20:47:09.057877,Right,4.301682696095668,16.464342304650927,37.91276364060468,7.990278391022002,53.81408767560788,-1.0666989662277047,13.179274134279694,22.404107836075127
2025-12-12 20:47:09.061899,Right,-3.981133442634018,9.174143832118716,30.4851605866279,-0.1960013123753015,32.88894649282156,-4.218240953050554,9.837671926914481,15.806513952440582
2025-12-12 20:47:09.065899,Right,24.851943842717446,40.57551272271667,60.65386043812032,28.61734790590708,26.126280219454202,24.613851929228986,41.89905113802524,43.740160690795165
2025-12-12 20:47:09.068910,Right,45.44233472010819,60.891478128382005,77.1212169015489,47.198714334343094,49.53514698083745,38.723086389290984,57.415553970000474,61.178107856045244
2025-12-12 20:47:09.072919,Right,34.04200691982987,47.585339396842755,59.911022691754624,32.930771993123926,67.37160152859724,21.9044475491537,39.160951461526565,47.04692651986261
2025-12-12 20:47:09.076912,Right,27.82086848828476,42.054308779508574,53.000380773388315,26.220226900768466,55.46533616910892,16.17097265017219,33.30951927069691,39.95723181185895
2025-12-12 20:47:09.080951,Right,52.01265953684924,68.27118993118347,78.7677864862344,52.4573637839203,44.514354241866386,42.034495024519856,61.32840689057775,63.89087499171728
2025-12-12 20:47:09.084941,Right,73.34898860556132,88.22608825600764,96.69458865842898,75.1854903614585,63.646728524632636,61.34467625009711,81.4220426796528,84.84610458201496
2025-12-12 20:47:09.089960,Right,64.17191475405707,74.9710639827972,81.02122592054366,65.40447411418427,87.2489537372021,49.67163569566037,68.46384839595703,76.40251200730563
2025-12-12 20:47:09.092977,Right,52.947024462439,62.10687950173451,67.73711954943428,53.54921612761973,81.17706746339536,39.51249716921302,58.5635397874139,66.98092294705566
2025-12-12 20:47:09.096963,Right,67.05155020978418,77.40888214051665,83.27086126091308,68.03738647668797,62.5452363327131,54.729021124134306,76.23109407919401,81.42256471198925
2025-12-12 20:47:09.100982,Right,79.52444758939964,89.38752196032146,93.04687466342875,80.48644571530167,65.44504177020644,63.86010975835961,86.25242031700327,91.94372329876933
2025-12-12 20:47:09.105009,Right,62.386423585776356,69.71324991903384,69.49042989239388,62.9118270551553,79.39892556780978,42.61234153676196,63.64445171940315,73.72041943854128
2025-12-12 20:47:09.108963,Right,44.84114825516008,52.51153414408327,50.17597666953225,47.046969415576314,73.88009558005797,26.26529325066076,47.94097790392698,58.458739040928776
2025-12-12 20:47:09.113035,Right,62.585055532093975,74.21447338986036,71.74595549017977,68.85097291458806,58.74473694995686,48.41130171702389,73.87612948965398,79.43387655352126
2025-12-12 20:47:09.118053,Right,89.98381005233387,103.4159164949815,99.81942733960022,98.71924512537953,65.08574438574396,76.94415820935683,104.28434533754626,107.1432063793618
2025-12-12 20:47:09.121046,Right,83.96641435183847,94.63428970071982,88.42051095903298,90.87737878143525,84.14121752252504,68.68606736887159,93.32874135718885,98.72478496468102
2025-12-12 20:47:09.125063,Right,61.80240728185163,70.25519378046738,62.607760891078215,65.08205679441016,82.043157019716,45.328907094779424,67.60430877833278,74.16934574484185
2025-12-12 20:47:09.129070,Right,69.13095366726338,79.18795452172344,71.76407547327835,70.13321840280696,63.788438193996626,51.93935154274368,76.44303107092855,79.2568993928071
2025-12-12 20:47:09.133091,Right,97.50180821197864,108.74860666630411,100.42240992667212,96.66936500017619,65.67970343496563,76.00074292124191,103.87713305653597,104.03234493560012
2025-12-12 20:47:09.137116,Right,103.46961121482309,112.02424707651517,101.14138239187014,99.51829778422689,89.13469260794955,75.7592662020761,103.75236782858337,106.6203199491647
2025-12-12 20:47:09.141125,Right,90.12223596551121,95.86977375638162,84.02286619014922,83.5700794745353,98.16522145113049,60.35009076119604,87.65961346959375,93.49320111000998
2025-12-12 20:47:09.146140,Right,97.37879782614982,104.07514478059966,94.00853208785338,91.11396840916495,84.61704022991398,69.8373888485512,99.55900941570508,104.0877245729971
2025-12-12 20:47:09.149081,Right,121.64533688550728,130.0977376140836,121.15748064008767,117.1127438053154,80.31227524490896,94.88316454187225,127.39691903457606,130.8068248808122
2025-12-12 20:47:09.152101,Right,118.57401973477681,125.97673203357408,115.34644895635029,114.55290588129537,95.02651622505073,90.17341008458607,121.07598845531538,127.84866893823346
2025-12-12 20:47:09.157165,Right,86.7705212837327,93.36728316584686,80.91265395980099,82.80352338742159,98.09255395091532,59.49791414267747,86.50267907223025,96.11951687150759
2025-12-12 20:47:09.161262,Right,76.42236909726898,86.49556658137324,74.64724200676119,74.22434425545089,78.9350714837783,53.67387518494161,80.28821948591758,86.7167390911759
2025-12-12 20:47:09.165195,Right,102.09224968158924,116.50753924858418,105.86543913508649,102.11209098748694,70.7500594771991,81.04988650554196,110.26851064766561,112.0924260737354
2025-12-12 20:47:09.169290,Right,117.05250446235186,130.7977558273251,119.70686558244779,116.71397040979173,89.21276751651749,93.11905570503859,122.38860384253348,125.08773942602966
2025-12-12 20:47:09.173236,Right,97.01281249711064,106.86544306905307,95.32051676788433,94.45145717526975,100.70915290312405,72.18692988007388,98.56489824570235,104.42608885189475
2025-12-12 20:47:09.177241,Right,81.39827783079818,90.5256893693113,80.5747623270945,78.37844043106634,82.87100499054213,61.211478567398444,87.02372696530074,91.1017299919622
2025-12-12 20:47:09.180260,Right,98.93303325402303,110.70763605165848,102.42383152931507,97.84314113418077,66.86392766815698,83.0826999273977,111.66283449118782,111.29226382487468
2025-12-12 20:47:09.185272,Right,116.92373682823018,129.49794052469952,120.31637440783379,117.3237089352333,81.97770315581147,100.18511633477465,129.78052595329063,130.0394878828556
2025-12-12 20:47:09.189218,Right,106.21329279317433,117.09567851018073,106.18476866937635,106.82381573199018,103.68683481078915,87.63740283914012,114.77985396916483,119.67445718844101
2025-12-12 20:47:09.193277,Right,95.8810748528631,106.94195472115825,96.73214499306778,97.54694644622214,99.40188599441899,79.76065947006282,105.37521358798404,111.03960403433302
2025-12-12 20:47:09.197312,Right,114.34817870823463,127.73436142762512,119.71241801625001,118.04347326995776,85.74122016693582,101.96588727143535,128.59077944505407,130.90869269059476
2025-12-12 20:47:09.201355,Right,131.70651020826335,145.0842399324756,137.3094085986304,135.63267268689378,93.44199881832174,119.36736557524273,145.23361490118987,147.31570390615525
2025-12-12 20:47:09.204355,Right,114.75599926886207,125.46469969615282,115.99667431889247,116.58753460161824,108.61999315563298,101.01093166288047,122.97853759391728,128.60907398275594
2025-12-12 20:47:09.208327,Right,90.75988194383535,101.05792054643825,90.83422973093548,91.2766573273766,99.96771116893797,78.45022069210245,98.8169531128733,104.62953753857437
2025-12-12 20:47:09.212369,Right,98.03833310617483,111.25443178776186,101.41649550716102,99.58527155451884,78.94435965768935,87.41564832044241,111.46904411558353,112.9614972672207
2025-12-12 20:47:09.217358,Right,114.65064083477773,129.2285249016859,118.32421389649971,117.2392529186327,78.97650303436967,101.49777647188603,129.3538829976169,129.56139934169187
2025-12-12 20:47:09.221388,Right,100.33453329277108,112.92501682239526,99.32858199201291,102.14627153518813,93.25820635193668,83.53983399295248,110.53189510105585,114.7331908588094
2025-12-12 20:47:09.225399,Right,75.26067006030644,87.09705482433492,71.94028172310936,75.97697547798452,89.09041698915826,59.57821176707512,84.13584912876831,90.0695196090237
2025-12-12 20:47:09.229402,Right,87.45871686484315,101.90776502303197,86.86819540038414,88.04057221197581,72.19462557675433,75.30431311886787,100.29443086167157,102.0674639797362
2025-12-12 20:47:09.232414,Right,126.28192396638042,141.83067902585026,125.97939877958561,126.03378798138874,78.83349126536632,112.98456915539282,139.1334254820249,137.63168359108386
2025-12-12 20:47:09.236411,Right,139.47544169268804,151.24309217522386,133.1434338374529,136.54955477926705,107.48575951426756,120.9298766048014,145.09868366741284,145.8292912562465
2025-12-12 20:47:09.240443,Right,121.84320749735343,129.4680868319847,110.78874172456563,116.84155164628464,116.98940229519212,101.33960887233843,122.56868322606897,125.456448241006
2025-12-12 20:47:09.245456,Right,115.4478192772367,123.49432076295489,107.14974108780734,111.48976037871034,97.48562349590065,97.97749589566956,119.51043410958664,119.79679867834784
2025-12-12 20:47:09.249473,Right,127.27883172222937,137.5203969160939,123.29829430315294,125.62181327633152,85.30025775956165,111.86602818101528,135.19408960902365,133.40101644434617
2025-12-12 20:47:09.253542,Right,120.60208449378842,129.87572098463716,115.30780496666557,118.90862940509396,95.89593081899511,103.77604530357348,126.0961800263176,127.971656140493
2025-12-12 20:47:09.257546,Right,92.49551063204126,99.2739798589173,84.05930398404598,88.71509694942506,99.23611252849514,75.34940656938124,95.45530471586972,101.67293215000245
2025-12-12 20:47:09.260543,Right,85.80597889886121,92.76797385251848,78.76352334514377,81.03526491064986,80.24071764167456,71.37632734607905,92.77276286242704,97.63251763212611
2025-12-12 20:47:09.264533,Right,110.01079842587933,118.06311629942502,105.25140979787102,105.79905413565575,68.84443028601527,96.4599899695022,121.43239709221234,123.19081353745423
2025-12-12 20:47:09.268552,Right,120.43736341924523,126.14626781806874,112.2969712017657,116.17694698358537,83.48607290541986,103.5213399718341,128.99153198335262,132.70009263853717
2025-12-12 20:47:09.272561,Right,98.13786613180127,99.97305948812573,84.55902980160317,93.43193980662909,95.2676821530913,78.82624045870034,101.7649976999528,109.48424894780328
2025-12-12 20:47:09.277599,Right,84.50006698531797,86.17928422051773,71.22677407471929,81.43315807681938,81.67092918555136,67.49956111537176,90.02578556202934,96.76036633706826
2025-12-12 20:47:09.281590,Right,105.78563653332822,110.08694152827957,96.51814112919965,106.12260440710816,69.37967518852383,91.46757622274163,116.42482655576896,119.33900512730179
2025-12-12 20:47:09.284586,Right,125.24439763912233,129.4915615952923,115.82926009758376,127.37996526395727,84.20920256721729,109.69112979863712,135.09615233400837,138.84944778113277
2025-12-12 20:47:09.288546,Right,110.69460654912109,112.10916685416305,97.77124461760104,111.95242719506496,101.10796135870623,93.27576634794241,115.91186608292628,124.11993039873778
2025-12-12 20:47:09.292610,Right,92.46589469366882,93.30658392282203,80.01623497869878,92.60264917403401,89.00118017426576,76.4657850873482,97.74759881939099,106.26648221167852
2025-12-12 20:47:09.296642,Right,105.2357045054232,108.12704718163877,96.6352681870776,104.9272644683806,67.93607521255035,90.47339985833969,113.57943364385574,118.0165046270995
2025-12-12 20:47:09.300634,Right,124.25148757362331,126.53357382697868,114.93738681726973,121.8581510073709,72.55033520048892,105.92831559402111,129.68314459720568,133.28714304805908
2025-12-12 20:47:09.304666,Right,114.31727919881814,112.2775610837125,99.31559707083215,107.4804251340829,89.54890218121,90.9196119892149,111.80801625347522,119.29484469084127
2025-12-12 20:47:09.309671,Right,96.4368820948439,91.81999382156937,79.01986387523357,85.88750296387298,83.83144918194739,72.40354817279149,90.74933181886445,99.7657497991022
2025-12-12 20:47:09.312681,Right,106.14516659609217,102.91569253474881,91.43729404221813,94.78123297315324,63.287795703014126,84.1405571695359,103.1398843532952,109.17891883975244
2025-12-12 20:47:09.316689,Right,123.751660608963,121.23349107481772,109.1744290987408,112.66253458391293,62.26290488503582,100.60474697286554,120.48091170814587,125.55894143822661
2025-12-12 20:47:09.320712,Right,110.32212258531945,105.51235367602203,90.83388726800331,98.89867152014631,76.85819279962743,84.04709728973103,102.34280487080105,110.80684396842844
2025-12-12 20:47:09.324711,Right,83.07804159838997,77.58998339614482,61.53555857593892,72.4945497932058,74.17911347960762,57.76390406439896,74.9188532884873,84.43372192158131
2025-12-12 20:47:09.328764,Right,86.40011195960687,84.70992990031664,69.53247853202629,79.33833269438765,56.41190563736018,65.88156408721989,85.00800564861856,90.15534064293024
2025-12-12 20:47:09.332758,Right,109.38650872683502,111.24895941263821,96.43486217749887,105.99965453373443,56.971235620818334,91.50180271433783,112.21350584345055,114.34438182858867
2025-12-12 20:47:09.337780,Right,103.94138827137067,104.81142595259007,88.5957830750267,101.337229802215,75.30550422375381,85.56051169682178,103.66729920834769,108.53787140845088
2025-12-12 20:47:09.340791,Right,72.04286345411674,70.68582336680265,53.73466739828291,68.35133064133697,74.460842850458,54.74846780821099,69.23806546497508,76.50788291898789
2025-12-12 20:47:09.344784,Right,61.85298588668229,61.31310924704303,45.586560925265076,57.8028704461467,48.90795130215702,47.560884324935614,62.359316853340715,66.24920237774495
2025-12-12 20:47:09.348793,Right,80.93686633839388,81.7502584264439,66.70654761395417,76.76093837163353,37.16726449326961,66.3347291903774,83.50399622970144,83.32534102507634
2025-12-12 20:47:09.352813,Right,86.63954409392318,85.50693093985319,68.82240383973112,80.70816389650281,53.958314088959014,67.89025789084553,84.49240757961525,85.57687363980222
2025-12-12 20:47:09.356769,Right,68.06247399828862,64.37305640464183,45.98404577607289,59.94706365809543,65.44133611266443,47.81150916953629,61.72139144700486,65.18764769425616
2025-12-12 20:47:09.362847,Right,64.96896527346689,62.48008512103115,44.62137424120738,57.04259805921174,52.21137849522347,48.79543033611844,62.430058696947526,62.916521007195115
2025-12-12 20:47:09.365867,Right,89.64416092180181,89.90407218108885,73.31406201503705,84.08511546744558,43.174731584687834,78.16409430048952,93.48158184648491,89.07061564986361
2025-12-12 20:47:09.368889,Right,101.30755905833212,101.24223521971726,84.68551108405518,97.8145006585255,59.58077246484754,91.43081392638851,106.07514240284218,101.92183178127743
2025-12-12 20:47:09.372881,Right,83.10933586477768,81.33844331160071,65.02098427263263,80.93895685210009,75.79885643957823,74.4901371991291,86.61416375252884,85.69340181860025
2025-12-12 20:47:09.376875,Right,74.6687790848082,74.49986994120991,60.3596246301895,74.53416174468293,68.23380638621165,68.74373369917157,81.19979520738707,79.62509275155026
2025-12-12 20:47:09.380846,Right,96.35787550502573,99.61226283866563,87.38413566684176,98.40365420297894,57.995952203826164,90.80172646525898,106.25189534539822,101.58428580893087
2025-12-12 20:47:09.384906,Right,108.20486241485924,111.36322265138733,97.81016984500457,110.10547723408672,68.0740838740021,98.99454597676231,114.69725642507547,111.13932156612282
2025-12-12 20:47:09.388928,Right,82.54227048251778,82.6547509416705,66.17889415753598,82.05634871941584,77.84333476479515,71.18777630208933,83.16594602531404,83.80140253785066
2025-12-12 20:47:09.393032,Right,57.15796340323868,56.9250569743308,39.8602647852822,55.27075851884729,62.593973241062486,49.42269914630742,58.63480850117048,59.492817412130535
2025-12-12 20:47:09.396936,Right,69.737428371649,72.40978795688716,56.9361726938223,68.77125426758721,43.932291077348054,66.5687024287763,76.1954618220916,73.47380167013034
2025-12-12 20:47:09.399955,Right,91.09767699055374,94.45895895449212,79.20144051747047,90.89877825797885,52.56360916845733,87.17396613294841,96.46536508243298,93.41539917583577
2025-12-12 20:47:09.404967,Right,77.9619413712353,78.60366999762482,61.49189707313781,76.9333836488513,69.67387298760877,70.57556895617745,76.88407579198247,77.38244372041663
2025-12-12 20:47:09.408989,Right,49.453198614151916,49.74723746537347,31.44357888918603,48.48311138438294,58.646307113580406,42.40700304994243,47.606992432818515,48.54695677914424
2025-12-12 20:47:09.413010,Right,49.64038256171625,54.58872236890602,36.488672101317206,51.55925798144017,32.34220407398243,46.081921606877586,54.89869392977562,52.05299477794324
2025-12-12 20:47:09.416993,Right,67.25517006030714,76.6155003644526,58.01124399139371,72.55354006368725,31.343769828832592,65.09520569814777,77.48068893997697,74.12070384793333
2025-12-12 20:47:09.421014,Right,60.794994891650276,70.17652663732588,50.37836064210569,67.08709433260083,51.80800889880629,58.41514306861791,69.49015248948126,71.22072699242563
2025-12-12 20:47:09.425027,Right,39.23408451610885,47.22405572522257,28.335208441974828,44.94609479016799,54.89130088714592,39.29063374517136,47.046708755980944,51.793443562826724
2025-12-12 20:47:09.428052,Right,44.58960824114911,52.63268895428337,36.95337146581733,49.946052550920285,37.929589664403466,47.839528292184696,55.0640880058927,56.6087673837319
2025-12-12 20:47:09.431996,Right,69.97567933247774,76.47901063963945,62.733372873204644,74.27724390340154,35.551258185485494,71.21368428788264,79.1809947318543,77.92843300582899
2025-12-12 20:47:09.437048,Right,69.53062234904792,70.8241230352287,56.101164826060995,71.03517948767694,51.98532438436814,64.9110655431723,71.10187268574373,72.59881680135732
2025-12-12 20:47:09.441059,Right,43.0822276124527,40.215560863987776,24.426324718850083,42.32960636579082,53.007763741057715,36.61676398929558,40.2975776004605,44.65290506657038
2025-12-12 20:47:09.445030,Right,37.107038645321154,35.34675586549565,20.795336777737248,37.15682473857305,32.12597133209056,34.47937100651325,39.06330135533062,40.915513599989936
2025-12-12 20:47:09.449097,Right,58.917238852067385,59.76716716079682,47.42164010545821,61.18188230441592,24.87595392676303,59.29904360540968,66.64958729369391,65.40497896604938
2025-12-12 20:47:09.453101,Right,63.49373400500917,63.164210763250594,52.66295201804314,66.04133280410315,42.57025473854446,63.22486703307368,70.47457601479255,71.36724546739424
2025-12-12 20:47:09.456124,Right,37.56510058157437,34.42487084303866,27.106222560614697,38.662285447266186,49.76705314168066,37.69356938019337,42.69261056899268,46.59874007506005
2025-12-12 20:47:09.460127,Right,24.373628598521464,21.72248037563986,19.82368946466886,24.895252026428352,29.33765825846058,27.64709414941899,33.014782301092055,34.280962239645305
2025-12-12 20:47:09.465113,Right,43.97045775879815,43.32819475984434,45.850643239115016,44.648727805164526,15.011012404676876,47.288796876659035,55.613981905102264,52.19919789735286
2025-12-12 20:47:09.469148,Right,57.8923440220824,55.508131830210914,58.31468473467976,57.00463200874219,30.42922182174516,55.337956425428274,64.57485032598197,61.60906293679727
2025-12-12 20:47:09.473160,Right,41.9337723057979,35.049007304696715,35.67281558769173,38.08035146475595,46.49212569730298,33.921396041463595,41.46074544802832,41.54591033817269
2025-12-12 20:47:09.476175,Right,29.310189567055204,20.626554401795147,19.827500283514382,24.122995645011542,34.81478943678667,21.434880502318265,28.96034374809824,27.224513201232185
2025-12-12 20:47:09.480181,Right,44.762138744074036,37.16144720248121,35.22577525276574,40.38768165456713,17.957004663767293,38.57402516923321,48.393946285315906,41.425085845883586
2025-12-12 20:47:09.484205,Right,55.912660597794456,47.56787802239705,42.73575278116914,51.85764640578418,24.977605553969624,48.34943008101254,58.01517845658236,50.105484281870304
2025-12-12 20:47:09.488204,Right,35.345285097529995,24.234943091956666,16.148187360653537,30.359529114764882,37.61953738979355,26.880614351670374,32.473414280539146,27.723904481405043
2025-12-12 20:47:09.492241,Right,16.33106545379269,5.223292195340036,-3.4290911295393016,11.6072538211738,27.574779559538,11.891637894746964,14.26072331215255,9.486182681313949
2025-12-12 20:47:09.497223,Right,33.49335374427028,25.300688576578978,18.157200757661485,30.994137399451574,11.980196437914856,34.30389584071236,36.55541995105159,28.348115855667857
2025-12-12 20:47:09.501253,Right,56.99781001638621,48.596030212022015,41.925115796155296,55.73551846545888,20.731003948356374,58.515135351670324,59.21579388198734,51.72707859809452
2025-12-12 20:47:09.504247,Right,45.344641634233994,31.518347852717852,24.20910274988273,42.38057692574512,37.65854038668476,45.012265786514035,39.83920898401993,38.40410835192597
2025-12-12 20:47:09.508271,Right,19.84115568047855,0.7060817437741207,-5.728929633449297,14.309001575151342,27.705434731578862,20.397917126698303,9.261167773831403,11.578658166123205
2025-12-12 20:47:09.512282,Right,23.246504627051763,2.4254207581980154,-1.7447503768707975,16.5719956416724,1.2621529280077084,25.98492399515817,12.74589213883155,13.771700028519263
2025-12-12 20:47:09.516240,Right,41.8090092476632,19.794492368848296,16.2379121201011,34.638342552105314,-3.1472163154321606,43.0738972115214,29.0940609988902,30.266947871816228
2025-12-12 20:47:09.520323,Right,34.03887192995171,9.038380937709007,4.060030423490389,25.930816842141212,12.80686391943891,32.00115918839583,15.526096710804268,21.254941786683048
2025-12-12 20:47:09.525327,Right,9.117508794806781,-17.354075635099434,-22.7389000279436,0.947579691404826,12.483837985841092,7.975882894708775,-10.40532784476818,-2.0821650149155175
2025-12-12 20:47:09.529347,Right,9.07972141636128,-15.214509496610845,-19.29050493581599,2.683998107124353,-7.326939956736169,12.057159044736181,-4.822673330505495,0.32890716681140475
2025-12-12 20:47:09.532382,Right,29.32485071949486,6.945409162435681,2.6089549436801462,24.412183095133514,-11.984592885972233,32.85131867459859,17.963143800210673,20.264774788942304
2025-12-12 20:47:09.536390,Right,26.672003927553305,2.9297394503373653,-4.7723468755721115,20.77885017239896,4.1586736298922915,26.392960363125894,10.178550768105197,14.909944417071529
2025-12-12 20:47:09.540399,Right,1.1444291360094212,-23.48650253737287,-34.72083988573286,-6.875368888766388,6.558849180444668,-1.3357855259018834,-19.647343094460666,-12.235854986472987
2025-12-12 20:47:09.544356,Right,-2.2210450646671234,-23.688793335400987,-36.24781380240165,-11.246486683143303,-13.753495936965919,-4.0675677393664955,-20.655203460963094,-15.512356591934804
2025-12-12 20:47:09.548426,Right,23.0634630935092,5.095542251568986,-8.265576358317048,13.516498438490089,-22.20594475204416,19.179578846975346,6.312613236063044,8.786373045964865
2025-12-12 20:47:09.553454,Right,32.55151940876385,13.829698005822138,-1.5116126951324986,21.396528549361392,-4.776701691305789,22.81973369858315,10.51009225352027,15.460892745366436
2025-12-12 20:47:09.557401,Right,13.920586786072818,-6.837324233754771,-23.494001061415474,1.4992810588591965,6.403516186066554,0.9068492020815029,-13.330654681281885,-4.980464130931068
2025-12-12 20:47:09.560570,Right,9.026810333059984,-9.573145264439518,-25.169097031153797,-1.6813094934768742,-6.751677362692135,-1.620251623004151,-15.371081749071891,-8.909993436645891
2025-12-12 20:47:09.564476,Right,32.42771375688608,18.675757255179633,4.248586977933883,25.40669916177285,-16.192774037765048,24.531302547256928,13.560718536973582,16.433728838906973
2025-12-12 20:47:09.568545,Right,40.30131259929476,28.567792258421832,12.765776327556523,35.15089217449713,-3.3001362054856145,31.395669718287536,20.81426232211379,25.32849439122947
2025-12-12 20:47:09.572544,Right,10.168124874733621,-2.2717189561226405,-20.3012550084095,4.150213465058187,3.625499619545735,0.03987028072151588,-12.796160495956428,-3.9574504221891402
2025-12-12 20:47:09.576546,Right,-16.01967733683705,-27.294094507022237,-45.35076210644547,-22.908561010823178,-18.159947980791912,-24.204351838532602,-37.18892323392356,-28.728075495819212
2025-12-12 20:47:09.580551,Right,-5.342172305965505,-13.697217344633827,-30.460920742520102,-11.815709275237168,-40.592834089911776,-12.271946611523163,-22.174012804411177,-17.55298408199451
2025-12-12 20:47:09.585545,Right,10.549782824928116,2.2902410512251663,-14.585783856906346,4.009514732926618,-32.892880544037325,0.5178819906068384,-7.3612673561801785,-2.8361282913247123
2025-12-12 20:47:09.588565,Right,-2.562704846197448,-13.364149263172294,-31.08890135549518,-10.287043556520075,-16.087166100991453,-15.670050956279738,-24.160984840498713,-16.483230871679552
2025-12-12 20:47:09.591583,Right,-18.850874698589905,-29.454912345572666,-46.14769151041037,-26.828303096255695,-23.56847632631252,-29.81240255737066,-37.49703277769004,-30.605131747091946
2025-12-12 20:47:09.596581,Right,-4.305888271548611,-11.072517137334216,-25.41047238849569,-10.877665979052836,-40.732479786374824,-11.243246613026713,-14.848251490446273,-12.662072825936775
2025-12-12 20:47:09.600587,Right,16.653371709020576,12.142250876240723,-1.3239748050327762,10.9792512693748,-34.60485803071788,9.690846921708726,9.231705431484443,10.57121349775116
2025-12-12 20:47:09.604614,Right,6.172569600399584,0.6476688330076286,-13.253536969914421,0.11467713241290767,-16.281538395291136,-2.9241248649341287,-3.800820934608055,1.8108278155414155
2025-12-12 20:47:09.608577,Right,-15.104086938088585,-20.264929332057363,-32.94763495447296,-20.31730383823742,-19.205035322796903,-22.690897816784855,-23.87736231686722,-16.59680602185108
2025-12-12 20:47:09.613630,Right,-5.9631192783490405,-7.825668222445529,-17.166679602752993,-8.081758203930804,-35.61182651292893,-9.789926479552378,-8.41033499041805,-4.430317174614174
2025-12-12 20:47:09.616647,Right,17.334124707063893,16.480086379975546,9.992434229052378,17.441692150747258,-31.712705730985363,13.319579637605784,16.587502655620483,19.901319946864533
2025-12-12 20:47:09.619637,Right,10.135992580580933,5.502631901890709,0.8146728813862865,9.363127000047825,-12.639877008115036,2.3287074694162584,3.562975763259601,12.580539364727883
2025-12-12 20:47:09.624666,Right,-17.639444842112425,-25.35584815103357,-26.71231918185731,-19.80182566547228,-14.000073090776823,-26.563480799948593,-27.921716860430024,-13.901950264713378
2025-12-12 20:47:09.628659,Right,-19.996400326592266,-25.527366721751605,-21.45407998803603,-20.89847397788253,-35.118544577649345,-26.29884009479065,-26.66065999796774,-13.731758675392484
2025-12-12 20:47:09.632675,Right,-0.6469611308966705,-2.210837466882367,6.174480401483379,1.0797437246401387,-39.35741492580814,-5.576569468743401,-3.7595827733275655,7.130459253618028
2025-12-12 20:47:09.636683,Right,-6.249943126938888,-6.579330514683534,3.142438733346353,-3.438336984712805,-22.257519590866195,-11.750239184890233,-10.835163142699457,2.175114420682803
2025-12-12 20:47:09.640710,Right,-39.065888582957996,-38.484620493145485,-28.185480017320515,-36.01494094657028,-20.330767589376592,-42.0903008576297,-43.22992855971461,-28.57195900259103
2025-12-12 20:47:09.644708,Right,-50.601921808880434,-45.55194435319936,-33.706200285882005,-45.439888322900515,-42.536069190709895,-47.50736851435977,-47.456542896870815,-36.65648754090216
2025-12-12 20:47:09.647725,Right,-28.626687057621893,-18.449193692051267,-6.0746358515716565,-19.988810347927938,-51.83520610110645,-21.78928298835308,-19.066947005287147,-12.64651692084044
2025-12-12 20:47:09.652752,Right,-17.230678378631637,-6.366878259137593,4.028193027863473,-6.776672844034692,-32.223014359897206,-11.558025529859151,-9.736958165774922,-1.8497336016680492
2025-12-12 20:47:09.656699,Right,-34.519539748749594,-25.704781279784584,-17.058701600526547,-24.236712138741495,-17.37941176739878,-30.117307867437376,-31.76725694095512,-20.516142126980412
2025-12-12 20:47:09.660787,Right,-42.80469257691584,-33.57493476458876,-23.5000240886161,-32.34183767387367,-29.01971357028924,-37.08599654491536,-39.30701841040536,-29.630685357212315
2025-12-12 20:47:09.664794,Right,-24.527030423883843,-13.06717892024244,0.21437730631714658,-13.431059205528982,-39.97011371092049,-19.376417005927124,-18.9726653150301,-12.723115205973045
2025-12-12 20:47:09.667804,Right,-17.697014223895167,-6.616003327197177,9.154613213820994,-7.65189195342009,-28.27375675213807,-17.603669097074544,-16.248815942841247,-8.104827437899075
2025-12-12 20:47:09.671824,Right,-43.46677848174295,-34.30062594753326,-15.549050738055485,-35.51525523887494,-18.982570821366608,-47.34681958137378,-47.50864099386308,-34.47704187289867
2025-12-12 20:47:09.675840,Right,-63.00389044731037,-52.1794210035996,-27.843288004200076,-54.821924378266885,-35.29129423991253,-64.84855562666553,-64.5529621501471,-51.505272509535416
2025-12-12 20:47:09.679852,Right,-47.008366632678644,-31.59936873688116,-1.2089508025328541,-35.9817319630295,-52.01106400338176,-44.762320186586294,-41.193017019388186,-32.25671671796226
2025-12-12 20:47:09.684871,Right,-29.76537517677309,-12.696609771001675,20.337652090622214,-16.885189751385496,-40.80538472810804,-26.85367206710407,-21.846504360397375,-13.586906886763245
2025-12-12 20:47:09.688843,Right,-46.22885930982511,-31.116299537684654,1.5580667265585362,-33.95219773543022,-23.55739800907395,-44.005148222677235,-40.61345650784642,-29.381546405107656
2025-12-12 20:47:09.692933,Right,-68.28905329854206,-53.296567871867865,-20.586233139722026,-56.37246908896759,-32.99874788460511,-63.99507004706447,-60.23821981311721,-49.72633389875955
2025-12-12 20:47:09.695931,Right,-57.63211471265549,-39.3960644365643,-5.985699196175119,-44.318976538516836,-52.212405989041144,-50.934497361291506,-42.741749254083516,-37.659497677994295
2025-12-12 20:47:09.699931,Right,-36.170445857892446,-16.155213938310226,15.98571167155751,-22.031990570900234,-45.45458374869486,-30.935004129434674,-19.454324685306347,-17.16856060334976
2025-12-12 20:47:09.703944,Right,-44.38587719481802,-25.994016598979215,3.118359581891127,-31.45894706778381,-24.053565763199003,-41.80973745366646,-31.890610871634635,-27.562929956813605
2025-12-12 20:47:09.707964,Right,-66.06424460629387,-48.21132786774069,-20.660774273390416,-53.96152828029881,-25.0966241171991,-62.08073699374654,-54.62755496302452,-50.20031298393042
2025-12-12 20:47:09.711989,Right,-59.20785604153025,-38.42810864361854,-10.632009451201156,-45.7058132518232,-42.62003280393037,-51.590675334962725,-43.37384463478884,-43.72857193530217
2025-12-12 20:47:09.716961,Right,-34.87720555509986,-11.968021275071806,14.530458455908956,-20.177513580834784,-39.68478658094318,-27.287079063078636,-17.791990099376562,-21.539634402404772
2025-12-12 20:47:09.720970,Right,-36.43640480865179,-15.103177152013814,7.647308898543997,-23.1205950194435,-18.140806462030014,-31.767728636626998,-23.965377412001544,-26.03218531193852
2025-12-12 20:47:09.723998,Right,-58.69013380268734,-38.697814980672774,-18.829968881229433,-47.192716442707024,-15.409579183404276,-53.81553843158326,-47.80228556450675,-48.41943678269308
2025-12-12 20:47:09.727997,Right,-58.81158170594426,-36.73546742333201,-17.281154421893007,-46.75998565338887,-34.8051174396096,-50.480707257669565,-42.629618388535164,-45.69144844054608
2025-12-12 20:47:09.732009,Right,-37.49603834704976,-13.986121765577991,4.734362212700944,-24.19580869694255,-39.5454602046193,-28.550708455313725,-18.237740089403815,-22.650649003124272
2025-12-12 20:47:09.736016,Right,-36.09470227980637,-16.021241095037112,-0.19117323622049298,-23.973106563440524,-20.407514691294637,-30.662441815438797,-21.968596273822186,-23.06706088453575
2025-12-12 20:47:09.741018,Right,-55.2060502444765,-40.028210280201165,-26.86190925838673,-45.75260676983817,-10.493924580136081,-51.89726154986056,-46.7795410484141,-45.70012545346617
2025-12-12 20:47:09.745045,Right,-51.04754306146424,-37.1516475583594,-24.514753824572836,-42.68275833408552,-21.99863601119432,-46.38880214195888,-41.6895584208396,-44.72751671572405
2025-12-12 20:47:09.748979,Right,-19.171149893332768,-4.940348910095054,7.08351831517939,-10.579527823090757,-25.0501297157316,-14.24316651935078,-7.919027064865077,-15.891690420248779
2025-12-12 20:47:09.752059,Right,-8.377065851811494,3.153927474275406,12.30422415034991,-0.8125533652309969,-7.581819846571307,-5.894506718159391,-1.0728104584122775,-7.699088140398089
2025-12-12 20:47:09.756065,Right,-36.05483006236682,-28.531268844813894,-22.536220365247573,-30.45533120250184,-2.189744535491627,-33.54683079911774,-33.21215132000361,-35.710331772126665
2025-12-12 20:47:09.760014,Right,-58.51158450069852,-51.45840610867526,-46.377067751134746,-53.33206406633326,-26.631905390080647,-51.31759615570263,-53.47446273886089,-56.52571331893705
2025-12-12 20:47:09.764080,Right,-49.3376013984016,-40.482531892394036,-35.695717615046306,-43.55526851721879,-47.73527925214148,-38.69139133794306,-40.61845989219728,-47.15441738477239
2025-12-12 20:47:09.768095,Right,-41.33846468838601,-33.42367788504271,-31.20043212924793,-36.92483306878785,-38.021016326318204,-32.53166954244807,-35.76396802692034,-42.08307120487734
2025-12-12 20:47:09.773054,Right,-57.64844204191104,-52.75361249474736,-54.33841105813917,-56.49276265530716,-22.24002699405537,-51.41357488781432,-57.978291627285216,-61.828737835850916
2025-12-12 20:47:09.777139,Right,-65.46203773613524,-60.74757747590775,-64.43612640795618,-66.02014705820329,-29.570295269608323,-58.094914682438684,-65.43798469848844,-70.94245079133543
2025-12-12 20:47:09.780084,Right,-40.62277557228663,-33.58876533925286,-38.061873689577624,-40.241630003663886,-41.64722166911815,-31.819398886196723,-36.5668830457289,-46.235162749668234
2025-12-12 20:47:09.784138,Right,-19.021640827944793,-12.332834684639238,-18.6913506259516,-17.782066338135337,-31.349561391412863,-12.356551574732293,-16.156341184847406,-25.280248165006924
2025-12-12 20:47:09.788175,Right,-34.51841345654975,-31.201756665344874,-39.93399847261753,-34.047493218502495,-16.722055347396235,-29.917221114395943,-36.342769046787,-40.86318797640706
2025-12-12 20:47:09.792152,Right,-57.12936613700731,-55.01084537180577,-63.93286729394458,-57.178488346726226,-27.511071557433752,-50.07526890867666,-58.20171469508932,-61.75055208570848
2025-12-12 20:47:09.796194,Right,-46.362064282577194,-42.08812768360076,-49.48157961312245,-45.634658523107646,-46.96116911429999,-35.9426145791258,-42.348336553783156,-49.572440900607035
2025-12-12 20:47:09.800122,Right,-21.909788638105965,-17.031362756868475,-24.396121098885487,-21.231297738027934,-39.48785665909236,-12.922105337485846,-18.076132430920552,-26.67302277204726
2025-12-12 20:47:09.805201,Right,-23.195938935343293,-21.024131518723152,-30.435588482461753,-24.6848182276226,-14.925167458517535,-18.2634824022025,-25.28401071746339,-31.27409754915425
2025-12-12 20:47:09.808201,Right,-36.36030630964524,-35.640567334819934,-46.49958877408062,-39.94978109783551,-10.963953776867129,-32.36808765794558,-40.71063619488268,-46.646402567734185
2025-12-12 20:47:09.812223,Right,-25.322281319611648,-22.64776825966692,-33.47215275187045,-29.015808453172212,-26.594158157626225,-20.190506198003277,-26.295829965798475,-36.592008351428376
2025-12-12 20:47:09.816234,Right,-4.751998876789003,-1.0792392861985718,-12.50861473994155,-7.946093873157224,-28.340249193206546,-1.3248326529756014,-5.1071294917710475,-17.109362934344972
2025-12-12 20:47:09.820240,Right,-14.278218497376656,-13.216499696587562,-26.385490838518308,-17.96020180969208,-14.469666359997063,-13.964592040625575,-19.162215183612716,-27.103311763203237
2025-12-12 20:47:09.824189,Right,-41.90989494554378,-42.987276562984334,-56.500588945433265,-45.80098505558999,-16.303080359830346,-40.55507094062705,-48.32285377618973,-53.38577345577505
2025-12-12 20:47:09.828252,Right,-42.558981408357795,-42.01890996675502,-53.68896691541886,-45.0897662161442,-36.15712008553237,-37.1508653888086,-44.587696166330716,-52.63404022077157
2025-12-12 20:47:09.833286,Right,-20.448713807956665,-18.048243969518808,-28.560501753439894,-21.88289081052062,-41.37318151570071,-14.668420794325357,-20.682825805139146,-31.730063671187963
2025-12-12 20:47:09.836282,Right,-22.36079721063288,-21.639842677170236,-33.25856246209878,-25.04487032828183,-27.008421977589023,-20.52203010764788,-27.83327531991381,-36.41226393573743
2025-12-12 20:47:09.840294,Right,-52.0428463112039,-53.764741086888534,-66.20932350436487,-56.71082744927844,-27.718021094238793,-52.041184940018866,-61.53688666209928,-66.96884280330414
2025-12-12 20:47:09.844251,Right,-62.835823493194766,-63.83622556896444,-74.82214176280831,-67.26548088048003,-53.19482959158631,-60.48165856621927,-68.75110585043876,-76.23802564172365
2025-12-12 20:47:09.848327,Right,-41.60734419372602,-41.03966180700081,-50.35728387017298,-44.018457421378116,-66.61791071323387,-37.958140291651944,-43.059670317481505,-53.76246834725316
2025-12-12 20:47:09.852353,Right,-29.499707585309807,-30.62606003145629,-40.2481207454548,-30.780937001254642,-48.60820358175988,-27.71548260104464,-32.73928601867374,-41.59447495248605
2025-12-12 20:47:09.856347,Right,-43.741321067209356,-47.86267695479182,-58.23208686470025,-45.05731937984092,-30.747612246173958,-41.89867897932709,-49.73084850489977,-55.198038988579356
2025-12-12 20:47:09.860362,Right,-47.76241566341923,-51.86220462161873,-61.47063840516057,-48.61061778823205,-37.94500645718654,-41.65979734364373,-50.60461273313558,-58.043639912961225
2025-12-12 20:47:09.863382,Right,-24.08208181677037,-26.834404957291554,-35.593950028509425,-24.440392165095545,-46.37849892730446,-15.001410383301845,-23.18213212201954,-35.317722265128396
2025-12-12 20:47:09.867391,Right,-10.85005916395312,-15.517300663792412,-25.050487197207985,-12.642325689848803,-32.52451018270949,-3.584306722972542,-13.415557641470514,-25.440186188730877
2025-12-12 20:47:09.871406,Right,-32.01483347395697,-40.21035713711899,-50.23948060017574,-36.18857437985571,-19.07343473558285,-26.592964073504845,-40.514214762421034,-48.75616945009824
2025-12-12 20:47:09.876421,Right,-51.84800058755354,-59.5482909222992,-67.57016926561482,-56.18119101344928,-31.67068057218421,-44.14916221822932,-59.553670082066674,-67.50709623633156
2025-12-12 20:47:09.880441,Right,-39.381528093297675,-43.05305862046953,-48.6226836631904,-41.591822957132536,-48.6003817143137,-29.22968651933479,-42.335604916304874,-53.171220605188864
2025-12-12 20:47:09.884469,Right,-23.19525386717578,-25.376951179401658,-31.352311092530726,-24.310856637537654,-39.079344062760356,-14.75324067108886,-26.5315964057736,-36.68624337858637
2025-12-12 20:47:09.887535,Right,-35.24440044914809,-39.71104571752221,-47.96300970914308,-37.37330318766908,-19.5784751632018,-29.146215135391685,-42.52014228754706,-48.74281167169829
2025-12-12 20:47:09.891526,Right,-49.05909720536147,-54.432143955971696,-63.44406612525199,-51.57515380050609,-22.38770622384618,-41.37020540008962,-54.942682950051676,-61.454812642143224
2025-12-12 20:47:09.895477,Right,-28.811428408618667,-31.850454710067424,-40.100247812864836,-29.660394022408582,-34.739498485323566,-19.154177953871113,-29.138018270801695,-40.81681261870108
2025-12-12 20:47:09.899520,Right,1.010612562611641,-0.8955951054667821,-9.594846948042687,1.4560771584365284,-23.361725924740313,7.487078604553972,0.5427785588617553,-13.165763738914393
2025-12-12 20:47:09.904536,Right,-2.6257073576707626,-6.603416379039118,-17.06041080461,-3.0984589618019527,1.469553992494184,-1.3948063508905761,-9.35014227051579,-19.558012011024402
2025-12-12 20:47:09.908534,Right,-23.625551962169993,-28.708210114447866,-39.69553766152967,-25.284742782409012,3.4353157715668203,-22.666492923075566,-32.41093252030987,-40.857418801417225
2025-12-12 20:47:09.912563,Right,-18.710726163750223,-21.83847231499385,-31.989980381891655,-19.85774927638704,-13.64414332069282,-13.874272256121913,-22.581713317529648,-34.19958575808414
2025-12-12 20:47:09.915564,Right,1.1065548077458516,-1.3642882860003738,-11.833567191846669,0.5687378681468545,-14.574795060216275,7.189244520588545,0.02308327125501819,-12.928035674478451
2025-12-12 20:47:09.919593,Right,-7.87487652420532,-13.647106269127107,-25.715116329483863,-9.712623057741439,0.7256043287925422,-4.224919244643388,-12.284235704857565,-20.798056933563203
2025-12-12 20:47:09.923541,Right,-38.36332979333383,-46.70700150613993,-58.79439085960621,-41.90129516836896,-2.167224223012454,-35.45289739347572,-44.33813125266897,-49.07411095826683
2025-12-12 20:47:09.927637,Right,-42.46244891708193,-48.384346546219604,-58.41283152800315,-45.67948758244165,-25.11462990520522,-37.22772294011156,-43.87821836981311,-50.64185761538829
2025-12-12 20:47:09.932622,Right,-18.224634035184863,-20.276260565355187,-29.35814852987096,-19.957547961792443,-30.567309512938664,-11.875089832792582,-16.373875406745356,-25.71445093431248
2025-12-12 20:47:09.936651,Right,-12.220050103867834,-13.775661167608632,-24.39994614120951,-13.407593905540125,-9.713629800688068,-6.342033619148424,-13.124648298187822,-20.115112677274738
2025-12-12 20:47:09.940656,Right,-32.832640913911746,-35.07702830557537,-46.853853073189384,-33.69034290796844,1.3102770409605,-24.188256779027142,-34.95465961825539,-39.256007531388605
2025-12-12 20:47:09.943680,Right,-35.69450801738276,-35.842945959739154,-46.30285591862048,-34.85078612004145,-12.358929173038632,-21.30594869151537,-31.815990012655675,-38.81911522633891
2025-12-12 20:47:09.947683,Right,-7.816278968908591,-5.729032322633429,-14.560203689397895,-5.611291908331623,-18.713270458021725,8.15684274709929,1.547124799057201,-9.12155327155051
2025-12-12 20:47:09.951713,Right,6.735047906542604,6.568327475593833,-2.525308943782875,7.103750029251387,-0.9182696480711456,17.861633425382024,13.198162133143342,4.745370845659636
2025-12-12 20:47:09.955721,Right,-12.972250805061776,-17.37703680548293,-26.885311597114196,-16.32345081893436,9.584802737888822,-6.098687583202263,-11.772542700462509,-15.302881077142956
2025-12-12 20:47:09.959747,Right,-27.875383658174542,-32.46942632965511,-40.36272993381863,-32.555787697361666,-8.515650383349566,-19.73771014621525,-25.28473856459459,-28.460143209973467
2025-12-12 20:47:09.964728,Right,-13.039754823948897,-14.431724326394033,-20.340716128019267,-15.914578682342835,-25.859956216081628,-2.6702347283680865,-6.297312317699834,-11.9677992889483
2025-12-12 20:47:09.968741,Right,-2.7263773675294942,-3.3532750341910287,-9.286901122184645,-4.469526856533776,-15.97598098540766,5.7391987391565635,1.9530598929341068,-2.301149871083908
2025-12-12 20:47:09.971758,Right,-21.924074693670264,-24.929114828140882,-31.376516413067293,-25.522176374826813,-2.715666637661343,-16.84319744858658,-23.011119461378257,-23.39892779936781
2025-12-12 20:47:09.975727,Right,-35.802961524081184,-39.524868498432625,-44.37059227649297,-42.244421177783806,-13.901825165470655,-31.644651845901535,-37.66073232724011,-38.86913212254876
2025-12-12 20:47:09.979778,Right,-14.958391420412227,-16.97793635840935,-19.520975267914764,-23.12789292610978,-29.283973705401877,-11.528705217220704,-14.135112671690877,-19.938153227150906
2025-12-12 20:47:09.983805,Right,6.33539330183703,3.835140606650384,1.1906449219532078,-2.91719530926639,-19.7468626132395,6.544026145187672,5.289313053282967,-1.0721786422654986
2025-12-12 20:47:09.987805,Right,-9.189458707252925,-15.148513399908552,-19.422531549527775,-18.990740968940372,-2.9348327566840453,-10.769442787772277,-14.725858761550626,-17.252062494386337
2025-12-12 20:47:09.992848,Right,-32.854529318694404,-40.289028178965964,-44.385288560486515,-41.10096498665371,-10.030093336346908,-30.57214410861343,-36.45647564367755,-38.660284984260215
2025-12-12 20:47:09.996799,Right,-22.06465958885019,-27.479015574986988,-29.773331228803727,-26.9499176101599,-26.410269351334136,-14.048358916450525,-18.352396563372167,-25.29436574006104
2025-12-12 20:47:09.999797,Right,1.0083625489787664,-3.6263812660472468,-5.634208818752086,-1.8046121835941449,-19.119097235496156,10.679246744093689,7.324901302854414,-1.416450974153122
2025-12-12 20:47:10.003854,Right,-9.472568953890004,-16.35765553330566,-19.817721751744102,-12.619287650566548,0.13425556905713165,-0.3829752565397939,-6.323190539438656,-10.703332137978578
2025-12-12 20:47:10.007866,Right,-37.79045096263144,-45.140489448931476,-48.873087418724026,-40.87219308913336,-4.332943198223802,-26.052993338540546,-34.123170613122056,-35.147828096480225
2025-12-12 20:47:10.011893,Right,-34.92933279517092,-38.67874951381236,-41.10529553190281,-35.899259625861305,-25.059641211537382,-19.05977954375703,-25.29753614746005,-28.46781511633162
2025-12-12 20:47:10.015882,Right,-6.244028561031882,-7.371357470823568,-9.90250944217405,-5.79384049028522,-22.6268944272706,8.884645682421251,4.826530211244972,-0.49897183210850926
2025-12-12 20:47:10.019839,Right,1.923676896833058,-1.2639088807627559,-6.095608748644736,0.3873284665787651,3.323630725801195,11.771567801260971,5.934876135455852,2.7373939152093953
2025-12-12 20:47:10.025897,Right,-12.816074680955353,-18.832904700211657,-25.04985452130495,-18.062417390439805,12.682203644006222,-6.562563017279899,-15.464325620094314,-17.109159324791108
2025-12-12 20:47:10.028932,Right,-10.11950291937319,-15.414939890630194,-20.452607331750187,-17.538123533129692,-3.7254755971407576,-4.520974769069653,-13.115554624433571,-17.839538634107157
2025-12-12 20:47:10.032929,Right,13.099037466061418,9.618918887157633,5.922761142599484,5.20391803477105,-10.036770556493138,16.518858584246118,10.03726570098297,2.8104349627974443
2025-12-12 20:47:10.035925,Right,17.0750809560559,12.827708277643978,8.87882911273482,8.71257030821289,7.738092451567354,16.42374332874533,9.609368122066371,5.353471524493216
2025-12-12 20:47:10.039952,Right,-3.2146437881456222,-8.463857540707977,-12.340958016495279,-11.593504156640847,18.302258425326727,-4.719465645026503,-13.059019486092438,-13.970508255195455
2025-12-12 20:47:10.043962,Right,-6.78762630935671,-9.691728377471009,-11.78879512446656,-13.335431225907087,5.482900215534755,-5.078096732309859,-12.090114701262792,-15.303412022294651
2025-12-12 20:47:10.047927,Right,15.646873878868064,15.654875854550482,14.607968163458281,11.241193188507168,-2.700100473710336,18.678505583269725,14.424527272596606,7.631459225256549
2025-12-12 20:47:10.051997,Right,22.04349929050659,20.809619247182127,18.052106420185737,17.318211892135878,10.589451998013828,21.977937402638418,17.137042662459862,12.383131736285577
2025-12-12 20:47:10.054990,Right,-2.627231649661553,-7.186198461859021,-11.975213549496402,-9.313972160623962,18.122722850534046,-4.610855777833422,-12.757087561760272,-13.150820812090387
2025-12-12 20:47:10.060028,Right,-14.569140460174822,-19.069347512067907,-23.311686953929893,-21.8516321910065,2.0657938893855317,-13.684357485230066,-22.76979374200164,-23.993408989332238
2025-12-12 20:47:10.064031,Right,11.298969933795888,9.350461044050462,6.571814799135609,4.474071684835508,-8.327676421413344,14.778443549164876,7.501474753564253,2.151246946436004
2025-12-12 20:47:10.068040,Right,34.644840553144604,32.3044947330236,28.836381634038844,26.370351361558278,10.288055877274019,35.98341424373393,28.408702285873005,23.12803649751004
2025-12-12 20:47:10.071994,Right,21.00562592010101,15.33461847124272,9.999418480350869,9.505824423424201,29.182865608927386,19.527441300235296,8.791114554122032,7.011835852365039
2025-12-12 20:47:10.076069,Right,0.6732342699287983,-6.093984672046645,-11.512252996562893,-12.35490458116692,16.476504561698675,0.2794675682907837,-11.159446875255526,-13.157698837694625
2025-12-12 20:47:10.080077,Right,9.660169518461771,4.7801095271533995,0.7098782783577917,-2.1016982591136184,-6.175117617611249,10.835831974109169,3.2161132306118816,-2.5277061678170867
2025-12-12 20:47:10.083087,Right,25.893957348616823,21.25730919963098,17.506351598151014,15.378239795667469,-2.194216193367538,24.573767248090007,20.36002275827559,14.542496867597947
2025-12-12 20:47:10.087113,Right,16.104657938738455,9.199886646114464,5.073545866509448,5.164412948775862,16.056604437624628,11.640711783893494,7.030978341717855,5.388457123815897
2025-12-12 20:47:10.092077,Right,0.15569553638306388,-6.622575317935116,-9.50034848166797,-10.702280292000069,13.182649663434859,-2.3492447402195467,-7.852929503764244,-8.198541306297557
2025-12-12 20:47:10.096135,Right,11.160863341265213,8.535603685246315,7.991903817335697,2.7037443523113325,-4.000592158856307,13.853525931137483,9.720083477990556,6.463098053638532
2025-12-12 20:47:10.100129,Right,28.98828957724072,29.41111161639492,29.37995065360701,23.279265032668263,-2.5163064608368586,34.169128301308774,30.492172375437804,27.083710676994087
2025-12-12 20:47:10.104144,Right,16.294969628635954,15.452058252052666,14.108905907383814,11.37040914573663,12.894535102670488,21.12090363909283,14.63039776890946,15.76387999866165
2025-12-12 20:47:10.107159,Right,-8.887139154778197,-11.62988561135353,-12.82881869229368,-13.92203500618416,9.676679700127352,-3.315896943403459,-11.9041017620184,-8.594866023055147
2025-12-12 20:47:10.111160,Right,-3.1179495045398653,-5.58146857464817,-4.020218359770297,-7.70822216824854,-8.900061878755878,3.05197635703189,-3.377272824962347,-3.185009481625457
2025-12-12 20:47:10.115196,Right,22.50299460413953,18.923902783641097,23.41501687672553,17.284343351087955,-8.572772102097588,24.281114917554987,20.96533688612726,19.617825556189928
2025-12-12 20:47:10.120126,Right,21.83106905230852,13.257751014474707,19.71154332831884,13.703065232106383,10.773010266335405,16.046994661663575,12.745508746336782,15.54014382276182
2025-12-12 20:47:10.124192,Right,-1.874413586274386,-14.485970014360646,-4.814994811728411,-12.0655162061812,13.480095567781973,-10.775282094490194,-14.689358230069047,-8.30684613289668
2025-12-12 20:47:10.128206,Right,-3.0693904753807146,-14.137846680156144,0.8071043370532607,-11.123222683110725,-5.18581451078353,-9.16610203425671,-10.378154920441375,-6.129134224811423
2025-12-12 20:47:10.132211,Right,20.604836308570157,13.040093250725477,32.11683549396196,16.693514977359882,-9.107379546385346,16.6015149073055,18.921103100469736,20.535107970867102
2025-12-12 20:47:10.135235,Right,23.46586091410427,15.624179691521931,35.516944934870025,20.943175611364495,11.744498803104761,17.46912199534154,19.501101409984585,23.62939862154235
2025-12-12 20:47:10.139218,Right,-3.23777217287261,-13.729786376759876,6.071846204330541,-7.4168919987068875,21.880681700840796,-11.175366697798836,-11.273982121427252,-4.103420566886598
2025-12-12 20:47:10.143283,Right,-14.351248041296458,-25.200158722849665,-4.105354807732965,-19.74950360873845,5.4261624463515545,-21.821055455874784,-20.416444204590334,-16.075328908137635
2025-12-12 20:47:10.147253,Right,6.616957888912111,-3.2082951078755286,18.51013442434305,1.6132393405005132,-4.686674193796534,-1.6013784842002678,4.219522467049501,3.4863846514472243
2025-12-12 20:47:10.152278,Right,19.30184487051065,8.202581591696799,27.473474907837954,14.732845382030064,12.765622270671884,8.074079207244836,15.607496908216945,14.285706618948097
2025-12-12 20:47:10.156275,Right,4.209972210821434,-8.693475001366096,6.872921052266065,0.1355890475178967,29.65158371585767,-6.949853654967228,-1.2519772612176894,-1.2333493281348638
2025-12-12 20:47:10.160330,Right,-1.2719805311298842,-12.15158491281909,1.3019803213974228,-3.3193977064129285,21.99369877889785,-6.827678275224628,-2.336178786261371,-5.317317636053076
2025-12-12 20:47:10.163318,Right,23.07060259696118,16.157195149386098,28.233429402955153,23.448705177911506,12.78446623749005,22.999734519499015,27.235593713461185,19.751025440895546
2025-12-12 20:47:10.167317,Right,36.83660017002512,29.951277141799437,39.25108894400546,36.90802422738625,24.649437273022613,37.421717635980826,38.11805744432604,32.077046885371374
2025-12-12 20:47:10.171287,Right,11.731241003290506,1.0092864797261427,7.508695969860128,8.646525712441417,34.16795782125064,11.595533221969276,5.574977612269436,5.18712645366486
2025-12-12 20:47:10.175345,Right,-12.93107083285986,-25.760236838225865,-19.241294765148268,-18.70525313225221,16.34992864018477,-11.000644328123826,-21.196433629989997,-19.941855347873116
2025-12-12 20:47:10.180356,Right,2.3001359007826068,-9.87548164139298,-1.3807380844209547,-4.127952585307526,-4.377881657376747,6.162663125960307,-3.8948403828717915,-5.210840675749296
2025-12-12 20:47:10.184382,Right,28.33619052340555,14.808015472101943,24.15232625033059,21.459177063368884,4.919211733212933,30.286329658169507,19.757987446044808,19.05286210966642
2025-12-12 20:47:10.189415,Right,22.427845838330086,4.641806834430099,13.965916621129509,14.650494127316506,26.441095925061575,22.217395846040745,8.381809508778815,12.238318560722291
2025-12-12 20:47:10.192354,Right,3.3486241066475486,-16.40353248534484,-5.179190839731746,-3.443820623883539,23.3887879840197,5.726021717955064,-9.761741080347747,-4.657352486662603
2025-12-12 20:47:10.196439,Right,10.715718431000369,-7.018769061844523,7.540321936847249,7.2793763361560195,5.0137018276763,17.181403093659355,4.260615227378821,5.692822690747562
2025-12-12 20:47:10.199424,Right,29.641468018178557,12.730115589425623,28.397688013370498,28.298749552277513,6.826188672642161,35.03240951693488,24.454334964701957,24.46642366854394
2025-12-12 20:47:10.203407,Right,21.10374107980806,1.2233444159655846,15.133984738309664,18.259829505885136,23.90137705711095,21.757602477636738,9.603756546471686,13.348730232222806
2025-12-12 20:47:10.207543,Right,-2.0443231316749007,-23.860378557016475,-11.034966212959262,-7.060269480818533,21.105145444540085,-2.5778190990508847,-16.754196264439088,-10.432451416467302
2025-12-12 20:47:10.212518,Right,2.47666506761513,-16.723350110463798,-2.700510196362302,-1.7391266012155029,0.4624970802401549,5.084557565957766,-7.393307482464479,-3.0841971552908944
2025-12-12 20:47:10.216469,Right,26.47328181232072,10.457944441009658,25.149338015908143,24.956004204696,-1.6128567482178369,30.62266191521303,21.025279962485,24.583322527723794
2025-12-12 20:47:10.220536,Right,24.64613027929647,8.459063735241614,21.387571666855365,24.359034427277038,17.373634113188928,26.84840120380659,17.24406177929268,25.151836267124963
2025-12-12 20:47:10.223460,Right,-1.0896894393424645,-17.67567801524706,-6.785302178268466,-1.9947257008197994,20.895856821817233,-0.5757640168721991,-10.876788046097317,0.5233434064884932
2025-12-12 20:47:10.227537,Right,-3.4614676081779407,-16.8909785405624,-6.568434752007306,-5.044668388810351,1.7275770344299417,-3.9358892136187933,-11.381150247759251,-2.4440458884873806
2025-12-12 20:47:10.231533,Right,24.197433003184642,14.415013963855017,23.78531347608441,21.846076891487428,-4.1098898964692125,19.536129958401943,16.52129732490448,22.20853932895625
2025-12-12 20:47:10.235558,Right,37.04430576388677,27.042355394820333,33.62529094533966,32.880047241051216,16.083967910140018,25.91248847163115,23.854887954516016,31.38528309881076
2025-12-12 20:47:10.241573,Right,21.745593655635275,10.320562531352152,14.499085406052473,16.3139313974807,28.462373581165593,8.521907722030846,4.773133725424486,15.052929684401533
2025-12-12 20:47:10.244561,Right,18.009037428203555,8.957607823511353,13.183408065582626,14.206799856647194,15.250409151696658,8.557271772056993,5.541394837096959,13.324444452515309
2025-12-12 20:47:10.248601,Right,40.65388567308287,35.90254488370192,40.81165484059602,39.9339014637535,6.411686827278572,33.97886734428994,34.27713094190949,37.88623402540179
2025-12-12 20:47:10.251629,Right,49.788980140673175,46.135718692135015,50.12089944672334,50.133544621965484,22.033071274168833,41.12455115859575,42.7686343176556,47.22569589615159
2025-12-12 20:47:10.255643,Right,24.45376123622009,20.053254599596585,23.1004363892971,24.382810365812475,33.40193027618625,14.527584121045038,15.233314529828931,22.962958826286922
2025-12-12 20:47:10.259652,Right,1.7867966099388468,0.05438052690442419,4.602192427711998,3.7585274967677833,15.970220111118579,-3.9961042495324364,-1.8125317200192512,4.616857814282412
2025-12-12 20:47:10.263620,Right,9.477401922059471,12.821741704264241,19.891604786920652,16.465610692735936,-4.054790089463495,8.901170896840995,15.815140860140673,17.996950902128447
2025-12-12 20:47:10.267693,Right,17.905081198269272,22.870575900874428,30.651583019767713,28.912342452607845,3.3044745376100764,18.221565468761582,28.230987059750987,30.44591622793814
2025-12-12 20:47:10.272707,Right,-0.2611715382508919,2.7383949033537647,10.295160400561144,11.788062258219725,17.909742318835015,-0.8682994640012112,8.786808483371715,14.817122981581633
2025-12-12 20:47:10.275648,Right,-16.199365892536207,-12.969289155633305,-3.796735246287426,-3.738525801385549,8.518893947972174,-15.2766955880752,-5.090068928473556,1.4749333201725676
2025-12-12 20:47:10.279723,Right,1.3585713971706355,8.180222526818397,20.221854915227595,15.043647759881424,-8.490270827196582,3.7486431688093944,17.460810899090575,21.008364499946765
2025-12-12 20:47:10.283717,Right,25.11352700489124,33.676731589541305,47.12153966173719,38.983683072030544,-0.4266441355821371,25.057584951277022,41.11928581369466,45.17078780983138
2025-12-12 20:47:10.287737,Right,16.476082075600516,23.31525028156466,37.15804905648474,28.781735537453642,19.348623693696936,13.437667315887666,28.14917960208186,37.345127976466756
2025-12-12 20:47:10.291753,Right,-5.835571799108038,0.6947760121347528,16.822654248691833,5.764584809974622,15.001946422492438,-7.220615189544333,6.577184909303469,18.46905235770464
2025-12-12 20:47:10.295742,Right,-3.161217554522864,6.486932874531703,26.63744219309956,10.12615308958084,-6.052991545739133,-1.0373277564121963,15.77612331662931,25.683030599411723
2025-12-12 20:47:10.299770,Right,10.80700342119826,22.355062064343656,45.09570099836128,25.887386786940624,-7.672707042994261,12.143393948142148,32.615727170596074,42.31489520964533
2025-12-12 20:47:10.302788,Right,-1.7624271138874974,8.179333644940925,31.222670967123122,13.296826290506942,7.950106890078132,-3.77871215293726,16.962637801239907,30.69577699681031
2025-12-12 20:47:10.306803,Right,-27.652530821580058,-17.980096542107276,5.293991890874167,-12.490712055991025,6.501472288885452,-28.737115230668678,-9.079652051925223,6.159468910507712
2025-12-12 20:47:10.311828,Right,-23.17112258325642,-9.243433624687896,14.694364175469673,-5.803918858719044,-11.469527121487772,-19.337971675260633,1.4039771703537554,11.971033110421558
2025-12-12 20:47:10.315835,Right,5.199589643076706,23.284767477434798,46.08402435443713,24.77200280523357,-10.374938208386084,10.94518375962707,33.09308135770334,39.20233134167211
2025-12-12 20:47:10.319860,Right,10.542243300212249,28.31405073704991,47.89559228665166,29.477262141366737,12.489307779709634,13.728651361526317,34.35062105290126,41.11971753117905
2025-12-12 20:47:10.323838,Right,-10.362089419708354,5.924785670784331,23.35504483112163,6.269441291537078,19.306499978985812,-8.610608310450516,9.96777977230704,17.40449754949441
2025-12-12 20:47:10.326851,Right,-13.70308551498374,4.013824050161929,21.960560868523316,1.580870536792645,0.2595887792549547,-10.872166611513421,9.18960029666232,12.497699239240319
2025-12-12 20:47:10.330851,Right,8.539098777406707,27.461249438865707,46.16946470324183,22.554272844296065,-9.112509641918223,9.861711980121072,32.473481191631436,32.12078159448356
2025-12-12 20:47:10.335856,Right,14.4725190289887,30.15669189827895,48.14989062672248,25.105287804281033,6.269304187861053,11.139447903099608,31.93382562975239,34.39666947027945
2025-12-12 20:47:10.339834,Right,-7.605429320343319,3.717452326676721,21.760131422211998,-0.8360336187779467,14.825020669761216,-11.989737673486161,3.6509731263322465,10.914888755072752
2025-12-12 20:47:10.343906,Right,-16.920322597065933,-5.659281957610801,15.070118506766448,-10.957008643357767,-1.0327189817689941,-16.59188379115494,-3.6132907173087006,3.3740070613457647
2025-12-12 20:47:10.347898,Right,2.0372942864164543,15.547984021612137,39.26014149213006,9.937946972673672,-12.125651503618428,5.704585670916458,19.512515275982878,23.948407510462857
2025-12-12 20:47:10.351847,Right,10.07254923481105,22.715306065372715,47.08147679947433,19.274631730786496,2.325307921555577,11.11681169845724,24.965540347693604,31.16477999572089
2025-12-12 20:47:10.354914,Right,-12.017395774299985,-2.144153461271344,22.129775420500664,-2.7298867137033085,15.83439114882458,-14.144811516113805,-2.0262796326860553,7.835011620991281
2025-12-12 20:47:10.358929,Right,-25.93605422947121,-15.014677955623483,10.919052656769054,-15.02121457665271,4.575555019606327,-26.135101889703037,-13.837492211354402,-5.293943193766609
2025-12-12 20:47:10.362927,Right,-5.88663293293439,9.823433459139778,37.59750947959401,8.783524956161273,-7.125281934060695,-2.256710073036629,12.67324020394517,16.69076323774061
2025-12-12 20:47:10.367938,Right,13.701382385710076,32.17824607618604,58.908627268836426,30.983390032350144,8.230261598821016,17.828579680577604,33.68720489059342,37.35008815067704
2025-12-12 20:47:10.371938,Right,0.7580575776928526,18.391024749264034,42.10116660108906,17.39080868891324,28.618793652975,3.6007878299978984,17.710697670598165,24.64580577277593
2025-12-12 20:47:10.375976,Right,-17.002352293693548,0.3740675006301899,22.38118830914027,-2.4080110726608837,21.40997107864132,-13.815938198367803,0.23497145722285495,6.93388539073203
2025-12-12 20:47:10.380062,Right,-5.318571901616451,13.580897926131001,35.218499279588286,7.839121555130987,2.88318920110396,-2.575054316927435,14.629023895726277,17.515775387390022
2025-12-12 20:47:10.383002,Right,13.04294775253311,31.24576789547791,51.08269972552807,24.58980111483106,8.06042357807928,11.315864018620232,30.218703574992105,32.99472595848056
2025-12-12 20:47:10.387022,Right,3.304071954204119,17.72993159075486,34.20898497689632,12.612428265510971,27.139378728170414,-3.17674487720069,13.284150726976804,20.476359752261487
2025-12-12 20:47:10.390980,Right,-13.474452340442895,-1.1799242059969401,13.146371073482442,-5.078536536977481,26.01804194997021,-19.712308842888888,-5.653983551786951,2.8102183635164693
2025-12-12 20:47:10.395000,Right,1.013269757848775,14.646658460282197,28.610733919747872,10.575397186181362,10.670872988936026,-2.6846463750116527,12.663424295184086,17.026104510925506
2025-12-12 20:47:10.399989,Right,28.139129253984265,42.21746510822777,55.38067428940121,38.288133511054184,14.074748423116034,23.078524538685087,40.37346046597304,42.78492896199168
2025-12-12 20:47:10.404031,Right,22.166576975112093,33.61273167347099,45.31372661450587,30.44442379539396,31.132848691406252,13.259659095276675,29.42025426220789,35.81592457275838
2025-12-12 20:47:10.407063,Right,-7.784891639073976,2.342205182885664,14.427945600265957,-1.582860388334666,26.212409091898735,-16.534580783581077,-2.3069162865976978,7.353253439214313
2025-12-12 20:47:10.411103,Right,-13.525928607548849,-0.4981222396127123,13.979684959922452,-6.958909286371636,1.3164348705377051,-18.442431678259254,-3.404070958480588,3.9289324209712504
2025-12-12 20:47:10.415023,Right,6.812433250516733,22.580897317300696,38.0397963753494,14.810652903965092,-3.988951814610118,2.7129643385815143,19.183785037987036,23.934612207765895
2025-12-12 20:47:10.419090,Right,9.979114512186698,23.9882535298093,37.387526997154055,17.57307383908119,16.373682058918348,2.3761069487472923,17.217296548848026,24.057580371252698
2025-12-12 20:47:10.423091,Right,-9.299382337161205,1.466888265673333,12.304057848392404,-3.64669984525608,24.341923554435198,-19.189479362006296,-6.916964980397097,1.9496292967050977
2025-12-12 20:47:10.428112,Right,-10.016819495094296,0.6506971364979108,10.350311472542671,-5.565361555160052,7.313390144825462,-19.255683749630407,-6.128720363230968,-0.2802384253554919
2025-12-12 20:47:10.432114,Right,14.006953808484013,25.93940446337001,34.153396970617905,17.920213762972708,-1.2504881126478722,3.8240828465004597,19.633603302847405,22.153917926741997
2025-12-12 20:47:10.435147,Right,18.869543099438033,29.479799933757022,34.3775236133697,21.22057543943083,13.27957126092042,5.007281571792191,20.463640021676838,25.215220289730496
2025-12-12 20:47:10.439147,Right,-7.374714546289852,1.1890832503631827,3.1157159942449653,-6.793224449345871,19.529896665131673,-22.475826762810357,-9.591225257754559,-1.2234595971458475
2025-12-12 20:47:10.443150,Right,-19.62331400643143,-9.788080118200014,-8.297375498907058,-18.51223546516667,1.1000655917177937,-31.39899155036983,-18.378352051038746,-11.877149192372599
2025-12-12 20:47:10.447195,Right,2.841738642445762,15.262953416433447,17.000772933686676,6.301267074899442,-10.348482567235806,-5.941383257415509,9.597101795501658,11.624705773625465
2025-12-12 20:47:10.451170,Right,19.16218523132602,30.660893178355764,30.532753753097495,23.602850497463805,6.843130386125267,10.043334653830243,25.31709406850132,27.359752695905627
2025-12-12 20:47:10.455135,Right,3.2384146431268164,11.590466999943601,8.563126416775049,6.598910079357665,23.58567930616573,-5.53746664951268,6.2295724018204055,10.997160678194632
2025-12-12 20:47:10.460212,Right,-9.12535126055991,-1.109994623788225,-5.253167801332893,-6.377087848401061,13.015323536094002,-14.375144346757224,-4.235060298964527,-0.8991610490193125
2025-12-12 20:47:10.463215,Right,10.438851444984266,20.120441498867876,16.212339565936418,13.74752820262438,-1.4808876480365143,6.744642802636918,18.546882490125427,17.776118125177163
2025-12-12 20:47:10.467226,Right,28.622393392039612,36.71898077027072,32.140107612649444,31.467340507497283,8.491640759011716,20.54405095493621,32.9628574471717,32.89600399385381
2025-12-12 20:47:10.471231,Right,13.231064863178744,17.14321897183254,11.679370951474993,14.56301864107445,23.611616544574645,0.4046538675429474,10.959305526404933,15.983575159480097
2025-12-12 20:47:10.475212,Right,-6.302114470581728,-2.757995040377864,-6.950652743107639,-4.336102297591424,14.12309502701919,-17.491959943947222,-7.091320153418565,-0.3344957231056469
2025-12-12 20:47:10.479274,Right,5.215508428827434,13.359552958179847,11.732052910610946,10.646592476803562,-4.258492621280311,-1.0083129323575122,12.510050490856884,16.595058831157075
2025-12-12 20:47:10.483279,Right,22.63268226689479,34.293715751424315,33.507903868223366,30.559326587796022,-0.05589410970969766,17.763049054076873,33.00014282109805,36.993504377431236
2025-12-12 20:47:10.488239,Right,8.627705267115743,19.960783709513635,18.546796123668173,15.604748198005836,15.19139323717991,2.388635921110108,15.007782797782056,22.974455888703233
2025-12-12 20:47:10.491297,Right,-14.902830513357912,-3.4286120997312537,-3.8385707248926337,-9.925123595143305,9.180757313381037,-19.84113514471028,-10.330862891574725,-1.2628401838592254
2025-12-12 20:47:10.495330,Right,-6.039995304160129,8.36821462228545,10.74562061310644,-1.2985004695237876,-9.188283357703767,-7.829511319670019,1.6401716764576122,6.558416715495696
2025-12-12 20:47:10.499336,Right,19.971306236031978,35.942779223943944,39.65468609869458,25.412571559751086,-4.635248764551761,18.422783825671104,27.957888359082062,30.182097182674624
2025-12-12 20:47:10.503341,Right,18.34555120782943,32.09810879753422,34.94916374139575,23.949200093777108,18.60039327584309,15.410005393379834,21.790702995362153,26.184019533702667
2025-12-12 20:47:10.507365,Right,-4.052515431413667,8.132852884995373,11.031753176683196,2.489678739470037,22.629159336223893,-4.710482109300756,-1.3280364055226528,4.0664481629864895
2025-12-12 20:47:10.511383,Right,-4.341448354988188,10.274007439471461,15.460213717315128,5.121613532486663,4.031873573007033,-0.07031527296112472,4.856039835198317,6.357533425523798
