timestamp,label,FC3,C3,CP3,Cz,FCz,FC4,C4,CP4
2025-12-12 18:22:12.957716,Right,2177.6920670015156,2609.852684156493,2576.7784237814094,2358.38626239713,1411.09283486457,2195.7824730452758,2432.1762410433394,2682.4695532290716
2025-12-12 18:22:12.973701,Right,11722.411254987146,14048.688759817553,13870.744997280088,12695.316246510161,7656.296053510057,11819.193262642342,13091.813263913844,14440.251818629164
2025-12-12 18:22:12.977795,Right,26844.522791146286,32173.810551875464,31766.579350911798,29074.126751444775,17730.033344637406,27065.281408466777,29980.925772225502,33072.14009819335
2025-12-12 18:22:12.980722,Right,33558.135630638826,40229.52174382898,39720.62649863225,36350.310023457845,22487.164001450907,33835.09959673406,37484.99822113439,41353.32685597074
2025-12-12 18:22:12.983740,Right,22765.043532290867,27309.98541885837,26963.979870041192,24667.350456536587,15484.962637106408,22957.28388668185,25444.27714630396,28067.723985192424
2025-12-12 18:22:12.987806,Right,2725.8382754791237,3296.1769580698165,3251.9629912108066,2962.3600264471024,1826.6244926242653,2752.8379519461014,3068.6219519337465,3373.1609662684787
2025-12-12 18:22:12.992828,Right,-12382.32721407729,-14831.490077458613,-14647.994768632983,-13411.883517151233,-8572.935255272547,-12492.05277949135,-13822.203853779327,-15263.498643898405
2025-12-12 18:22:12.996839,Right,-16258.171306593635,-19497.558874572336,-19254.228941715555,-17617.760661951907,-10898.69249365144,-16413.3962229499,-18172.48267034709,-20050.338677542983
2025-12-12 18:22:13.000779,Right,-11676.579725787858,-14001.794103920809,-13826.18127822585,-12651.410591806401,-7402.404425499786,-11791.990286160028,-13053.574801942974,-14392.39956110483
2025-12-12 18:22:13.003821,Right,-5019.771472448541,-6007.017868426396,-5932.649573927978,-5434.26250474737,-3081.9824652170064,-5067.808404447511,-5601.23532286624,-6176.8127215188
2025-12-12 18:22:13.007850,Right,-1363.5946073149098,-1625.6334481684025,-1608.3159035268473,-1474.9733743495308,-1059.4844766980386,-1377.8238805901492,-1513.8182119043777,-1677.358513562358
2025-12-12 18:22:13.011874,Right,-2137.1310770440614,-2565.252501202631,-2536.4175438479288,-2316.253766478505,-1517.021631625481,-2163.9204977578484,-2388.1264467383735,-2638.4186659742845
2025-12-12 18:22:13.015888,Right,-5187.538562010275,-6220.335272106924,-6144.253788212314,-5617.112452976173,-3168.858541098889,-5239.322472767555,-5795.332145011635,-6389.041706354939
2025-12-12 18:22:13.020903,Right,-7092.9886628380045,-8493.17098241055,-8388.38263290166,-7676.579548784182,-4496.177395068167,-7152.104893398238,-7912.377387783723,-8728.124162463238
2025-12-12 18:22:13.024918,Right,-6274.640592650976,-7515.735721622943,-7424.494520978769,-6794.268400799367,-4364.157758510788,-6325.885762065765,-6999.550286137033,-7729.226750966045
2025-12-12 18:22:13.027898,Right,-4123.706172861392,-4952.221262944397,-4893.014166467823,-4471.752736439579,-2918.193212189246,-4165.805405582301,-4612.350405844627,-5091.474339133478
2025-12-12 18:22:13.031937,Right,-3041.0274676678237,-3653.606011518161,-3608.23788938066,-3297.844351338572,-1764.027226650971,-3076.425501156831,-3406.4226923531387,-3750.591774459579
2025-12-12 18:22:13.035890,Right,-3705.9968475716887,-4434.520782496431,-4377.077480292646,-4011.7740817915183,-2168.1544171061832,-3738.4960596194724,-4135.324738558382,-4555.946622282499
2025-12-12 18:22:13.040974,Right,-4676.608604642213,-5594.995249409694,-5522.124920415576,-5063.821275552502,-3270.658763814601,-4714.1514347175835,-5214.69474744203,-5755.586883150507
2025-12-12 18:22:13.043959,Right,-4466.040035786806,-5357.015906940214,-5285.801297516562,-4841.700046298909,-3251.8155653502326,-4510.260297644534,-4992.674020945793,-5508.361430496676
2025-12-12 18:22:13.047981,Right,-3332.5370070340578,-4001.3910634692293,-3944.819315642817,-3612.503711717087,-2056.229262794601,-3370.820339634316,-3731.435534295393,-4105.908910172759
2025-12-12 18:22:13.051985,Right,-2690.5680215607863,-3215.072834216524,-3167.6611896941904,-2908.864001535112,-1442.8558391882107,-2713.2008506681304,-2998.0235873392085,-3297.555198685266
2025-12-12 18:22:13.055933,Right,-3156.004496490117,-3764.953363040928,-3712.8530975375324,-3411.620319411042,-2186.238690906437,-3174.4252754752524,-3506.411263732123,-3871.752518377267
2025-12-12 18:22:13.060005,Right,-3805.4515288418625,-4558.165212417953,-4498.315515653696,-4122.749748598668,-2906.1517597159836,-3835.921802822035,-4244.037306779763,-4689.775825996418
2025-12-12 18:22:13.065010,Right,-3500.74801874056,-4203.984628401697,-4148.328499234514,-3795.7505408854922,-2353.252170848078,-3536.046872831881,-3917.2012443079147,-4319.01670018374
2025-12-12 18:22:13.069028,Right,-2443.794123643427,-2925.6024822662584,-2885.1862562396564,-2644.173418604303,-1337.1905967139173,-2462.9466453561326,-2728.3524879440665,-3003.148460145807
2025-12-12 18:22:13.072017,Right,-1884.3248739697738,-2243.429789754795,-2212.63670339901,-2033.750445429585,-1273.1482936538523,-1887.7261706158752,-2090.570600039093,-2309.897448415635
2025-12-12 18:22:13.075980,Right,-2392.1068270279793,-2862.139191461494,-2824.9089552429505,-2588.5396908449475,-1965.4235201610718,-2402.098044436658,-2664.801413441426,-2950.1565251415595
2025-12-12 18:22:13.080054,Right,-3064.5194111950696,-3681.583969516447,-3633.0095130975824,-3320.7864371828036,-2166.2904309610603,-3088.7755201187683,-3430.1072550161043,-3786.3056894876063
2025-12-12 18:22:13.084067,Right,-2780.6846713279374,-3335.0189079928678,-3288.4874787949957,-3009.072074393742,-1605.8282257119427,-2800.7255685608834,-3109.668814548757,-3425.6061335431878
2025-12-12 18:22:13.088088,Right,-1763.1082726459717,-2103.732670165831,-2071.8155177263543,-1903.4760836509522,-1125.7309078187682,-1766.9919760342455,-1961.2980895355577,-2165.335726071382
2025-12-12 18:22:13.092078,Right,-1248.1967743200948,-1493.7909142151475,-1469.4855554052629,-1351.1579937594943,-1172.8986691145692,-1250.2371544345515,-1390.855892694788,-1542.8129356619902
2025-12-12 18:22:13.097130,Right,-1740.3970677844482,-2098.362626376329,-2064.7709152774187,-1890.1206607957138,-1363.862061523134,-1755.3112250741106,-1955.2415429203538,-2158.6280393488705
2025-12-12 18:22:13.100112,Right,-2339.7406661517452,-2813.9028942697914,-2768.715762651176,-2536.4061938440427,-1385.2236992260441,-2358.214378399658,-2624.0660643622978,-2887.887947225012
2025-12-12 18:22:13.104115,Right,-2058.600039387122,-2465.0014500985853,-2423.454088598024,-2227.0796505840262,-1311.5079519953579,-2065.13426979864,-2297.795554245007,-2532.224114674027
2025-12-12 18:22:13.108126,Right,-1187.5414662308758,-1424.9555240517948,-1397.3404361119028,-1286.2812558460282,-1123.7453202859033,-1185.952311720117,-1326.0246785851195,-1467.0988100498216
2025-12-12 18:22:13.112151,Right,-796.9732198206475,-970.8375653863186,-948.6915545894299,-867.6809464303078,-783.1446191761643,-800.1241973537253,-903.2763059634017,-994.999537270749
2025-12-12 18:22:13.116166,Right,-1209.868089691503,-1464.344584743958,-1434.6526455533458,-1311.559649185976,-647.1015381139587,-1216.5211565439822,-1365.0025243922137,-1495.3713871802902
2025-12-12 18:22:13.120155,Right,-1646.3383115705801,-1974.2799723524367,-1938.4440404685447,-1778.3851355470251,-979.7128583046142,-1646.5346883567981,-1838.2970797710586,-2022.181804606691
2025-12-12 18:22:13.124115,Right,-1395.1372373970225,-1674.1511822631583,-1644.2087702415884,-1508.1655259253457,-1254.0001033392618,-1389.5266919560963,-1554.1375509365462,-1719.024559413083
2025-12-12 18:22:13.128222,Right,-739.5175198935904,-902.4129036105005,-883.2546352805803,-803.5799666105304,-850.0018109138473,-735.5630457258085,-833.8898082264932,-921.2670339387842
2025-12-12 18:22:13.131207,Right,-445.94702842412516,-550.8925082193455,-535.3421222093748,-483.59917916031554,-223.36961312009953,-441.9315870840801,-508.825618756935,-550.9782036052784
2025-12-12 18:22:13.136218,Right,-713.7647419024725,-856.3727346356027,-836.8765604053624,-766.8555342952022,-316.31159498152556,-703.7986179607688,-794.0563988538925,-865.4965421113884
2025-12-12 18:22:13.140224,Right,-1019.2696111215046,-1218.677529923967,-1196.3517385902815,-1098.057553216233,-942.8144673342467,-1008.4552713762969,-1129.5383311006008,-1245.2192690719385
2025-12-12 18:22:13.144243,Right,-877.0841334540164,-1062.1640446601668,-1042.9950847248547,-950.5567433349788,-985.6438333786791,-874.3928568945266,-984.3870613480685,-1084.8995685289847
2025-12-12 18:22:13.148193,Right,-415.267998191237,-513.1190021741204,-500.1921526021324,-450.9903219579719,-261.9257234960678,-416.0663252682425,-477.9281341661699,-515.8110608337447
2025-12-12 18:22:13.152242,Right,-127.70852130645653,-153.4709811139619,-144.75333911541384,-133.69563082436798,132.53100870992057,-121.47562171926256,-147.1569341388531,-149.91206200339366
2025-12-12 18:22:13.156265,Right,-245.0194952970487,-285.9113186459872,-277.05440847872524,-260.48550029768376,-332.1835743950214,-236.48666547588073,-271.42348152655177,-297.96448601427255
2025-12-12 18:22:13.159329,Right,-492.1842357519199,-595.0482268310734,-583.4727900032303,-535.3813151544309,-753.5344776212005,-494.9857894954621,-560.7986972430954,-620.4570446697762
2025-12-12 18:22:13.164315,Right,-457.21983723161975,-563.1467843350256,-550.8180715764174,-499.8246369417175,-378.76445859184605,-468.69502380338963,-534.8717933267471,-581.8896476317896
2025-12-12 18:22:13.168328,Right,-105.36654593527783,-131.0215534272138,-122.6599038526765,-112.24551096418872,163.00789437873755,-108.74197019432904,-133.8366625009803,-135.13060505414614
2025-12-12 18:22:13.172311,Right,184.98598808271345,226.6449051197269,229.62294502102304,205.58000151999295,52.4764241813391,192.96362685220083,203.25061871868093,227.18330754502676
2025-12-12 18:22:13.176296,Right,123.03741089699906,141.37642149307067,143.3193426852813,132.5435621070501,-333.0226468751207,128.01112160735647,128.88814005139284,139.13185000611702
2025-12-12 18:22:13.179384,Right,-105.15043731787591,-145.02615983525175,-140.28591991995927,-119.42667788438848,-227.79149255578523,-108.53584269285784,-136.20649316805066,-145.07736121310154
2025-12-12 18:22:13.183363,Right,-102.64209425626905,-134.05387197289383,-129.64963597041788,-113.08151478739455,154.73166004705126,-101.48781661473913,-125.30390292734955,-126.2625550251978
2025-12-12 18:22:13.187403,Right,180.31592120837013,218.55246848103707,216.7620208216249,196.62066464766394,151.4056502923777,192.94761427534104,206.52086161708576,232.30738839774858
2025-12-12 18:22:13.191438,Right,400.107635535358,476.45584537457034,469.07318555554957,430.02324187240447,-83.08645370476734,412.31474941012857,450.3962459387549,493.29523440818593
2025-12-12 18:22:13.196353,Right,338.01219742756075,389.45361256706383,382.931894432797,358.79458131052525,40.93115677505557,340.8344915901471,369.41069512649847,409.84591281973553
2025-12-12 18:22:13.200407,Right,192.90223419328686,221.1079199943706,218.0884299908248,206.72013870390037,360.73581722937706,196.02736048158658,211.49408043720905,243.82068628688467
2025-12-12 18:22:13.204436,Right,238.13496293147546,289.57522148001954,285.82778665959995,261.47687322030833,286.8001826218024,250.78635863467935,277.4010728203539,311.39318485646436
2025-12-12 18:22:13.207415,Right,423.9553754779772,508.80947767404723,501.08887465382577,458.9806642895128,-11.38880764564965,437.1527982693733,484.7654100248037,531.6058584026323
2025-12-12 18:22:13.211425,Right,522.0802940235444,611.7411140371551,602.671799339907,558.9345535242755,116.82997214775241,525.0144621091895,579.4292155368021,640.5729111978144
2025-12-12 18:22:13.215418,Right,495.1835541992914,580.9760360854561,573.3800985917333,532.1219586973311,547.7928537697735,494.3398625700793,546.1377238373971,612.8397752396413
2025-12-12 18:22:13.219374,Right,484.7814891837479,582.7516829571105,574.5494928494736,526.342566920328,558.7726475425006,490.2806052509113,545.119984295743,607.1600337028503
2025-12-12 18:22:13.224445,Right,535.3166940278606,642.1471228834707,630.6910782236373,577.7156180774618,169.82739518739982,541.2757598290627,600.0498583899753,656.2089443187579
2025-12-12 18:22:13.228478,Right,571.6601730024267,668.7567507755593,655.7381240862887,608.7482653945917,140.6907481957751,568.1298301000206,622.5753108901554,681.9167613299214
2025-12-12 18:22:13.232479,Right,597.2567568429513,695.3840984461713,683.2071694040205,636.0343756739749,583.3001937043155,590.8835737851914,643.6005520509207,714.9760189268854
2025-12-12 18:22:13.235477,Right,681.948599685682,810.9227659512544,797.9480706772301,733.7417362376,752.0906949635246,685.4121651877649,750.6951199248433,832.575036064256
2025-12-12 18:22:13.239448,Right,772.845660045452,925.0288550606929,908.8872718884959,832.1732664435985,408.0348862206447,781.7509964309866,859.9971858895733,942.7548505358864
2025-12-12 18:22:13.243495,Right,743.8620523739955,878.2196310924483,860.6887989590177,794.7763445745804,236.92908352811355,744.256894700462,817.9576365337707,894.8056443567039
2025-12-12 18:22:13.247510,Right,643.1868012875784,753.6127658049809,737.3925107854884,685.8739652271615,571.4942062837654,636.7048708155053,700.6066676074988,774.0263978394214
2025-12-12 18:22:13.252462,Right,666.9349623675807,796.9552288172417,780.1776445500436,719.0889221405378,805.4284881819622,667.6504745591665,741.2183898732183,819.4878120203502
2025-12-12 18:22:13.256521,Right,839.7968490550411,1012.9509648102103,992.2416341275675,909.033523035876,554.046062218491,848.7563314359286,945.854036079545,1034.8622331564547
2025-12-12 18:22:13.260511,Right,941.2048752955161,1122.8208948732354,1100.0821158695035,1014.0039097850677,353.8370816477109,945.4948800227721,1050.6461339811794,1147.8486934524262
2025-12-12 18:22:13.263534,Right,841.1684980979771,993.6965797182638,974.1117772826692,904.7660736745456,610.6815913419705,838.5263420587871,929.7390929642133,1025.4931403762894
2025-12-12 18:22:13.267571,Right,709.5530136678135,846.7297465753509,830.747837261064,769.0950267909793,825.7385171343922,712.4692588481121,793.0695286219707,881.1882785091875
2025-12-12 18:22:13.273583,Right,755.3718652393436,912.1786252635065,895.1830489042914,821.7897556744283,575.6794395729667,767.6477809275966,857.4023141599027,945.1569151766598
2025-12-12 18:22:13.276614,Right,917.7419179981807,1097.3729955402669,1077.4641102743335,991.4239969495684,361.5892253908678,927.6515834603924,1032.19324964541,1133.5470307569485
2025-12-12 18:22:13.280594,Right,980.4105087673524,1161.073462645174,1141.574522117735,1054.8140550552635,663.9862443464808,982.5879981955513,1089.412538432749,1204.7622063227464
2025-12-12 18:22:13.284640,Right,889.5583786841016,1060.622518763179,1043.685164207709,960.9831881788559,974.2885117164114,894.1137367493939,993.1667809531791,1103.8889911150327
2025-12-12 18:22:13.288711,Right,792.191581931198,956.7240827474743,939.5796812925255,859.5943696799222,700.5515645619016,804.7677683262154,897.6685798901599,989.3140119608724
2025-12-12 18:22:13.291652,Right,809.222403897089,970.3788412858266,949.8748792320257,873.4762357283616,314.62263237620937,820.5151919330237,913.1816867608577,997.3405179294059
2025-12-12 18:22:13.295711,Right,908.4546408444876,1075.8344233297976,1052.4481518638786,976.4128572886111,546.2926035744604,912.8543657632545,1011.1368498223601,1110.9722662625136
2025-12-12 18:22:13.299683,Right,982.8652226295089,1170.990103520453,1146.389008166967,1061.7775624833303,1031.619058262324,990.0147384870797,1097.8723599317018,1214.5032052007737
2025-12-12 18:22:13.303691,Right,960.8422718653455,1160.6541652906453,1134.9491821287666,1044.4797302305233,923.8060465102317,976.9531073465478,1088.6639112475095,1198.3321744852
2025-12-12 18:22:13.309687,Right,863.0921212483663,1041.6374068114674,1014.9009966244921,936.3560747642769,413.51831627089996,876.9509209000971,978.8393485759152,1067.5140448034508
2025-12-12 18:22:13.312642,Right,807.0091327376431,959.6352338443976,932.7718373622047,870.3011138103902,397.3312000799924,808.759823553497,899.7375038538594,984.4955423306674
2025-12-12 18:22:13.316712,Right,894.2525365273468,1064.891073372215,1037.254029382486,967.4130310893524,880.1196983065456,893.6779485651059,992.9539493648335,1097.7157642780803
2025-12-12 18:22:13.319713,Right,1044.1686555014458,1259.7191789682256,1229.30458785675,1135.7825542067876,994.4240115269786,1054.0088750434807,1172.9883898928529,1294.241995930206
2025-12-12 18:22:13.323721,Right,1047.0000680431258,1264.6889989912743,1232.4877068717033,1136.6473582554609,566.5540950733703,1060.6950121013215,1179.3659826938529,1291.8465788408648
2025-12-12 18:22:13.327739,Right,865.9753392577404,1033.267754529952,1003.4741724394262,933.3756966331275,382.08556780719664,870.3534631060902,963.5915540832793,1056.0239130975679
2025-12-12 18:22:13.331734,Right,746.0993410551455,886.4535144362599,860.0401394905057,803.4441341834608,737.944548413041,745.6742243306944,824.2751654086169,913.2840314793866
2025-12-12 18:22:13.335756,Right,874.8187716116663,1054.6525894089136,1027.1346576586366,948.6257233215729,959.2589588040719,883.1457367447438,980.9864196192939,1086.4011924546212
2025-12-12 18:22:13.339760,Right,1071.9285626447527,1295.4843617659062,1264.2563714734279,1162.1762923114002,681.4112947783433,1086.5806670144666,1208.7212123224745,1327.4528556794394
2025-12-12 18:22:13.344782,Right,1037.2505485197762,1240.3077197149396,1209.7163538255263,1119.167111068964,465.7102498728782,1044.662842957303,1158.8859751562122,1271.1761671293061
2025-12-12 18:22:13.347793,Right,813.8911742509808,966.2309689470567,940.9555899831466,877.6539663652657,683.8417300395668,814.2316410449566,901.2495423362125,996.9107777555473
2025-12-12 18:22:13.351802,Right,729.542886841693,878.3734434605576,855.6567597633693,793.2693647646811,848.2592526460066,735.2518751831958,817.4499671561643,907.3021533770952
2025-12-12 18:22:13.355824,Right,890.8650318539003,1080.8346975671593,1054.8592297809664,969.7170137942303,610.1018721786095,902.2329730633646,1006.764939235989,1107.615054994356
2025-12-12 18:22:13.359837,Right,1029.6481274040416,1236.5791421348695,1207.9012952919584,1113.9876852275338,446.7483520011883,1033.4019501085859,1151.5797871946124,1265.0739981273655
2025-12-12 18:22:13.363794,Right,930.6368665348273,1108.8476162760053,1083.2029755294789,1004.5198945282027,710.7487580630695,924.3199323940789,1029.4505013495218,1139.8535591650289
2025-12-12 18:22:13.367864,Right,746.6636307516601,898.3517802923452,877.1557531119324,810.900537816924,899.1829526661895,743.3553674803115,831.6198088866659,924.9826039024629
2025-12-12 18:22:13.372867,Right,731.6742801733781,889.9780413219705,868.4033828661777,796.8054790926399,601.9190763779916,736.2906577207614,826.0519094560295,907.9276207464281
2025-12-12 18:22:13.375892,Right,862.7462223847397,1036.517569417134,1011.5208998636808,931.6438387938542,337.9171901267255,864.0307324674213,964.3306429097429,1053.0031297388487
2025-12-12 18:22:13.379896,Right,925.4983319587773,1098.7928336530458,1073.0835799085908,994.1730213019764,619.1807006709278,917.9801126229577,1019.980389908189,1122.0489954554942
2025-12-12 18:22:13.383846,Right,847.8780593489064,1013.0869728934485,989.4753636105452,914.3236955895554,950.9915431202389,842.0596320532495,937.4605250929017,1038.2483106378932
2025-12-12 18:22:13.387913,Right,750.7906826095423,909.6636793517973,886.819707820192,814.018617455964,701.7628365389537,752.7205154628027,842.4226155709475,926.3420524436515
2025-12-12 18:22:13.391926,Right,732.5956928901142,881.884124211967,858.1257384042256,791.1646991746966,290.4596592060989,732.044097314938,818.7654534669127,891.9965725915972
2025-12-12 18:22:13.395943,Right,771.7163350975607,915.4031902037095,892.1736433592159,830.0976899465313,455.6484824011568,761.8313945506234,848.4872101140209,930.4006104478613
2025-12-12 18:22:13.399954,Right,811.2179381765891,968.1772390902042,947.0623668686021,878.000601660111,896.6192534615984,802.641439629253,894.8101444987115,989.8762077009305
2025-12-12 18:22:13.403985,Right,811.43833598122,984.6350791843142,964.7111785167363,884.5281631411053,797.5061753287446,813.7560981776332,910.9782399006654,1002.9313582987525
2025-12-12 18:22:13.406983,Right,747.924512962345,908.014656921383,888.6365235187113,813.047187800752,307.70490119152237,752.8534943436971,842.7505357663613,919.236294043716
2025-12-12 18:22:13.411980,Right,657.7268372918479,786.6926823919639,769.2287030275911,709.9113886505365,272.1518304885831,655.4012188265333,730.2553571865428,799.9906904306263
2025-12-12 18:22:13.415996,Right,640.2322685833788,767.0976397602353,751.4848931268789,693.9495062171482,704.7343615478603,637.7654696538812,710.3187619813252,788.1449097367004
2025-12-12 18:22:13.420016,Right,716.1529183352832,873.0861341806594,856.5005339542404,782.8841071194038,793.1134656060021,723.3612353712087,809.4343876163475,894.4657587336842
2025-12-12 18:22:13.424021,Right,755.7134336825693,921.5813931664452,903.2371635120362,824.2921394616133,390.9851556698559,764.8862772206776,856.6305161959026,935.9432322625071
2025-12-12 18:22:13.427030,Right,661.5091898108367,793.7250313872937,777.2050614992622,715.8957492971094,244.97760680539068,660.2174578771228,737.0229488309706,805.480546355946
2025-12-12 18:22:13.431045,Right,542.1853095537517,647.836419953499,635.5575944408774,588.0289537184872,589.3361028578365,536.5971948470687,598.895634634071,664.194488504203
2025-12-12 18:22:13.435040,Right,555.2917668517912,679.292744953651,668.3824904214125,610.263409988489,740.7845964853186,560.6060210784199,629.4743624264374,698.9467761621345
2025-12-12 18:22:13.439059,Right,647.4309999404941,797.2436104805674,784.5976853650063,712.0756807564758,403.6883843403775,661.8000155604677,744.0028194970218,815.9119480168447
2025-12-12 18:22:13.444071,Right,636.1782388784923,772.6477768165059,760.5268368425313,694.6287860100856,211.08689048991073,644.8745339923771,722.6322653404204,791.5854846586008
2025-12-12 18:22:13.448102,Right,512.1666620337637,618.6304979913402,610.6978809731081,559.1283241057536,510.3934497444425,513.4988531287527,575.2701215684647,639.129870227538
2025-12-12 18:22:13.452119,Right,450.45275250822306,557.3301631261129,552.0166668575257,497.06621367519256,705.5448750399519,456.085328007699,514.3400270553539,573.9547581037041
2025-12-12 18:22:13.455099,Right,514.8527754257666,641.9464368454646,634.9023323730798,566.5010326751508,392.1380496167112,525.7078534676693,593.0373716461472,650.2378217235673
2025-12-12 18:22:13.459062,Right,563.8091834707884,687.9350044605089,679.1192573547596,611.6511939790798,132.96426657633856,567.4626472330419,635.6680131399771,693.014742456493
2025-12-12 18:22:13.463151,Right,502.4098494267091,604.0258772209054,596.9670660038246,541.6751940385439,401.3349594880128,496.4835733855143,554.1521274130791,612.6125016728183
2025-12-12 18:22:13.467132,Right,428.04546790674794,525.6647878321819,520.7911319202976,466.9513979128096,678.576582251233,425.2170845854562,478.5873085774947,534.738011727226
2025-12-12 18:22:13.472168,Right,435.99689216248225,547.0460034145508,541.2896872570273,479.4522446722258,416.9501653065672,440.96028470864985,500.3416136618471,549.9471920971991
2025-12-12 18:22:13.476164,Right,459.00838261062745,565.5668810250936,558.3425050419755,499.41057303210255,72.96566117042676,460.50141342903953,520.3115976256086,564.8511901143938
2025-12-12 18:22:13.480182,Right,416.1373333290685,500.6575364166638,494.75591804785654,448.70914263732266,264.8687340419274,408.9362346100388,459.3089520042995,504.2078463974176
2025-12-12 18:22:13.483181,Right,366.3135983805405,447.0586367798969,443.13299165084027,398.85293815203477,617.9550743846921,361.69481871905737,408.27573741425294,454.3964902261505
2025-12-12 18:22:13.487198,Right,380.70884176925756,477.4729035140481,472.9582487870939,418.4518878898816,458.2215698581422,385.495955562219,438.81313721381593,481.16894645639695
2025-12-12 18:22:13.491209,Right,394.4944241803605,489.16707693831995,483.7263628166402,428.9896687223809,65.4071905198507,398.05553898157086,452.4761742419796,488.4754136609845
2025-12-12 18:22:13.495229,Right,331.78304885257967,400.4573012671899,397.2918935114285,356.0435061514145,148.42305399628822,325.7346009223256,368.77107494685333,402.01013011997566
2025-12-12 18:22:13.500170,Right,265.62484099855646,324.1799391383538,324.2062158982735,287.951336291153,524.3802097027074,259.6357334697386,295.28759239590727,329.05610671802424
2025-12-12 18:22:13.504235,Right,294.47888426308054,371.37626898114104,371.03678885125555,324.40055676572956,466.2597607370117,298.5774409865262,340.7157353636576,373.24943718116265
2025-12-12 18:22:13.508238,Right,352.04585052013863,436.46295816113707,433.725936486735,383.2830641932087,61.87617577635683,358.36365077854134,405.1645374201471,434.1330842700554
2025-12-12 18:22:13.511243,Right,311.32126908760983,372.02101417898666,369.98901022796053,332.9799849212868,41.43140152544947,309.2840103567578,345.6803433437599,372.2586542511126
2025-12-12 18:22:13.515273,Right,208.6948058261769,249.74815083504654,251.2797761586262,224.59354680078104,405.7771561339032,205.17368844384328,229.53502764028963,254.9108923387248
2025-12-12 18:22:13.519266,Right,184.3385854366934,236.85724768030923,239.7939617887605,205.8690775888972,431.08675611781655,190.98967082926538,217.9954950158717,240.76796312024817
2025-12-12 18:22:13.523291,Right,241.4567799854558,308.3057954234537,309.69848849542905,267.8218162531266,36.25324669666588,252.9175707398681,288.0724711450748,308.45213849877473
2025-12-12 18:22:13.528320,Right,248.70549403957557,302.6595887305448,304.0775102742482,270.02412070997525,-60.89192102156812,252.49541634705383,284.27587081852835,305.7109646809986
2025-12-12 18:22:13.532321,Right,169.6536269695498,203.95715062774252,208.39160668558907,185.09953041747212,303.1822423983831,169.158892019419,190.8869600126054,213.58335186494514
2025-12-12 18:22:13.536336,Right,110.39171753101982,146.95867277681828,153.33762315066997,127.37399676605128,419.73202624660917,117.83853567158803,138.10661353706382,156.3376661479706
2025-12-12 18:22:13.539330,Right,125.33157628029585,170.4110731537221,175.62750396004412,143.50998947781045,35.672123259166256,137.8995887931669,162.85790761897806,173.82465794065502
2025-12-12 18:22:13.543360,Right,143.20902292005485,177.82809050986543,182.05907045316417,155.1946874158457,-159.64982761268038,146.90398896677652,170.116845735698,180.33445660036523
2025-12-12 18:22:13.547367,Right,117.82412712572841,138.5669326724019,144.05967494868673,124.45985214889515,181.25189454248175,112.10966799099697,129.68166919471696,145.80320076236967
2025-12-12 18:22:13.551318,Right,97.34389473358169,124.49323974328581,130.6927373034414,106.34961993258912,401.27841754764086,95.10076716868207,113.82985071570147,131.29081691498868
2025-12-12 18:22:13.555392,Right,101.06947967171436,136.26570683717728,140.88082600117195,110.66715008957544,53.34292635793099,104.44682049955009,126.21327760408167,135.46627423912287
2025-12-12 18:22:13.559389,Right,74.78433715959545,92.87325791048352,96.73357076069806,75.45326869690325,-257.64775479747914,72.27566926705185,87.0565360057517,88.68750382144935
2025-12-12 18:22:13.564465,Right,18.464345026935916,15.72869996301597,21.765770509722643,12.4637981026317,16.74271121097263,8.410232929862104,12.990654916502535,17.020994409220293
2025-12-12 18:22:13.567414,Right,12.401281419792213,20.12806517694844,28.07436629862059,13.765852541313507,356.32054924726253,8.050261309777852,15.09881395706907,25.22938933642581
2025-12-12 18:22:13.571421,Right,59.390565471258014,89.66321527922992,96.51593280408997,70.548910393205,131.4940919059154,65.12412225810112,81.43944593693595,89.58552304992918
2025-12-12 18:22:13.575384,Right,50.87340337247588,71.36502455169102,76.9284513478051,57.243800479744095,-245.5901987857069,54.02543148398399,65.99741110595642,65.0529016534565
2025-12-12 18:22:13.579462,Right,-39.12799354305025,-50.004557566542644,-42.919032229459845,-44.785668562573846,-99.24368922386202,-44.99277859326685,-49.15779052738799,-55.441998702532146
2025-12-12 18:22:13.583482,Right,-81.87116958969273,-95.40363393089501,-86.60406370239798,-87.47752064280212,266.0876983519702,-85.41735003719805,-93.99620511679677,-98.2790967116598
2025-12-12 18:22:13.587476,Right,-11.004886632610578,2.466058495512698,9.837714412249625,-6.989792897365987,155.24141107243486,-5.0384748636279255,-1.5588260193471797,-3.684042748005595
2025-12-12 18:22:13.592456,Right,43.41310481232358,62.05101548571838,67.45428905403242,47.02967206866015,-225.28920308858505,47.1896750216838,56.263295427314006,51.07843699073419
2025-12-12 18:22:13.595516,Right,-33.10273113462608,-44.57214858109364,-37.540268066804856,-41.73284743994009,-180.12791342296987,-41.905766178504564,-44.45490985264769,-54.82382364629302
2025-12-12 18:22:13.599504,Right,-136.63637849970837,-165.82041814312106,-155.55587079038378,-150.47598348173779,163.76298556206166,-148.6126180147985,-160.38372778095072,-173.22514887532452
2025-12-12 18:22:13.603464,Right,-116.88615327732987,-127.18482695077546,-116.7839012061595,-122.63370114364079,114.34159750951221,-119.73388505348703,-123.72945658658864,-135.69117460754933
2025-12-12 18:22:13.607527,Right,-33.90569585718913,-28.283249883679673,-19.702825110580307,-34.442511133034714,-266.4184097688121,-33.3748634668882,-28.334197200922063,-37.705494196736254
2025-12-12 18:22:13.611537,Right,-52.71183117601322,-64.95389541177428,-55.22390759733389,-60.16837050777394,-279.59261253692966,-59.71319931780454,-61.65921858683578,-68.73855976204504
2025-12-12 18:22:13.615558,Right,-162.45004859031178,-196.73107334642555,-183.27018600786687,-176.69926639963523,81.8295432206287,-171.65903328437707,-185.610859905486,-193.57010267171427
2025-12-12 18:22:13.619581,Right,-205.3736637349357,-233.5668330885237,-219.08857565224753,-216.6160270096152,109.4545381767748,-205.4715389755729,-218.43199746930622,-231.01550651545404
2025-12-12 18:22:13.623516,Right,-147.49301929640933,-162.54950589695363,-150.74223117201473,-155.17871058100718,-281.7026958205315,-143.0276962374337,-148.41401072399458,-164.4088550544402
2025-12-12 18:22:13.627581,Right,-116.21007821788953,-141.08525473705959,-130.8185109726037,-128.47930439199263,-377.95047689691273,-119.3782082543039,-127.34993307491823,-141.27197355573298
2025-12-12 18:22:13.631677,Right,-168.38505936913134,-209.8966556046944,-197.98309567621618,-185.55419334639737,-7.039519729551557,-176.1545155414933,-193.6725448394718,-204.66259516452556
2025-12-12 18:22:13.635667,Right,-213.7566637888085,-252.02412311949593,-238.92418656860536,-228.45167739514727,120.44604416440416,-213.66444202582352,-233.29185443400638,-248.07077384424338
2025-12-12 18:22:13.639624,Right,-197.77976884692907,-227.6379916716396,-215.82180365142995,-209.995143685941,-265.62047445222197,-191.77430627185095,-207.8857690285222,-230.53170604392653
2025-12-12 18:22:13.643678,Right,-184.89024239801802,-225.48020938248374,-214.32318013086478,-201.43685224723595,-473.4267012111013,-186.42048571739724,-205.25960816543375,-229.5626100465597
2025-12-12 18:22:13.647616,Right,-213.53977950068656,-267.5830692641139,-254.74253141813824,-233.1379936151352,-125.76268224740488,-223.05727066372492,-248.11103926760188,-266.5241516611386
2025-12-12 18:22:13.651650,Right,-226.87598487995092,-271.7371997516075,-258.1459991973861,-241.46571802211656,131.21277059525892,-231.3218272405702,-254.9621003470802,-270.71774638712304
2025-12-12 18:22:13.654618,Right,-203.17774766028379,-234.87619159506175,-223.5259756133555,-214.71272677575325,-183.0832433164178,-200.3104279464933,-219.5808440950368,-241.83166830052505
2025-12-12 18:22:13.659636,Right,-208.5900447772001,-253.77394185622688,-244.35800515082155,-228.4116707365356,-497.4500890131749,-210.74323968637327,-235.7954341803561,-265.34147879198645
2025-12-12 18:22:13.663703,Right,-258.5195096903917,-326.06882750189106,-315.58822357704776,-287.5345270947728,-250.34322521173453,-268.869834051824,-304.70444891945226,-333.59397665126016
2025-12-12 18:22:13.667696,Right,-269.2137969336909,-330.50602988080936,-318.742640639226,-295.004460051925,74.4572471047868,-275.17735328694107,-310.1463301003532,-334.9651434405678
2025-12-12 18:22:13.671716,Right,-217.57810984912794,-256.6867208808253,-246.17492779824533,-235.7330333780701,-143.3062493618345,-214.03243492993352,-239.46268677375338,-265.830145478365
2025-12-12 18:22:13.675723,Right,-205.30537226441083,-249.13036959325837,-239.80048710327537,-227.06224703647604,-508.5666005233652,-204.19528880203143,-231.0494557289494,-263.2545282496867
2025-12-12 18:22:13.678721,Right,-278.4506951775984,-348.85956363985315,-337.906406866241,-310.0603430226911,-356.2873220160254,-286.49656751722796,-327.0071118537453,-361.5772396159882
2025-12-12 18:22:13.682748,Right,-327.58226585674856,-400.9355991273187,-388.45145958379726,-358.4627298564301,10.221806683635805,-333.6280143826734,-379.2976108919829,-412.1479901915591
2025-12-12 18:22:13.687765,Right,-274.4473838447011,-323.4348032581911,-312.7957680429099,-295.91763041121885,-103.20038215935347,-270.11120760047925,-306.18803243976436,-339.07229039861704
2025-12-12 18:22:13.691751,Right,-219.38147506132373,-262.3378378873167,-253.82971572800307,-240.1742783865484,-483.149680198665,-214.50454855841235,-245.75096515697078,-281.44961003542994
2025-12-12 18:22:13.695754,Right,-271.0777830099396,-339.2858715224429,-328.66951032335055,-301.6529767445172,-418.9598020783451,-275.34916386115947,-316.8391449145274,-353.6378653133288
2025-12-12 18:22:13.699784,Right,-353.48831679765135,-435.8590161492466,-421.25554516204284,-387.7015198668523,-40.07777386929956,-358.6426010192663,-408.3597196677583,-443.6491503389261
2025-12-12 18:22:13.702796,Right,-338.48166287734057,-403.0507780202024,-388.30441202718066,-365.18521222201525,-69.541916815273,-334.13355795730604,-376.73722670963616,-411.443591237301
2025-12-12 18:22:13.706806,Right,-269.76955255065695,-320.60178395092953,-309.1837563138688,-292.17398894566577,-461.8028684668243,-263.2188141264196,-297.08499519337784,-332.3273506963742
2025-12-12 18:22:13.710814,Right,-279.22520347192767,-345.285253018199,-335.4496872036252,-307.1139582362084,-485.30372798559256,-282.2076616198174,-320.42153932352085,-354.03801429102896
2025-12-12 18:22:13.714829,Right,-353.2053040250321,-433.47157115110895,-422.6271566276555,-384.12030294083524,-96.15060992934741,-360.1535869232903,-405.46420433023013,-436.2149465500843
2025-12-12 18:22:13.719835,Right,-368.73848434578395,-436.22524815786164,-425.76697876956314,-393.5012871938525,-23.935175600869115,-366.95284610180533,-407.7791618061019,-438.96757419320056
2025-12-12 18:22:13.723841,Right,-319.2656514986302,-373.6281507394742,-365.49240381631535,-340.4503201672924,-404.93254759768024,-312.0479005462839,-345.57347102824133,-379.9070869302377
2025-12-12 18:22:13.727872,Right,-314.04077273706207,-382.4343859581859,-374.48203498200746,-341.8962044068612,-525.4830886858399,-313.9578933917801,-351.8991261415649,-386.5589140782249
2025-12-12 18:22:13.730863,Right,-367.2933455238235,-452.71245976292994,-441.9136683077086,-400.7145978016197,-161.3557000461151,-372.75514318508795,-419.13380825630156,-450.77233017614344
2025-12-12 18:22:13.734886,Right,-377.0187334509101,-452.6724413015763,-440.15436524152756,-405.68405266542686,-3.869106108788401,-376.28137339727255,-419.5332006250974,-450.568555155769
2025-12-12 18:22:13.738869,Right,-324.64881965651875,-385.1629054801306,-373.73346769972704,-348.40172339905985,-367.7156719410559,-319.0200972147868,-353.6218833902967,-388.16329628787935
2025-12-12 18:22:13.742912,Right,-311.97319962928304,-384.09700776910177,-373.07203828555066,-340.7632123347721,-596.0991095945355,-313.4525666475529,-350.6059150004294,-387.16664151189616
2025-12-12 18:22:13.746910,Right,-366.2813360407017,-457.9794558555586,-445.1724700910272,-400.76525208738167,-281.19995926943375,-373.7556609543972,-420.9215105586918,-455.22279663942754
2025-12-12 18:22:13.751925,Right,-385.33912483247695,-469.096444469993,-456.1242419977207,-415.0638844705536,-22.641258331714198,-385.0846254446078,-432.49514447688125,-465.30303943011677
2025-12-12 18:22:13.755946,Right,-329.82089697767515,-392.78619054250885,-383.2395130767836,-353.0109307524399,-307.3071191983181,-320.967470070289,-360.2842435167404,-395.91198809916386
2025-12-12 18:22:13.758949,Right,-301.7943017196958,-369.74384522699984,-363.09905089990934,-329.7565774269751,-603.4417818281217,-299.79647839523386,-339.7266636498389,-377.932382747822
2025-12-12 18:22:13.762951,Right,-356.6801941738231,-446.5022037712042,-438.96949772624066,-393.89665618451545,-359.06618282111594,-367.25041562767,-416.68569306097925,-452.87791735248175
2025-12-12 18:22:13.766919,Right,-396.69705933338264,-485.23240518424427,-476.0978323633899,-433.0305414440227,-34.79277019674191,-406.7520742242923,-457.3807613981771,-490.8222641092143
2025-12-12 18:22:13.770970,Right,-348.28885335475206,-415.36742138676345,-407.27222791837994,-377.6636709939921,-240.09939427411882,-349.37238552753115,-391.0145117552602,-426.00944674928905
2025-12-12 18:22:13.775976,Right,-297.344370653911,-362.8992141546332,-355.78499082673807,-328.249692885729,-592.4075829606736,-298.2592563861399,-338.4264499542769,-376.4581618370721
2025-12-12 18:22:13.779998,Right,-331.19612000708,-417.7143663133029,-407.84338927373756,-369.71862672414863,-436.3079668817809,-338.32060231425567,-388.8377204310382,-426.16519866877934
2025-12-12 18:22:13.784006,Right,-380.5870066236239,-471.38561278022826,-457.4420800175867,-417.90008795517497,-74.70657158113318,-384.67900360323256,-439.5828108712449,-474.2074189854902
2025-12-12 18:22:13.787034,Right,-352.16183165856637,-422.7970646658214,-408.1030631887843,-379.8084554153611,-202.61217452888377,-346.6512785531813,-392.2466012235964,-426.8519679773017
2025-12-12 18:22:13.790990,Right,-300.30655809212476,-363.38310005888343,-350.39321345149074,-324.70766277151415,-602.3987520778901,-295.49689080996905,-334.0950884303311,-369.9127812749939
2025-12-12 18:22:13.795067,Right,-321.10209382878384,-401.0141296994407,-388.12065267947037,-350.79399450385245,-546.5133643564768,-326.0911983609549,-370.3545411185478,-404.4281700543361
2025-12-12 18:22:13.799075,Right,-373.53041569696506,-460.0472054145066,-445.97314007917885,-403.83802063489566,-156.72166712780017,-379.0747502660379,-428.96505040256307,-460.6896238423651
2025-12-12 18:22:13.803080,Right,-360.844189980533,-429.3995250395965,-416.3597023108741,-384.53911673877155,-175.2375008192612,-355.7702281034435,-401.11548798222793,-435.4775569079211
2025-12-12 18:22:13.807074,Right,-311.9624661791022,-371.6539712542435,-361.3597339115804,-334.65756773698376,-574.0401615240262,-303.2713589537889,-345.3240804633242,-385.27305800735485
2025-12-12 18:22:13.812114,Right,-320.6718600524473,-398.0687294632662,-388.5368572708685,-350.7325912550441,-604.9506311049336,-320.07865138701163,-369.8994738815236,-410.8162888964871
2025-12-12 18:22:13.815098,Right,-363.10438218177296,-451.5429228544235,-441.07574765814934,-394.7861976439599,-200.04027458268683,-365.0855509469402,-421.6205181721016,-458.53135615063366
2025-12-12 18:22:13.819118,Right,-344.0425638439483,-414.9788088945206,-405.8189691444859,-366.6883906410076,-104.52783999178791,-336.3371901700157,-386.7834904316114,-422.4524393476313
2025-12-12 18:22:13.823123,Right,-285.21491908677854,-342.2360007374082,-336.59636819327716,-302.6918911030516,-490.3664943240001,-272.1632887721644,-315.58399256283883,-355.5419047587784
2025-12-12 18:22:13.827137,Right,-292.26610965421423,-366.3765736138448,-361.8385082288878,-316.4524061351549,-636.9104087774758,-287.4556049099774,-337.409180768067,-380.6017623193329
2025-12-12 18:22:13.831183,Right,-353.5809906384093,-446.4468637229875,-439.4779752015602,-383.13237734360155,-272.42640280531486,-355.4559378136182,-415.2602203703718,-456.07405341335107
2025-12-12 18:22:13.835172,Right,-352.32889851159416,-432.2782277635997,-423.8597709942842,-375.54210634483024,-73.007343847421,-347.77430991409346,-403.8238141783513,-440.99838827818166
2025-12-12 18:22:13.840142,Right,-281.5851028918405,-340.9893520328915,-334.18268454784993,-298.1614115956472,-395.81166801124346,-270.2083163713687,-316.6388743916759,-353.59032644541
2025-12-12 18:22:13.843181,Right,-263.7756647532806,-332.6046937936917,-326.5789496008074,-285.63415904762223,-618.4007568542147,-257.62992293626303,-307.40622651332524,-345.0091527700424
2025-12-12 18:22:13.847211,Right,-328.2074826521566,-418.6310742831556,-410.18213871726766,-358.04188540030736,-311.40197887510294,-328.1992202778347,-389.7141346104909,-425.4450498878723
2025-12-12 18:22:13.851199,Right,-353.60276283335406,-437.5115184512688,-427.0867171603022,-380.4247817454161,-41.57670501701068,-347.36970205866965,-408.8695018265862,-442.73869631963316
2025-12-12 18:22:13.855210,Right,-287.041269726702,-347.42433211312164,-338.2796561468858,-306.2414527662331,-304.2736657760688,-272.31844334257767,-322.5124013375025,-357.30761960265227
2025-12-12 18:22:13.859191,Right,-240.42586584604578,-301.60462999227457,-293.70693740376737,-261.05828020046465,-593.031002464355,-229.61373240093235,-276.90108779084403,-312.3657697966555
2025-12-12 18:22:13.863232,Right,-287.22092338395305,-369.25913815258536,-359.40722468995955,-313.74636009323876,-352.444405215967,-284.2194735358353,-340.0504271489335,-372.91555430646986
2025-12-12 18:22:13.868247,Right,-331.43851609382546,-414.10606594604906,-402.07171852188185,-354.7274797966238,-23.941347822430544,-324.3812469188706,-382.16771183209494,-412.28636152355466
2025-12-12 18:22:13.871256,Right,-285.2565577714704,-347.0230832087109,-336.31410850037355,-299.7660721580032,-218.49650009867037,-269.1763380969642,-317.17468222335447,-347.7594470779877
2025-12-12 18:22:13.874267,Right,-225.86948436818784,-283.5225962214172,-275.3850777648622,-240.70922383421566,-566.5416195699363,-212.95778669626452,-256.0284872285556,-287.30263532011304
2025-12-12 18:22:13.879271,Right,-249.0063335011946,-324.7911216923967,-316.46512766357046,-272.3208975055022,-406.4672138238675,-246.9515345155378,-296.8614619325381,-325.5623875685269
2025-12-12 18:22:13.883227,Right,-297.0055004628375,-376.86204889055807,-367.00758123688865,-322.8670643555233,-25.878247613378335,-295.41049918404315,-348.94675706489943,-375.22709439345635
2025-12-12 18:22:13.887298,Right,-273.7172825591406,-334.8713014652021,-325.86874969524797,-295.04579227406066,-126.42823855561437,-263.6863498277962,-309.51202850672416,-337.91056278022006
2025-12-12 18:22:13.891311,Right,-221.53026023280108,-275.738979614689,-268.78108178894036,-243.43415594194084,-508.44621134223416,-211.98810500331456,-252.11015879106708,-283.5217621817719
2025-12-12 18:22:13.896334,Right,-232.85850528953597,-303.00957864744123,-295.59321419883054,-261.07035195082426,-439.76393313368317,-233.55720069934614,-278.3422074972186,-307.45087179355323
2025-12-12 18:22:13.899318,Right,-273.1807345417328,-348.09644638421014,-338.8977574032033,-300.51500390667934,-26.154256344307214,-276.46330456552096,-323.0956711261533,-347.0323522236431
2025-12-12 18:22:13.903360,Right,-251.55086614837637,-305.71203549357597,-297.5430140462704,-269.5983423964353,-20.82937561935978,-246.83778855291894,-283.0402625811985,-306.3109904269222
2025-12-12 18:22:13.907364,Right,-199.02875118219526,-240.9411301740911,-235.76083031995222,-213.93482504750136,-422.0612469216576,-192.37778569350485,-219.41125711752102,-245.92654930253047
2025-12-12 18:22:13.911317,Right,-210.96894354914548,-268.18524876749143,-263.2395999565488,-232.93944881216157,-475.7379782490316,-212.63737955177203,-244.07138114701957,-270.31743969290983
2025-12-12 18:22:13.915403,Right,-262.694947546348,-330.1133467335021,-322.5239463876933,-287.66317172604613,-78.55981186853023,-266.26766055071494,-303.65312785096467,-325.1471464553615
2025-12-12 18:22:13.919392,Right,-253.0130775726866,-301.62819787010085,-293.16070632846095,-270.35434316220926,36.95861492090626,-246.0790059568244,-276.4981927871704,-295.8378499796381
2025-12-12 18:22:13.922399,Right,-196.42963799100835,-227.4722195562208,-220.96213631494902,-208.6910656953114,-325.2900516241207,-183.603697761253,-203.90013368381187,-226.29087774641812
2025-12-12 18:22:13.926410,Right,-197.71449382905848,-241.17488700395916,-235.46891777019482,-215.87073020235403,-463.04653879610123,-193.0777872207691,-215.65212502726354,-240.2171509996988
2025-12-12 18:22:13.930420,Right,-250.79065098316642,-310.0470511652529,-302.7299186321907,-273.823586586921,-95.0612074911478,-253.3216173548717,-282.62451127707027,-304.5912721878849
2025-12-12 18:22:13.935423,Right,-241.94379209110048,-287.27501257148106,-279.67943652241956,-258.7182874334976,109.75247942865826,-238.96507225959795,-262.81367312185466,-281.9390920480946
2025-12-12 18:22:13.939436,Right,-161.81887845741585,-185.55666724580806,-180.3594666456338,-171.8494283191976,-217.93267960677622,-153.31979417504044,-165.79171782708727,-186.0654000916984
2025-12-12 18:22:13.943458,Right,-132.75686983804917,-163.9074685613159,-159.83308973757084,-147.2219563491526,-458.0791642947588,-131.0080946473172,-144.41383240860887,-166.72654746996704
2025-12-12 18:22:13.947472,Right,-190.58157644304447,-241.38964410638437,-235.25604636140633,-211.49309751787223,-160.49375953397248,-196.21588161669206,-219.30784276343184,-240.90722618985455
2025-12-12 18:22:13.950480,Right,-218.63230025966186,-261.9494667722611,-254.50237954605836,-234.64022603881313,117.20239215530455,-218.460600265651,-240.6943163665128,-261.2883970325347
2025-12-12 18:22:13.954509,Right,-158.46829224628164,-177.76654474285897,-172.34535782563034,-165.03108002216322,-141.89383659802843,-149.47245072136866,-160.21463112608762,-182.1576271627564
2025-12-12 18:22:13.958486,Right,-113.47848648170475,-132.8903477829881,-129.1779977005208,-120.30722984386375,-445.25930926093133,-108.26131802098826,-115.50233333138749,-137.90217882709112
2025-12-12 18:22:13.962502,Right,-157.98936584184412,-197.4966935267439,-191.90843062929343,-170.68091946456116,-214.64730508974753,-161.28542912914418,-175.95126984425588,-195.01100976997986
2025-12-12 18:22:13.967514,Right,-203.88377217471134,-243.44265692855697,-235.57091302901972,-214.198026419268,130.2202671559644,-203.59032841172302,-219.43487921520136,-235.3940939756576
2025-12-12 18:22:13.971523,Right,-166.16778595052892,-184.3754823198542,-177.76067721366417,-168.34579190198565,-41.10041280701989,-155.33956473489525,-161.76351650018478,-179.28670173126739
2025-12-12 18:22:13.978561,Right,-116.32053908100352,-129.92479173658649,-125.87555335479556,-118.05518522893544,-386.7362348273746,-105.32858082553139,-108.27435689006234,-128.6186495468719
2025-12-12 18:22:13.981581,Right,-142.07405426038895,-172.69352841499494,-168.57548141403822,-149.55285641382216,-233.4224504197482,-139.00376475678058,-150.15513120085234,-169.13541900058044
2025-12-12 18:22:13.984605,Right,-182.77077600592747,-214.75703842699295,-209.70681876514573,-188.51942638750188,157.1983876315644,-179.1651899855351,-193.78099782258505,-209.50627795018954
2025-12-12 18:22:13.988642,Right,-148.18370687187416,-157.76093112671515,-154.96828517742688,-145.22051238367567,73.46887977130245,-136.6227942018304,-141.9137937402702,-158.26800094777718
2025-12-12 18:22:13.991662,Right,-91.36731996736489,-92.34710519446526,-93.54064258711878,-87.30641884118086,-312.99528156238375,-81.31271142628975,-79.82497034122935,-99.32430549472338
2025-12-12 18:22:13.994665,Right,-108.27737210772466,-127.7312578856945,-130.0358939979924,-112.4625907553127,-263.3404323689174,-109.67605627223384,-113.91765774413943,-133.16894802468596
2025-12-12 18:22:13.999658,Right,-154.90928730892483,-183.4818125408492,-184.3528514947393,-161.98800998332445,149.21550650260178,-159.8482608976774,-168.34118161880178,-184.45007973589236
2025-12-12 18:22:14.003676,Right,-127.97200294415234,-137.7189952171757,-138.73857516772114,-128.29903609520989,174.37727840658044,-124.97475911158836,-124.75050953257596,-140.62591520464048
2025-12-12 18:22:14.006645,Right,-59.62691086798441,-56.366386575915385,-59.087552996119484,-57.02014492894523,-217.31634324771585,-54.324429107946344,-45.27705807518214,-63.85784542094916
2025-12-12 18:22:14.010637,Right,-60.65985546231968,-73.13770202390151,-75.20304736535763,-64.49083540093852,-284.1817381780711,-64.45578587666387,-59.93324835947715,-78.11313337343745
2025-12-12 18:22:14.014655,Right,-115.82541215984384,-141.9399588602828,-141.08698169706622,-122.65897400735412,99.6084582763724,-124.04420538223349,-126.41144250903744,-140.10678198403912
2025-12-12 18:22:14.018666,Right,-112.90937526454218,-123.45382460340625,-121.96264231670648,-112.50418657826958,214.57315224199556,-113.7123108402011,-110.29292975715362,-121.38282384641934
2025-12-12 18:22:14.022621,Right,-51.16238484549103,-44.00184222648386,-45.124667047930416,-45.78829317900818,-151.74962356494507,-48.46836300881114,-35.266187282803,-47.81681898061652
2025-12-12 18:22:14.027693,Right,-40.21711232943926,-43.63138122751843,-46.47973718598951,-40.89309962867992,-305.836093233258,-46.93732483725762,-35.9584328684723,-49.19768333603861
2025-12-12 18:22:14.031724,Right,-93.1252302347566,-112.23087829479482,-114.42577305663144,-99.35550673003308,50.898973772709724,-106.78717083967058,-103.46690020378446,-114.50493346399162
2025-12-12 18:22:14.034724,Right,-101.29003932600608,-107.93939313391456,-110.79466500232229,-101.98192789760651,259.09334160992876,-107.88606980850454,-100.8150059627369,-111.30613408237696
2025-12-12 18:22:14.038761,Right,-37.7307091288385,-22.876880917756353,-29.222775636124425,-31.715889569139108,-66.91154014444328,-37.14465941139497,-19.355042192095425,-33.01473181048641
2025-12-12 18:22:14.042693,Right,-8.450367845885921,0.9177099063526839,-7.765444090648089,-6.548775757371914,-316.7333399121417,-14.401656969392207,3.4710457802866586,-11.99674373853486
2025-12-12 18:22:14.046774,Right,-55.994766334304586,-65.09650111151859,-72.54037556739058,-60.961451864335686,-23.972565033647697,-70.67574341053842,-61.454621282289736,-74.18035844311817
2025-12-12 18:22:14.052744,Right,-81.57693847286282,-84.71307318692561,-90.84528920729645,-83.30824800499249,262.86530297767604,-91.82744962838478,-82.45716187515063,-92.61666520271683
2025-12-12 18:22:14.055727,Right,-30.153303623432294,-12.195249267620966,-20.010478018433787,-24.845299066859297,7.8730074152117595,-31.744029287947342,-13.309837207198143,-25.24232949357247
2025-12-12 18:22:14.059787,Right,8.127666992368177,24.019069215573836,14.257665395736694,10.967083979630843,-308.17428792337887,3.5118682228494436,22.50940711493604,8.379236387787387
2025-12-12 18:22:14.062805,Right,-30.625558208324946,-34.88581167033408,-43.632886891427916,-34.63655178504996,-86.52908877911977,-42.905263290856965,-33.63409886462614,-45.570734635868575
2025-12-12 18:22:14.066759,Right,-62.934602238819934,-66.03312892146641,-73.0279646028066,-63.909664427046664,268.4050810513436,-71.03550766617991,-64.00542225304525,-72.16636541148182
2025-12-12 18:22:14.070808,Right,-16.150366811663844,2.9762831701664254,-4.8167232683626935,-7.86655460903421,104.27296510478482,-13.962104816862848,2.62224860151764,-5.097525461867917
2025-12-12 18:22:14.074831,Right,31.88769627129659,54.38931939256145,45.17802186787594,40.17616607702803,-259.2911131012952,32.52363016776508,53.10594560741447,44.49280392128276
2025-12-12 18:22:14.078873,Right,-3.208988513360964,-1.1926567319314927,-9.033456959296018,-3.0264693255885504,-128.66023142330232,-12.445372752903495,-0.5076910150819458,-6.564209130068775
2025-12-12 18:22:14.083831,Right,-53.2219174077909,-56.02892586647067,-61.54842208401533,-53.878972501901444,266.41634291026276,-61.693310918723,-55.24569958914071,-57.12526986707235
2025-12-12 18:22:14.087881,Right,-22.328273466671817,-3.881240120215807,-10.050951694487594,-15.772569691878743,202.64041951674153,-20.323250563815236,-7.216937204939313,-8.681290248176083
2025-12-12 18:22:14.090882,Right,35.97453814477194,63.64940941159148,55.181447101640515,42.679992776713334,-185.89132490936026,38.807592794211814,56.56635690166149,52.70080709276954
2025-12-12 18:22:14.094878,Right,20.565579812246142,29.954748775286134,21.7740621160483,17.905202536145225,-163.08159653762414,12.518508698150981,22.803546685987385,19.26253986917436
2025-12-12 18:22:14.098856,Right,-27.05592759884894,-27.495767489570426,-33.48571533325594,-33.36978807498235,229.00321333679312,-38.83144211684703,-34.80784923603642,-35.22251478221733
2025-12-12 18:22:14.102915,Right,-0.5833413508662488,17.66983347912901,11.478688812610926,0.1885877040331252,250.4438878899964,-3.8807833294558804,6.919032436562702,7.304112792975502
2025-12-12 18:22:14.106921,Right,68.96689572720788,100.85227356065297,92.26677231962094,73.4704458329652,-147.02204291144153,69.15889550937572,87.41082579744398,85.7845714041614
2025-12-12 18:22:14.110947,Right,65.66816728800768,81.41404805675847,72.6807172211411,63.753326218458824,-224.20969928131672,57.68355798756238,70.040379969083,68.5605116453662
2025-12-12 18:22:14.115949,Right,2.5651313812704757,2.7506961640901864,-3.5554751885065343,-3.0189434853673447,165.5411420041637,-9.07875576382503,-5.511962378979661,-3.9811598602391314
2025-12-12 18:22:14.118963,Right,0.33755411038873717,14.62039339391049,8.631702665181365,1.8923788467072882,302.0407678279589,-2.304451044590678,5.314779009640915,7.5755818134057336
2025-12-12 18:22:14.122964,Right,68.30528364016209,100.45423636998748,91.46009737663553,75.68232150893891,-56.51488021683326,71.4714564520109,88.11592844832921,87.75748445754289
2025-12-12 18:22:14.126971,Right,91.40832352486905,113.10822825235664,102.26765396349947,93.55339610777446,-225.7290895626429,86.40708409316721,100.74414965964388,100.0788629501476
2025-12-12 18:22:14.131009,Right,43.06033418915467,47.253517934383126,37.73184128920548,39.70668249158189,119.62747321999632,30.19701471523149,36.58007642719895,40.138272592419526
2025-12-12 18:22:14.135005,Right,27.896827530988958,41.5667169863882,32.69595760462107,29.91614127054345,336.23329706225195,20.73855384485796,29.897771008632844,36.674177322071046
2025-12-12 18:22:14.138960,Right,81.28825478296494,114.38117719977163,103.30871640285477,90.35691544314614,19.944310662518546,81.97136198478984,100.39913557743421,105.92220993427327
2025-12-12 18:22:14.142001,Right,104.40776090920554,131.11115233352757,118.51319390861318,109.9480658629036,-233.09923123147746,100.9930258874956,118.12468751237611,122.49469364032848
2025-12-12 18:22:14.148033,Right,53.43909185018856,60.76181952300249,49.7095022816211,52.299178453075,59.44346063069497,43.47872239223216,51.03538632381242,58.09988255528151
2025-12-12 18:22:14.151085,Right,24.005582258760114,36.07549987974926,26.315072173136286,25.838448699214496,360.927462111621,19.564086297163158,26.922325335850473,36.41817119874759
2025-12-12 18:22:14.155059,Right,71.80967196797428,103.96330934698926,92.53926350190886,80.14335630799178,116.26375489522309,76.0942780655314,93.02791086871002,100.63756141500198
2025-12-12 18:22:14.159072,Right,107.81504641128413,136.86618752368668,124.0440582507581,112.73860070094815,-210.64476206516156,107.44887331376958,126.75616203824757,132.1440815385431
2025-12-12 18:22:14.163047,Right,66.22960185205739,73.5475407846825,62.96676069442765,62.928606390123605,-3.3220011253779376,54.508859344539815,66.98596451691992,74.86041629432293
2025-12-12 18:22:14.167095,Right,29.295402568852296,36.43590756485355,29.000313746742904,27.764445220396738,356.035258572414,17.682532827879186,30.624798734206706,42.610080160506186
2025-12-12 18:22:14.171097,Right,72.5038823975483,102.06979803793365,94.6765973965812,79.73953572238679,202.94387853320222,69.2748654079769,92.69357745091838,104.7895332678163
2025-12-12 18:22:14.174111,Right,120.85564898233861,154.96240993615356,146.23358750288025,128.29556312793284,-166.21645562842605,116.81354422823642,142.77348700469884,152.89308007793443
2025-12-12 18:22:14.178110,Right,88.59576251744875,102.39015081686375,94.68396784774086,88.13768575315771,-49.921143179053615,75.94678881143045,90.65418191596109,102.13403711872525
2025-12-12 18:22:14.183080,Right,41.59082437441248,49.34623758292582,43.470532089457265,40.369461791968206,345.3921640635308,29.678748717007693,37.32760065846378,52.04164351057261
2025-12-12 18:22:14.187145,Right,75.91915541568596,103.74121434814879,96.53032738166803,82.43619294498058,292.1668360840267,73.68150782262092,88.56663383249543,102.75019540367066
2025-12-12 18:22:14.191157,Right,137.27507265158056,173.74995133013726,163.33729614625918,145.1711266160346,-97.97083860337443,135.56162410131947,156.98801453573105,167.68328930655844
2025-12-12 18:22:14.195181,Right,118.51971873865114,135.85413856873492,125.06155645912804,118.69146066281246,-86.41491412390315,106.52149605452723,122.11815680773725,132.36997610901017
2025-12-12 18:22:14.198167,Right,55.423845024517504,61.567628110642545,53.17295632131572,53.895045889905305,308.8910035084118,41.218626216606935,51.41456435440341,64.88967849699839
2025-12-12 18:22:14.202196,Right,58.50591409017943,82.7080499389267,75.15352066046034,66.36411973705981,350.1032372053596,55.05493394077348,72.77227616207529,87.93450733327336
2025-12-12 18:22:14.206224,Right,109.90642218331777,148.53424699197785,139.5598516300597,123.61183890626853,-35.28382663580123,112.0463069725738,138.35665582273214,152.3744291418625
2025-12-12 18:22:14.211214,Right,102.6071753324286,126.1378339146795,117.16533846699167,110.9415973377836,-117.099145961678,97.39937589250258,118.89536538611355,133.07379192643566
2025-12-12 18:22:14.215226,Right,45.105944135018945,52.98988580111836,46.02955256716086,49.60965580534685,269.1248009636911,35.94183645494559,48.857941678001225,65.24079104801785
2025-12-12 18:22:14.219230,Right,47.552258608400734,68.73568410695407,61.91536352671392,58.68893088305413,410.46975697659946,47.38768908054044,63.495960035063035,79.5994637967051
2025-12-12 18:22:14.223243,Right,114.94308942078715,153.55881683757252,144.14930285944502,131.7521265816631,47.486743195171584,121.87630738113512,145.50503080991803,157.99777992886084
2025-12-12 18:22:14.226256,Right,134.09325597783757,161.79183844766294,151.32672594912947,145.43357887398088,-140.73504785374098,134.90515970118759,154.37984412431524,165.35409220924248
2025-12-12 18:22:14.230291,Right,80.7442084273116,89.4784931149602,81.21134348645137,85.42447751955842,194.46983120625373,75.26627369318749,84.81394408117058,98.51408974147921
2025-12-12 18:22:14.234211,Right,61.89964659357065,78.1411095285439,71.35248773573949,69.93503175954356,421.44077210943215,62.52468868240089,73.38133860475682,88.8096018987053
2025-12-12 18:22:14.238339,Right,115.45620600509938,149.6834085593182,141.36978422863376,128.5388821849283,113.05505546930362,123.1786438380932,142.74757510205382,155.78866625422233
2025-12-12 18:22:14.243304,Right,141.7419577138644,168.54037336076362,159.22462879666682,149.98790218486465,-151.74861744072405,143.85049526240073,161.89842987427255,173.20548952587706
2025-12-12 18:22:14.247311,Right,92.84279743967272,99.22169401139763,91.97479705452679,93.92362281647365,128.70609621106996,86.46177211564645,94.45900737190095,108.45935492451099
2025-12-12 18:22:14.251265,Right,63.16175075400679,74.18107162700471,68.72241109021343,67.46708964950449,437.51533927427954,60.33487934528239,67.91649428974779,84.61495415489117
2025-12-12 18:22:14.254288,Right,111.82238771826815,144.63618638732441,137.55047513601676,123.34624503138548,202.85335167552694,116.43900102873158,134.028349393393,148.71680344914785
2025-12-12 18:22:14.258349,Right,150.98324072499963,182.6793787854549,173.33557887218922,159.50161750112602,-134.70952819415834,150.9901204047419,170.5417721751146,181.9470320524706
2025-12-12 18:22:14.262323,Right,110.30342744363588,119.83348302497325,111.0440246162143,109.85951006851246,52.80425879365066,100.3099797773757,109.73018250335736,121.63939365079568
2025-12-12 18:22:14.266354,Right,69.2794915738923,75.64851472912414,68.05995674547012,69.00647894714348,407.5869218794396,61.26752619835315,65.84649256019475,79.71640010180272
2025-12-12 18:22:14.270388,Right,108.43609524746716,134.30352160491748,125.16845945897512,115.7554813849274,259.3333688940911,110.00362580645015,121.62979997960065,134.3642208698002
2025-12-12 18:22:14.275336,Right,157.79396322082175,186.85666490730364,175.46179756109632,165.1494739679183,-116.93012034139247,158.09668160138244,173.1163659475278,183.95769317931263
2025-12-12 18:22:14.279417,Right,127.4107623405871,135.26315900373447,124.69272197304963,126.85774445144489,-14.521033274388174,116.95466798907,124.15113630038832,137.2548711530253
2025-12-12 18:22:14.282350,Right,76.2497017262649,76.66668142018898,68.3496361167854,74.25905206113384,380.7915290359233,63.95166391065868,66.93460230290657,84.20230728226306
2025-12-12 18:22:14.286423,Right,102.38787705769937,122.00673965959868,113.09295985116478,107.17298722127452,336.0750272903824,98.61942265515972,109.61197217932204,126.81388044510095
2025-12-12 18:22:14.290442,Right,159.23927994907717,187.9113026362902,176.46361089700804,164.68309531938576,-58.62735108126071,156.750417992007,173.0283022246731,186.72175837255782
2025-12-12 18:22:14.294437,Right,142.32999442466826,152.2803291008604,140.71660628145037,139.04120339393558,-59.43465666551492,130.40363767082454,138.19433632884466,151.1829883552855
2025-12-12 18:22:14.298452,Right,84.54381958852173,82.62795585131971,73.06900985019456,77.6490280951839,339.4372318206006,69.57382402426447,69.05450660339557,84.72792985221895
2025-12-12 18:22:14.303455,Right,94.54787044056866,109.76710310961062,100.0757619170472,94.9045599919773,395.7848517858656,88.59837525628973,93.57085072288464,109.75338340517192
2025-12-12 18:22:14.307471,Right,154.47088257869473,183.99863800044113,171.93914725791547,159.3573382786126,8.1693097553798,153.36473188678792,166.06554309370404,179.48032464872813
2025-12-12 18:22:14.310487,Right,154.41605058440473,168.9000889130548,156.58080633469217,153.33574916132784,-96.13788232576917,146.12985148229927,153.94763144294848,166.59323424412287
2025-12-12 18:22:14.314522,Right,97.37900907089352,95.45980524245533,85.66303331438394,91.7651459620538,277.2739592138096,84.43599557624839,84.37985415445291,99.80286359760794
2025-12-12 18:22:14.318509,Right,92.12344951997511,102.42530831399199,93.56677119307278,91.9712346233573,428.2447076191311,85.67895696329651,90.69545485654089,107.16828495124355
2025-12-12 18:22:14.322528,Right,148.57990910649823,175.8109222792118,164.8715310418338,152.62892578620813,75.2546530663385,145.88354063295992,160.94544536400645,174.4230098969274
2025-12-12 18:22:14.326476,Right,159.0855060492322,175.3046292281797,163.27041615037888,156.3543467753334,-116.32122125447495,147.82152301502356,160.26019317471946,171.68000529764686
2025-12-12 18:22:14.331540,Right,101.32146936684148,98.68438901670743,88.42112544976408,91.68841680815967,218.7843151097768,83.41708199415007,85.7205464226281,99.05719052202767
2025-12-12 18:22:14.335559,Right,81.61427252361318,87.45142389023385,78.13330175884767,76.80826283020724,458.81321434877464,71.43510782065277,74.27906255883863,89.16586262738565
2025-12-12 18:22:14.338623,Right,135.7164962959796,161.3315843516466,149.94016401577392,138.24336784231127,157.3514633125742,134.69620013031818,146.36509862834646,159.19354344703606
2025-12-12 18:22:14.342615,Right,160.7846664787794,179.89968334727746,167.02933126986318,159.65197210450424,-119.83539085203665,154.98685298998316,165.96948274376336,177.17073629429797
2025-12-12 18:22:14.346568,Right,107.41770105753676,105.0006912707031,94.17940466057917,98.54782680471544,148.07186006192933,92.84059793394408,94.18312061487813,107.70690180093516
2025-12-12 18:22:14.352658,Right,73.05618505029997,73.55058332112094,65.31351016933331,66.606902936197,462.0693824024347,62.24960434071545,62.92863215248508,78.80490346180159
2025-12-12 18:22:14.355683,Right,121.02957517707546,143.23322982687387,134.76538693236944,122.48855423397617,234.90714488140657,119.31844730573357,129.84902755278745,143.9303424396785
2025-12-12 18:22:14.358641,Right,161.970873107668,184.70748713749344,175.46743705877452,162.76279579293623,-112.38777550775558,158.0597646851238,170.93620462379477,182.56634262704756
2025-12-12 18:22:14.363605,Right,118.83589165816375,121.26850890385685,114.0252553406317,113.93339315016055,61.52926764349104,107.23020260466728,110.8498620459286,124.30785054989974
2025-12-12 18:22:14.366659,Right,68.17330499670061,69.05304741906002,64.47247133636847,67.16543957375688,422.1776630143286,60.913317979167914,60.94530597438279,77.9408795388299
2025-12-12 18:22:14.370660,Right,96.12724132424046,118.5743167992623,113.66505638652598,106.29179721829132,291.51747297498514,101.25642595397949,109.5998987248604,126.58402397623286
2025-12-12 18:22:14.374668,Right,140.03228709269024,167.94575737867854,161.43094594248396,152.5238294693845,-80.08184762930614,146.5000199809001,158.7195055202319,173.6750102796941
2025-12-12 18:22:14.378681,Right,109.58052411094832,117.19689969244064,111.72836406533315,114.45249240229896,14.412139753403608,106.50774484431895,110.01710916383308,125.7702215037134
2025-12-12 18:22:14.382678,Right,57.649224858294474,56.84623936988646,53.75605077194632,60.137089915413526,409.1109794320655,52.41633892605023,49.95392295025522,67.82470029228716
2025-12-12 18:22:14.386734,Right,81.13285624068521,98.20893840491772,94.4964925966633,89.7067142529122,370.6003632506181,83.77107311354484,88.01577927795006,104.08041540678823
2025-12-12 18:22:14.391713,Right,138.41683027599356,164.18430959020043,157.50789558209362,147.76476200585603,-31.13066609267844,142.68222016532673,151.97915970603935,163.60013695270754
2025-12-12 18:22:14.394803,Right,125.23909657189506,132.04869310255162,124.65868588315789,126.17178248614073,-52.050070162978955,121.72880275611533,122.58370616333559,133.44786537264008
2025-12-12 18:22:14.398731,Right,67.87761890495312,61.72675470027025,56.122869555460056,65.15443786117248,336.14529175750795,63.46786136364972,55.58599122479791,69.66783955035498
2025-12-12 18:22:14.402733,Right,73.05970938771497,83.00655070343055,77.5058621452772,77.14464228536235,394.303396329924,78.99519159662304,76.2740454718296,91.43541039232514
2025-12-12 18:22:14.406758,Right,127.81230752766714,152.0852942278434,144.55713621995528,135.61656056164065,-0.5562102899421006,138.154252357519,143.57286045732326,156.21414256759454
2025-12-12 18:22:14.410786,Right,123.89901144252508,133.40210113758803,125.93743487761822,124.64476613770239,-123.83638617841643,125.2286793012463,126.11559038780979,137.9120628606761
2025-12-12 18:22:14.414794,Right,62.05587334977463,54.85247109114425,50.382104525808245,57.65640833094949,241.94144728494575,57.54862281931855,49.70400358218467,63.94912938386551
2025-12-12 18:22:14.418745,Right,52.35378830926493,57.14055189531064,54.22156354758772,54.29032928208471,400.3171223643585,55.83598722034367,51.359657247085124,66.11261843491229
2025-12-12 18:22:14.421814,Right,108.36679613112938,130.42293348023668,125.88284380588448,116.6359854498296,44.04029049928067,118.94944181086612,123.53807359031634,134.69304094143445
2025-12-12 18:22:14.425766,Right,121.5729198497138,132.64448338575312,127.15177382293041,124.74299982050434,-170.2206205589464,125.49149639712414,128.00274929168518,136.6870688786439
2025-12-12 18:22:14.430861,Right,64.3732196741912,55.60284582202439,52.00212835412822,60.441719426453346,149.2110986871412,60.34180017825565,53.83202866677311,64.26647859124932
2025-12-12 18:22:14.434834,Right,40.85723211540608,39.61629962382722,37.546102016523946,40.122212014946854,397.3554170184361,41.88978386414237,36.37266156473197,48.01109470080701
2025-12-12 18:22:14.438868,Right,90.79294247264625,109.82844830979593,106.86485435120994,96.02834126300877,106.54685778359999,99.72793863408151,102.90727908120607,111.51724726255634
2025-12-12 18:22:14.442875,Right,115.01197280257475,128.98863301225356,125.9115693893109,116.54179548137472,-178.54135374430916,119.73163177634706,122.283315021632,128.1277769243461
2025-12-12 18:22:14.446899,Right,62.10381795576541,55.371261778404005,55.175717331207125,56.951479711104184,77.05877480647177,58.817079240077874,52.35644094424788,60.2301070986432
2025-12-12 18:22:14.449938,Right,26.078249253419926,22.239845688978676,24.34787498350488,24.780664686957607,394.5191028788395,26.423719865095336,20.453719414101215,31.293912225897657
2025-12-12 18:22:14.453939,Right,71.38404450264352,89.22805703643826,89.746460611379,78.89825311832828,176.4990615415736,79.97288115142146,85.08221800180036,94.55473491270095
2025-12-12 18:22:14.458907,Right,112.1935988637124,130.31965203705477,128.26314447642653,118.2804892907734,-173.73147471944685,117.14549827155133,124.94744534170604,131.46852061670506
2025-12-12 18:22:14.462939,Right,71.6298784196697,68.01991604350042,66.40056813880801,69.18525030399906,-5.242334585054778,66.47196309198625,63.85463536065072,71.22864074382233
2025-12-12 18:22:14.466935,Right,23.872363945716643,16.670719483401626,16.751847036357503,21.703232173313154,363.7219123110408,19.97616713498428,11.984725225396687,22.33320789967547
2025-12-12 18:22:14.470900,Right,54.373097749004955,67.91343932671589,67.24613745769602,60.9962416938215,242.3423286821635,60.35265868403076,60.01403554150602,70.43592299538432
2025-12-12 18:22:14.474955,Right,100.2021929075272,119.95340640237555,117.38549173614592,108.7593662601139,-139.69985367319896,106.45470028750424,110.89025983698957,119.40122485681786
2025-12-12 18:22:14.477991,Right,69.41438523821125,69.8854929828085,67.76165063973167,71.10492117644753,-63.82591905927984,66.36453365035413,63.27630020600918,72.14918257264071
2025-12-12 18:22:14.481982,Right,15.441404164026608,8.369000091130147,7.743391641211929,15.663711775530828,328.75849835091503,11.200372213454102,2.7176100658107316,13.000212762854062
2025-12-12 18:22:14.487000,Right,38.766469461872475,51.16655935821473,49.25032499968074,45.88057670296985,297.2112574374769,43.35516245040344,42.21279853321903,50.48555263126036
2025-12-12 18:22:14.491003,Right,98.82068386019091,122.08872346708085,117.18203482954414,107.32350123868673,-114.43019046945847,104.71652597493085,110.33536623184045,114.76377023625537
2025-12-12 18:22:14.494960,Right,87.83184572102618,93.35123780803406,88.40881556589738,88.15810140765097,-158.1734775234072,83.40170392618165,83.22665052686352,87.90337817010004
2025-12-12 18:22:14.499038,Right,29.366650463052792,21.541229640279198,19.62515250899014,26.05543451612175,222.502697031945,20.122653738435474,13.647982521448284,22.427385508693988
2025-12-12 18:22:14.501985,Right,31.812348757506697,39.37388591747731,39.05639396124752,35.53314576217963,292.1256657092017,29.677002009411808,29.67190481373109,40.037751128402306
2025-12-12 18:22:14.506048,Right,85.32761963560188,107.33057257378823,106.18418953762739,93.2412147171126,-96.68656065690448,86.25623573819757,94.49308777591796,102.37269650082453
2025-12-12 18:22:14.510064,Right,82.03463268754422,89.75513373044669,89.116695586883,83.3378817812918,-226.85346373479115,74.52972398593556,77.4975379089592,84.07012082729489
2025-12-12 18:22:14.514084,Right,19.766636255197227,10.992543817817932,13.079800552251982,16.474924485111842,138.70277935863123,8.507612990695634,1.7898501373856561,10.202577812917298
2025-12-12 18:22:14.519085,Right,7.233648660680046,11.165768228587694,14.210349094850244,11.481456305657048,309.20935679378454,6.759621839082683,3.141271349886665,12.050934335740749
2025-12-12 18:22:14.523084,Right,60.92165101521823,84.0304482600186,84.87395207448571,73.42940245270438,-44.56465253859642,69.95730098990316,76.03468288811564,82.22197996720206
2025-12-12 18:22:14.527121,Right,73.53842719460954,87.29176608775742,86.80144678887154,82.87520462473913,-273.9598414543725,77.16616552344931,81.6423189608904,86.43145420674409
2025-12-12 18:22:14.530107,Right,14.273371772433165,7.830295330961235,9.11763071756286,17.959899360721465,36.88403334515169,10.093134641036158,5.152604221308138,12.225649836749653
2025-12-12 18:22:14.534138,Right,-13.172575793592841,-13.508575034706155,-10.621312520292122,-5.000150418170961,295.99827078779344,-12.551747254517977,-16.98571175179677,-8.422286787361372
2025-12-12 18:22:14.538156,Right,35.64525131895789,55.07054321333999,57.182862165005645,51.01434677270299,12.820438209397253,44.25451548259298,48.71307047974551,54.9966704082035
2025-12-12 18:22:14.542150,Right,63.15160029093386,77.71017932936957,79.92983990210632,75.19601561855234,-285.0897922136355,68.20735950718517,72.16928272535733,76.69962600790313
2025-12-12 18:22:14.546138,Right,13.182023685250897,6.219185844238382,11.92359470721567,17.35188613551145,-42.998582916654414,11.209265784345916,4.903388530437951,11.882433388629579
2025-12-12 18:22:14.551195,Right,-23.504611754833604,-29.38858666480519,-20.204247828223743,-17.617130831684335,279.43005592127156,-20.77042494727357,-29.137005200056592,-19.557346185625647
2025-12-12 18:22:14.555189,Right,20.630184405687032,35.46272669482278,44.61806022362725,33.949834202678176,67.15755868787528,32.83632650903019,33.38945304740628,41.02169489512744
2025-12-12 18:22:14.558201,Right,62.75459613162093,78.36026368483726,86.52686709050613,74.92923674188205,-297.9904190704983,72.62185161690286,75.49961685485323,79.7228575170011
2025-12-12 18:22:14.562205,Right,23.88039845727326,18.360190520761535,28.352451574537554,28.76888584936387,-149.71651174360886,24.723494390578708,18.47857467792346,22.977542847045697
2025-12-12 18:22:14.566243,Right,-23.63260812794033,-32.72577615760383,-20.15009727816505,-17.333930537191918,216.7135316072672,-20.49426952266367,-30.192796673523844,-23.81002072854608
2025-12-12 18:22:14.570234,Right,8.644267457988462,20.340119862623396,31.960720919334562,24.206515188052435,96.65648214475368,23.030096835122094,22.36860231689934,27.172154294428765
2025-12-12 18:22:14.574234,Right,59.82551408975269,77.71296569869446,85.92054085309792,76.82252746411541,-305.08190785466286,75.87279319955269,79.74470687602297,81.16832745619467
2025-12-12 18:22:14.579244,Right,33.48156980596832,31.01596749998862,37.65978305497265,42.22527994895063,-255.96155676561466,40.90708979916235,34.94813724463165,36.73987842227507
2025-12-12 18:22:14.583252,Right,-22.167576086867484,-33.97492445568787,-27.131594906386454,-16.259596711577615,135.71949325125024,-15.847246449251543,-30.636956607588218,-25.493318340100814
2025-12-12 18:22:14.586286,Right,-4.83157964667771,1.925537975737825,7.3375768913538195,7.603329364705132,125.18883468193235,10.849386339526973,0.3868107721064007,6.169756322633475
2025-12-12 18:22:14.590299,Right,50.22977262326458,68.11936002822767,71.1339087523811,64.61004423565464,-275.4164676536311,68.8943604408123,62.951344415778294,66.58483963063918
2025-12-12 18:22:14.594242,Right,36.52163820351416,36.57282918303099,40.20295532212185,43.297855768119916,-322.55666873905284,47.248346349428175,33.03482292043918,37.21333064464852
2025-12-12 18:22:14.598295,Right,-23.98498031969939,-38.527663394779665,-31.73500672724913,-20.810730439188774,64.42436002605245,-15.864283866467304,-39.497707775299205,-31.825401302310638
2025-12-12 18:22:14.603327,Right,-21.821088622047682,-22.304615163448034,-14.571371898040525,-11.93070652129245,152.23198885858437,-5.084229833388235,-24.854558699807967,-16.711084646449308
2025-12-12 18:22:14.606328,Right,35.30718481216172,48.66793214742211,54.43340153526515,48.744754476021626,-231.70459444818698,55.19776759046363,42.73987173831847,47.27172803496069
2025-12-12 18:22:14.610356,Right,37.45730449751136,35.55086682726687,40.929806758242194,42.489956214732956,-373.7842459023159,46.20522883467493,28.876045483368216,31.911761735231266
2025-12-12 18:22:14.614311,Right,-20.62841032561846,-41.57996827508032,-33.731210277808714,-23.748108350555412,-9.585046771760972,-21.287156906939344,-47.86921717802761,-41.95280822391214
2025-12-12 18:22:14.618338,Right,-28.64473305940919,-40.161440114578,-31.182946166794864,-28.557124880084302,178.7690815197784,-24.323264154882054,-48.18113140077912,-40.72594327747356
2025-12-12 18:22:14.623362,Right,32.062193510326324,37.34749887914222,44.398689970592386,37.27349999883154,-163.12801853774,43.37525834584085,28.212770162703237,32.759236777128535
2025-12-12 18:22:14.626370,Right,51.44033332342224,46.16877069124894,52.09148821061535,52.50554957485292,-398.64294783872174,58.55756198168092,40.87405659472279,43.10886945735547
2025-12-12 18:22:14.630381,Right,-4.675750132802932,-30.731511976729962,-23.17314629230532,-8.78690966340946,-90.06137157360354,-2.8799631067959126,-30.325020258387667,-26.188669266935904
2025-12-12 18:22:14.634395,Right,-30.499063523777295,-50.20127701704041,-41.99974556938105,-29.35258195287315,183.51676372403745,-22.529706512767007,-48.84540680939972,-43.01203379666549
2025-12-12 18:22:14.638405,Right,22.768898665948655,24.312194842204917,29.696857799659483,31.58819484578271,-89.96256310828903,38.17577028072992,22.704354947578395,25.99933216861973
2025-12-12 18:22:14.642420,Right,56.31313059179229,54.721483230998274,57.38800001703203,61.79629867764015,-398.3515054626114,66.05278329139401,52.78428935073316,53.02772569755325
2025-12-12 18:22:14.646471,Right,7.215895782384905,-15.277393872471293,-11.984850351305795,4.517801577996579,-163.81980012133863,7.410154221841367,-14.098524400797032,-13.134750356926816
2025-12-12 18:22:14.651472,Right,-36.59670843156346,-58.10351071174955,-53.61609679249523,-37.595214094704716,178.49859686367563,-33.2728667104675,-55.952550083893584,-53.58279622165719
2025-12-12 18:22:14.654468,Right,-1.733842663699761,-1.965674730738101,0.8023289896227652,5.159173947227828,-2.021096928121551,10.63645215791621,-2.3606489338126266,-2.2824621140171075
2025-12-12 18:22:14.657481,Right,35.60641538145137,37.25571789494279,37.60262485597923,41.61588142373512,-351.00417823825774,45.19203895535611,35.926600633145426,32.85413774726476
2025-12-12 18:22:14.662447,Right,-3.901463345733646,-23.045262860345247,-22.136307794600725,-5.890432905645866,-195.77407458715243,-4.84227040100086,-21.671991945549962,-23.82320844042988
2025-12-12 18:22:14.666486,Right,-50.998174169741105,-74.22049996133137,-71.51602569746319,-53.135655385143764,190.03556177387145,-51.80795456003398,-70.94071999882726,-70.37898932964163
2025-12-12 18:22:14.670522,Right,-16.914998757027206,-19.182234086583776,-17.50861213410826,-11.228697632992407,94.34520313793473,-8.083564507425763,-16.89469157410349,-17.333053238930006
2025-12-12 18:22:14.674539,Right,38.431975355139,43.70910749995528,42.39135423597327,44.90455157276301,-301.62072284282476,48.28169220394193,46.29747761649196,42.393717881939665
2025-12-12 18:22:14.679546,Right,15.751974871091079,1.6263043519720668,-0.8857103729387745,13.774293232519994,-261.61744062928847,16.608423085781396,7.910340119626198,3.5197839464526623
2025-12-12 18:22:14.682542,Right,-40.43930809790254,-64.57519037844759,-66.99943220701971,-45.602506459392316,129.48491116953664,-41.14747846774844,-55.71918890660163,-58.17997626741999
2025-12-12 18:22:14.685615,Right,-26.69518461942789,-33.314126795812626,-37.69830050978635,-25.817587405901577,127.42864808170816,-18.24593388131325,-25.956787078663183,-29.404518042130803
2025-12-12 18:22:14.690598,Right,26.135641505657986,30.92508920425462,23.64464810241043,28.43291853073606,-275.3851565951245,37.182578570136684,36.81748431550659,29.668700963782612
2025-12-12 18:22:14.694610,Right,12.094003294900176,0.32869792499695905,-6.365898265023134,5.910897307614505,-332.8805891399352,13.40181078567548,8.331024759288994,0.516540740034543
2025-12-12 18:22:14.699626,Right,-50.18031538476862,-75.09143489996495,-78.02433757670224,-60.936806704165065,61.3946163487617,-54.326660946997436,-65.01643792082905,-69.71242303949839
2025-12-12 18:22:14.703550,Right,-50.971411381182406,-59.56472396593017,-60.65655249897827,-54.88410790279886,177.37070172280983,-47.98302759827493,-51.52483803722862,-55.10053339534352
2025-12-12 18:22:14.707600,Right,6.389810263703112,15.180683262304228,12.61434281738184,7.96890934532712,-185.96403679804553,13.860679645233176,20.193591111972637,13.956259356244118
2025-12-12 18:22:14.710567,Right,12.352268956608896,9.182908896938898,6.083636237308383,8.60536054615659,-328.3607754567156,11.544760622597096,14.913730873609893,7.6153553539516
2025-12-12 18:22:14.713630,Right,-43.82598731818507,-64.44374175097983,-65.05055385344895,-52.6449750372376,36.4608731584849,-51.60068412305918,-56.31446325545767,-60.54690680917338
2025-12-12 18:22:14.718643,Right,-54.659026514167635,-64.98576711559872,-63.49490950637119,-57.74433826483437,242.12145670942118,-56.00822071910443,-57.405304467534734,-59.43512601595285
2025-12-12 18:22:14.722628,Right,2.9388866164026695,11.288520267531567,12.299541677210073,6.524853344344592,-83.27763024745218,9.062324629958312,16.876614181102923,12.793185175600229
2025-12-12 18:22:14.726664,Right,23.080956946747392,23.271251792284602,24.186402835905028,22.267482637464127,-319.13706151725273,24.05335538867621,29.918959352529782,23.565358137402654
2025-12-12 18:22:14.730610,Right,-31.60096972270094,-51.24224639360909,-48.04901578897989,-39.94020982340953,-11.641450201919724,-38.32880053970257,-41.95350618647717,-47.34410980352186
2025-12-12 18:22:14.734646,Right,-60.21040492051088,-74.05035607056925,-69.45192150991352,-66.41045343696351,278.0775591107936,-62.97374321398638,-65.80369064816477,-70.57975035078925
2025-12-12 18:22:14.738693,Right,-12.070474994158303,-4.601241633037716,-2.013888584689994,-12.339508551991457,23.705066958186535,-7.632944196742756,-0.6954797436628724,-8.504535247539025
2025-12-12 18:22:14.741698,Right,19.605037366870874,25.590076832271734,25.83320625097258,16.43623395004397,-283.1586767784553,19.594679517635996,27.07829280488295,16.459625011684693
2025-12-12 18:22:14.745706,Right,-26.100119648629004,-39.22383258488662,-38.53873121830111,-36.06519979227596,-55.82431049610619,-35.26467581615998,-37.544675505945634,-46.73154840101961
2025-12-12 18:22:14.750671,Right,-62.85186026948031,-74.30789528287096,-72.89293124509277,-70.32497913145744,287.3264366889906,-69.87864481050201,-73.9428530214609,-81.05141805753192
2025-12-12 18:22:14.754734,Right,-19.589516989231015,-9.677919732022929,-10.363735155911854,-19.277083660325843,105.90439510888496,-18.13257191430648,-12.015503295237068,-21.09873785749369
2025-12-12 18:22:14.758760,Right,24.32296651440629,36.22888739029622,33.22153680230258,23.21470212250256,-261.9380762187095,23.79973049523113,34.83768896448055,22.832033058886736
2025-12-12 18:22:14.761779,Right,-14.040710421976655,-23.19298811657245,-24.709855880348186,-23.797086863071172,-130.15744863977443,-23.99213748714601,-19.560032944662453,-30.025951452326808
2025-12-12 18:22:14.765767,Right,-65.97361982680559,-79.69629037528648,-77.60347407445806,-76.25352560643864,252.06172903354854,-75.0839075266681,-73.10039204512577,-79.84054332061714
2025-12-12 18:22:14.769777,Right,-38.70160011171356,-30.86768685986135,-27.173888360546698,-40.55865260543487,166.5421911480562,-37.25942633797422,-26.097430070625705,-32.85915150688743
2025-12-12 18:22:14.773798,Right,11.203216725010861,28.53380864359997,32.86918837478515,11.813762396598577,-228.94921576092474,14.764476520789685,31.559770072421998,22.203768861309072
2025-12-12 18:22:14.777811,Right,-17.044521781434014,-17.518222301752758,-9.656128630260355,-23.132667599783417,-193.67642724179768,-22.38373065680389,-12.778133092934695,-21.226909399423107
2025-12-12 18:22:14.782755,Right,-80.11877702302809,-90.41563395762665,-77.4755017920179,-88.44865903479331,212.01874304607918,-88.38166429211196,-84.16887658811629,-88.29600247941255
2025-12-12 18:22:14.786823,Right,-70.57584587110614,-63.40620255080148,-48.83860797384841,-72.18516686291332,240.1830510117161,-71.10346410813872,-58.74161724646092,-61.11285641448012
2025-12-12 18:22:14.789848,Right,-15.138344642124139,4.480972093243963,17.05959285569952,-13.698972283355033,-147.5369603395393,-12.717415836737928,8.274391877399012,3.8231844408551297
2025-12-12 18:22:14.793775,Right,-21.44697640807135,-16.709463702963603,-5.0897148595413455,-25.797363658612085,-213.28652001472983,-26.130163655740034,-9.920333501009281,-15.622921397065511
2025-12-12 18:22:14.797839,Right,-75.72679791246628,-82.98307998366818,-70.19252805381802,-82.09251591805696,171.91334428588198,-82.29094872578207,-73.44507575277233,-78.5008032954247
2025-12-12 18:22:14.801880,Right,-71.39802567224615,-61.8325071451618,-49.4620918084529,-69.43885015633714,287.00987923713,-68.23807121189384,-54.12908317640654,-60.82823529830512
2025-12-12 18:22:14.805831,Right,-13.40589949936475,13.844403120478091,23.471366852538267,-5.342834939845488,-85.2229178624093,-4.5162397512976895,18.641456561439554,7.725790548014629
2025-12-12 18:22:14.810875,Right,-12.435051752938307,2.784011811347227,11.500078682680396,-9.346845678650425,-246.617474670742,-10.679533887792786,8.89888400103655,-3.165043873948889
2025-12-12 18:22:14.814902,Right,-77.14694240300742,-80.03097862639515,-69.07119470846192,-78.9250343041931,111.83928610100156,-80.71950296754585,-70.75687226747596,-79.15768319360723
2025-12-12 18:22:14.817906,Right,-93.4936366439506,-86.53313866837743,-74.3439452991588,-89.6667888341508,329.5688476911473,-89.56875701138051,-78.03033651379701,-83.6962685234339
2025-12-12 18:22:14.821903,Right,-33.26307953567448,-7.076541757573068,3.341341125861618,-23.043466724040627,7.685690539374264,-22.50861651460582,-2.2874815950272023,-9.436502562961323
2025-12-12 18:22:14.825933,Right,-5.4407856929901754,13.367339648695634,22.85780005826109,0.5443021823193703,-249.01892007565402,-1.6628155203034112,16.94104189128302,8.803994052839698
2025-12-12 18:22:14.829938,Right,-54.8397370637249,-56.07142629827467,-44.2499871062073,-55.27197343823718,35.07723735068066,-59.959339845139766,-51.33388853534598,-56.318750463637116
2025-12-12 18:22:14.833901,Right,-81.843379265767,-78.02883959384053,-64.2244340872162,-78.10952139760411,318.5189919982622,-82.5076577367472,-74.59878586951527,-76.64534072452443
2025-12-12 18:22:14.839004,Right,-30.577243870655366,-5.510670229072275,6.9495879610522024,-18.77929761622363,58.81514128971685,-22.63001557786265,-5.902507371667525,-9.467270605684462
2025-12-12 18:22:14.842979,Right,6.522562387493963,30.391721325107937,41.34146072466547,16.440283103591355,-270.370392929839,10.962856987876876,28.43503090815284,22.847570855261438
2025-12-12 18:22:14.846005,Right,-38.264810956017755,-34.17396215921326,-21.482965118894867,-35.673980298026436,-64.64589956937925,-42.70327198119776,-35.12156803763719,-38.193505560622725
2025-12-12 18:22:14.849990,Right,-81.66660677191976,-77.155437585654,-62.121689594644835,-77.6738933127599,279.73521883398644,-83.43715974275983,-79.22933492177435,-78.26704997094203
2025-12-12 18:22:14.854014,Right,-45.526612388086505,-19.86614914218444,-5.651864441087582,-34.013508009476936,106.54136275474593,-37.584313537561684,-25.522966997683397,-24.333912487203634
2025-12-12 18:22:14.857952,Right,-2.4835271204137825,25.92115880206984,38.1166524705593,8.382137171847717,-272.2228679797263,4.730082297348417,19.563423000716284,19.274427492349787
2025-12-12 18:22:14.862019,Right,-38.127648283531016,-30.843109676254244,-18.183153156865956,-35.15783644360636,-159.3942441051513,-40.13085756442888,-33.92389879999246,-32.300532979781565
2025-12-12 18:22:14.866059,Right,-88.49667238369875,-87.33635342614798,-73.4143546520013,-86.36625247113989,222.55093420399498,-91.02261811398057,-88.90654804165024,-83.86231106451669
2025-12-12 18:22:14.871079,Right,-59.34661097487697,-38.50952130756559,-26.37504178805102,-50.35049256726052,147.61591969959045,-53.795398673886666,-42.87802214847761,-38.40763925565625
2025-12-12 18:22:14.874055,Right,-4.378941629554902,24.66002893808036,33.42602967871426,4.875407507672207,-253.71440488466033,0.9597943161934381,18.298857178146136,19.39457421291445
2025-12-12 18:22:14.878094,Right,-26.56507575505384,-16.314452916449227,-7.957804398793996,-25.8088012760345,-236.56546881480608,-30.893186682726082,-20.265419353123434,-19.60789795342862
2025-12-12 18:22:14.882095,Right,-85.29958583017287,-85.56840756252132,-75.0300435796471,-87.19253902111814,165.67595357983373,-90.98086461187631,-86.58465696386338,-83.92078864894575
2025-12-12 18:22:14.886133,Right,-70.44082761793834,-52.971715176430735,-41.99633037973672,-64.73925053709536,203.78893885120488,-65.33297399186995,-54.22590685447358,-53.05349355292856
2025-12-12 18:22:14.890114,Right,-6.440096224832814,24.257494196532207,33.6897482548211,3.0131380257589626,-187.34457427838788,3.66880219286395,22.64746343304796,18.639527334329614
2025-12-12 18:22:14.894124,Right,-6.621350100074778,8.4987753262576,18.399390593953285,-3.775650967247202,-270.6784465933306,-4.613701966984081,9.7598949806561,3.233159626441193
2025-12-12 18:22:14.899090,Right,-63.573728939569264,-63.2328300754416,-50.58910119565007,-64.71469004260871,111.01549000488012,-66.8040864347713,-59.14969952914544,-63.87670525669455
2025-12-12 18:22:14.902151,Right,-65.76467439429689,-51.30854312638621,-38.02699777129237,-60.19066832798853,241.17317320151778,-62.458318520242756,-48.46437503847119,-52.612303068519395
2025-12-12 18:22:14.905150,Right,-7.14131044158421,24.172484004779108,34.991357939170484,3.8731878424587194,-127.86373544456728,0.12434474461770151,24.84719306318948,17.866523539662012
2025-12-12 18:22:14.910148,Right,2.097563967159658,21.166911962991435,30.769618306125267,7.586358682601713,-309.97575682232855,1.2604731315732352,23.933251636171917,15.646153641093406
2025-12-12 18:22:14.914158,Right,-57.80560857814271,-58.42515817187814,-47.017505581814476,-58.14824291606783,31.864775392750744,-64.37582266882964,-51.113786534911924,-56.84031317215704
2025-12-12 18:22:14.918167,Right,-79.24951028102805,-72.38993469260095,-60.02718975398966,-74.551008720955,255.88974779968703,-77.31238559162739,-63.32636359583557,-67.53186327419098
2025-12-12 18:22:14.922188,Right,-28.420979400063516,-3.485707734929747,6.887005959313683,-16.707525508623803,-56.97634121434385,-17.171125969674904,5.196686978910293,-1.5427291097075795
2025-12-12 18:22:14.927208,Right,-7.177274623951234,10.601497487667075,19.621084301003066,1.350352323926927,-319.17091595796956,-0.7240813880925998,21.145114371083764,12.275511460960843
2025-12-12 18:22:14.930234,Right,-60.35754935130535,-62.6312697083049,-51.94126121675254,-58.31067329920916,-36.62141705268732,-62.809065960937005,-49.003168714680214,-56.10942487236025
2025-12-12 18:22:14.933232,Right,-90.69524371962325,-88.98665697715478,-77.04396359572638,-86.20890443516691,267.2829659490817,-90.86702966212033,-76.09318072524911,-81.63686364120804
2025-12-12 18:22:14.938229,Right,-41.09095696169243,-19.79037450181204,-9.919883551279781,-31.175649395532673,33.17744336659962,-35.34117915535171,-11.063215663849405,-19.334753543691477
2025-12-12 18:22:14.942237,Right,-1.7370676820355584,16.371034341653285,23.93340363693642,3.7963487853849074,-286.7106323259359,-1.2109216813623789,23.068259134211985,11.433841218997259
2025-12-12 18:22:14.946206,Right,-40.633313948892464,-44.55996251151373,-36.155673904871946,-44.171392370713875,-77.5667658651073,-49.76184274951083,-36.84813121490515,-47.60323433085432
2025-12-12 18:22:14.950269,Right,-76.03116342522117,-81.11699805661192,-71.32983388151479,-78.90965837350086,282.88205772509536,-83.36481807532255,-74.2110991796144,-82.50260076349514
2025-12-12 18:22:14.954270,Right,-30.905113578002783,-14.754482810152695,-6.7807750770953135,-26.165632520642248,128.04633356161503,-29.874935845538857,-11.303841378725338,-20.56869829167408
2025-12-12 18:22:14.958294,Right,19.752332116069738,39.57546433828247,44.738088868762134,24.131091025359638,-249.97694183499698,18.95429202628293,42.45749614984379,30.684337498954847
2025-12-12 18:22:14.961306,Right,-14.033071785139327,-15.437098448019242,-9.867856937813485,-17.471414689796802,-143.42109733670077,-24.033269475658017,-8.271737607643445,-19.168128676799824
2025-12-12 18:22:14.966321,Right,-69.59773088566726,-78.25893509318848,-70.58359318536895,-73.33818822466128,251.423135968078,-78.73321865788603,-67.69285755343299,-75.99017459426977
2025-12-12 18:22:14.970313,Right,-46.555993013033,-35.779353213518334,-28.773374043248623,-41.52718815769185,204.32132776646176,-45.32543959350005,-26.547382386994286,-35.90813385631918
2025-12-12 18:22:14.974327,Right,8.939852477429667,29.03385805452126,33.248977208251745,17.006634909135755,-183.2711776517899,12.168602247053059,36.32115120552044,23.23670963409677
2025-12-12 18:22:14.978351,Right,-6.417519311478827,-4.637338811720838,-1.1289782272251614,-5.021321778185666,-172.76591035143065,-11.619435059728858,4.061939579183672,-9.664036064306856
2025-12-12 18:22:14.981354,Right,-59.25919399103441,-69.4995167679881,-64.79416334690177,-60.84678078487195,223.92909688402142,-65.82924200721754,-59.132813213585905,-70.39003618585411
2025-12-12 18:22:14.985358,Right,-43.95630957447429,-38.66915160132339,-34.77463636538596,-39.79085609246249,264.8507115800312,-40.74899436770647,-29.929855150327057,-40.971460455803026
2025-12-12 18:22:14.989384,Right,17.359197793535714,34.557004483402125,35.7018448729832,23.325660240414436,-130.89635091726814,23.829977991510532,41.22979004801891,27.835533836951072
2025-12-12 18:22:14.995401,Right,14.702316036287812,15.617683811717143,16.206604431707092,12.56493406775553,-227.38067550161213,10.855186788707215,23.222656515645212,10.42570487625926
2025-12-12 18:22:14.998393,Right,-44.320262610999634,-59.05636206249619,-56.40413978160359,-51.507572532362246,153.8857460346262,-55.15316170008009,-50.37961237896161,-58.878184121247614
2025-12-12 18:22:15.002394,Right,-48.51037843915401,-49.76831178577413,-46.739128043631354,-49.415370409995376,300.2772401646507,-52.480083121496136,-43.43770881324599,-50.120623187118326
2025-12-12 18:22:15.006446,Right,8.763420357696305,24.534174323845946,25.083774452261423,13.465390400364413,-59.29672725935234,11.532526116716326,28.273018307943858,18.572101126053894
2025-12-12 18:22:15.009443,Right,17.560347659084073,21.734454054676462,21.0215491879826,16.828063022418064,-248.16876006586244,15.391103525842482,27.16353846626589,15.138728070262005
2025-12-12 18:22:15.013457,Right,-40.80542905841139,-55.463321006631304,-54.63465372153951,-47.87885518945404,89.9507989236663,-47.73247313527099,-46.704256949262344,-57.09681160682521
2025-12-12 18:22:15.017440,Right,-56.62352855748759,-62.30246852689743,-61.105272300137585,-59.604714800356305,321.99077531150397,-56.630440882880066,-54.02149480103617,-63.267583067849046
2025-12-12 18:22:15.021416,Right,2.9705702648643637,17.331240168794466,15.666172343459039,5.9732596236644895,9.223728132172255,9.951554689374461,22.667337372142356,11.058628327598854
2025-12-12 18:22:15.026480,Right,30.530028676635993,38.77199316605402,34.96930961430917,29.558538762372336,-271.12308676388056,31.657722008167184,44.33524758403655,31.363980531408743
2025-12-12 18:22:15.030481,Right,-23.2774698541034,-35.55801621030696,-37.84910666365613,-30.611142088790075,-4.32605990695447,-29.86913443794765,-26.619126844972925,-36.44103499939956
2025-12-12 18:22:15.034496,Right,-58.63450568486587,-67.31650239631563,-67.78057985793203,-61.8489106865818,300.21673687895236,-59.62409432446293,-56.947144611047406,-63.700221666491416
2025-12-12 18:22:15.037564,Right,-12.323293172587,-0.23651378773502074,-2.0089692976798688,-7.339523074275348,61.9254044786212,-3.4559336994352634,9.063678164638986,0.48776826543326024
2025-12-12 18:22:15.041505,Right,25.578474534035195,35.984441976295784,32.28695665836858,28.513004218613787,-286.03220714822237,31.517858194078144,46.39797161244496,34.66310383495875
2025-12-12 18:22:15.045593,Right,-19.59390269810683,-31.57556089323043,-34.31856734719986,-24.650803067866946,-106.8881639654137,-22.834185462153982,-17.088591173323948,-27.906187015396426
2025-12-12 18:22:15.049573,Right,-67.79927394630067,-82.67940532845387,-83.63823188104652,-71.55938314100058,251.32761645950086,-68.14505106723664,-66.04355123501227,-74.25103665857023
2025-12-12 18:22:15.053604,Right,-33.07518475625693,-27.151972333042067,-29.01413824359406,-27.997702103421034,109.83319489468704,-21.99754168929212,-12.052354115490743,-21.22395446508017
2025-12-12 18:22:15.058594,Right,17.689980221410224,29.05722438131488,25.45136822942004,23.88716046821355,-271.0980408985779,29.97761491885467,43.233086449708935,31.421584827847255
2025-12-12 18:22:15.062537,Right,-8.646097519609611,-16.49215913122316,-18.93361356692185,-9.710521471104585,-183.02382327170926,-4.9309505812998395,-0.653507542971056,-11.381076777528506
2025-12-12 18:22:15.065585,Right,-57.97517710336251,-72.46224905847339,-72.40631503347686,-60.18687785718066,200.01543820816732,-54.726719860889716,-56.56507349313688,-63.76589662407059
2025-12-12 18:22:15.069553,Right,-33.049530201962625,-28.291450159180386,-28.52103473844909,-28.131153108122817,145.20246980222873,-20.67367925964936,-16.113317249444663,-22.745547443009855
2025-12-12 18:22:15.073548,Right,22.04525897665735,35.98567432980781,33.64422671570355,28.24171067014686,-265.04860437528987,35.56045425507182,45.162099069621036,36.84390080184676
2025-12-12 18:22:15.077623,Right,4.164235326796188,-0.6578029444171989,-2.743074786114448,2.0712363795719284,-281.8246919105295,7.008393779480684,9.226862904932204,2.270387647411553
2025-12-12 18:22:15.083634,Right,-53.90673548509221,-71.44499894304681,-71.31849911964309,-60.07465888595107,114.30902214671369,-56.80378847320753,-61.46403039480356,-64.4919973519718
2025-12-12 18:22:15.086645,Right,-42.43373610406343,-44.094346574271185,-44.011521383388754,-42.925004560478556,180.03401328786276,-40.1761971251799,-38.34456259000217,-40.68888370190325
2025-12-12 18:22:15.090674,Right,20.410719111525395,32.306500557384425,30.08023547043922,22.54423190761736,-200.5500599847437,23.611089036159683,33.584856433088135,28.29861435892235
2025-12-12 18:22:15.093667,Right,21.04013229445991,18.007075330697262,15.678891978506726,16.255666775396094,-303.78821088865516,14.691256308124139,19.354134977831563,13.575353440126491
2025-12-12 18:22:15.097669,Right,-38.84788069080969,-57.18454584895517,-56.559965205135086,-47.16463320530238,73.18010118149687,-49.46606056148448,-54.11954998630972,-56.24437543104068
2025-12-12 18:22:15.101692,Right,-46.179813053520775,-50.162441003121785,-47.98546685607289,-46.031471837526624,228.9205222056189,-47.183776980229595,-48.67085594126911,-48.51843780218769
2025-12-12 18:22:15.105693,Right,12.98060540271399,28.305674073126283,28.67127297180923,21.014837268565316,-129.7187029682973,19.695243408674287,26.71599642691217,25.27138306658162
2025-12-12 18:22:15.109712,Right,29.536077897992072,34.909026083845674,33.68695614499302,33.02436731077978,-336.17259883701627,29.62597550467399,33.03428635930686,30.96106595373567
2025-12-12 18:22:15.114748,Right,-22.980503681679693,-37.496665898626816,-37.89691181491435,-26.85836584392746,-7.7081761480658315,-31.103473185135954,-38.767801261830755,-37.75787391081758
2025-12-12 18:22:15.118740,Right,-39.37793086067177,-47.3739394922668,-47.545519068422436,-40.72666651258987,241.60340282160905,-43.446469721999165,-51.69011863797641,-48.59843710910354
2025-12-12 18:22:15.121739,Right,18.399272871771245,29.23634920064069,26.74075410527439,22.463732371714286,-48.731255025064456,20.761529997860634,20.3977228014337,21.15268357453533
2025-12-12 18:22:15.125740,Right,48.36931156375795,53.23428026713009,49.0676667563057,48.69375716500508,-326.11852767365053,46.05529360784567,44.40417094075383,42.73648464346843
2025-12-12 18:22:15.129754,Right,-1.8588469636997615,-17.740882145233627,-20.500613624768448,-7.955731546218885,-63.0930970358022,-10.576011298919184,-22.55832491941692,-22.59478607303754
2025-12-12 18:22:15.133720,Right,-38.12372264442092,-51.14280140547635,-52.51225732445528,-40.560560563517356,253.42267555990838,-40.03805911002928,-53.92050948444012,-51.88723579862199
2025-12-12 18:22:15.137787,Right,3.8115462172791013,11.680630631475651,8.699370452959556,9.367676004847453,34.37749909226841,13.53736570165347,7.936209547686303,8.041783178265177
2025-12-12 18:22:15.141791,Right,39.131006353451085,46.32637353491373,41.48179581044678,42.49520776621284,-306.31778440310154,47.74576727659587,43.26927217005141,40.650421508664294
2025-12-12 18:22:15.146816,Right,-4.731382346319151,-19.520914655069646,-22.97841613404671,-10.3831541652944,-124.2643437813822,-5.394740270981856,-19.5335881997853,-20.711308645386453
2025-12-12 18:22:15.149831,Right,-48.85501592831679,-67.27453023908674,-68.35235574916078,-55.20395464547619,249.38691757088236,-49.76480864721452,-66.9630920786185,-65.00652843100397
2025-12-12 18:22:15.153829,Right,-8.477136170437007,-7.025774209014344,-8.723513134395034,-7.90715236613687,125.68059668288333,-2.9845394224030315,-10.674798115760495,-8.993183897822746
2025-12-12 18:22:15.157823,Right,47.17503595485687,53.3206875887081,49.416625971385656,47.77793632917019,-254.85234977623622,49.20827582325728,46.38580714850832,46.402267867357295
2025-12-12 18:22:15.161786,Right,21.338121900851547,7.149087113793939,3.3853749643531046,14.329904312329745,-173.65757850767113,11.844451077355188,0.31019611237206846,2.5260387592206826
2025-12-12 18:22:15.165861,Right,-31.66995355551262,-53.62334689364434,-55.7353905517848,-39.57495456921788,219.93905993556837,-42.725375777905356,-60.71325532672199,-54.298325740619475
2025-12-12 18:22:15.169873,Right,-9.311254470603672,-11.844408128745272,-14.482481167167862,-9.29730645062773,188.06202713403036,-11.203911334612712,-21.803318537393352,-15.333986097190063
2025-12-12 18:22:15.174834,Right,47.33460177011693,55.38611687995581,50.70372005358877,49.35344113034262,-213.03827906285005,46.75642613035052,43.946799743309384,46.941930209730344
2025-12-12 18:22:15.177918,Right,31.656060307317603,21.92233054061944,17.43827264016727,25.395791391361854,-236.15648091529147,20.934259821355226,13.20133540572715,15.359555934177479
2025-12-12 18:22:15.181846,Right,-27.621277528121936,-50.20058378103931,-52.765348428703874,-38.26119702453434,159.53161329009163,-41.76298240920005,-56.18662159978339,-51.62424370587178
2025-12-12 18:22:15.185910,Right,-19.737685388616228,-26.541695117077325,-29.64568803412112,-24.253184372168107,232.5663262148737,-24.244042501917647,-33.791747280512936,-28.96553425195816
2025-12-12 18:22:15.189924,Right,40.38895971601687,47.646986069237755,41.63633767991632,39.88762461712213,-152.40403648586653,41.70610450750428,38.671084432888165,40.87330997000754
2025-12-12 18:22:15.193958,Right,39.46708926168776,31.508675217344717,24.844645494835277,33.22336293069202,-270.31808875688876,34.266217513300944,25.16923367871641,27.322691979872616
2025-12-12 18:22:15.197972,Right,-22.573558275064897,-48.135729269451986,-52.44714998800555,-32.69700402374474,108.04538537158805,-31.689906850699117,-50.10278363638281,-44.07354514443796
2025-12-12 18:22:15.201973,Right,-32.41718207965641,-46.74615634434667,-50.29124017337017,-35.96096719932575,286.5209167621506,-33.34027147956749,-47.86025968577451,-39.610923959644424
2025-12-12 18:22:15.205970,Right,25.43386578568152,28.585199082252075,22.617301205213153,27.61775971773568,-56.18026232038392,30.405663758017,26.035564769899793,32.40201740030534
2025-12-12 18:22:15.208978,Right,41.33997931937756,34.28320049409922,26.890991688109352,37.63147437969292,-269.2167415987351,38.20734634554901,32.33748417422976,37.6831610855952
2025-12-12 18:22:15.213990,Right,-12.707631826369607,-39.495596921588,-45.05222671159572,-24.179300077517837,49.24206785892602,-24.711036801329556,-40.04686909312659,-31.84040326448303
2025-12-12 18:22:15.218006,Right,-30.614343523819116,-50.54732919356502,-54.58400291065482,-39.23971667337901,300.4160627082747,-37.8852132316847,-53.01806247632703,-42.44426557219231
2025-12-12 18:22:15.222003,Right,27.607847488882612,27.597012584617914,22.121864726210333,25.06740250537041,9.38929804552754,28.415593440674,21.658864814951812,30.792653088232328
2025-12-12 18:22:15.225967,Right,58.911592998407514,54.25309029876007,47.14844641025411,53.043527562003874,-282.2358730653941,56.25172288702288,48.73293474275124,56.55337584364497
2025-12-12 18:22:15.229039,Right,8.877071872883107,-16.087579517406994,-22.80333598317884,-3.5282284056311255,-29.91077827330446,-0.3126778721438086,-17.840172421807438,-7.794578779155927
2025-12-12 18:22:15.232984,Right,-26.24186274341446,-48.355755274893454,-55.60310098061382,-34.99204754063703,290.39491766600986,-29.410602030431722,-48.77361117662258,-36.89315530869135
2025-12-12 18:22:15.237143,Right,21.134690747948753,20.92481504007992,10.004610268924807,21.357627735038477,67.75215493520955,29.43559056715833,18.393250204951983,27.858117860780112
2025-12-12 18:22:15.242076,Right,63.39355593151777,64.54646967642111,50.52793758683947,63.308488049990046,-301.6485316326871,71.1133235624136,61.239466790610095,68.17043738659413
2025-12-12 18:22:15.246038,Right,20.68859397374399,1.4496609027828526,-11.248309664333647,13.366493750912468,-151.7956652219582,19.546421150598235,-0.15133125649481372,9.37732480190789
2025-12-12 18:22:15.250075,Right,-30.474171204055892,-52.596420089217645,-62.19873329439906,-37.490291938043356,213.50076483951125,-31.21828282955903,-54.515943526743285,-40.51396710599602
2025-12-12 18:22:15.254157,Right,-0.058595502847310854,-1.383762932211539,-10.551801043076921,0.3508676120790142,95.01001065626042,7.737376805882377,-6.7960280137394875,7.202190620204419
2025-12-12 18:22:15.257116,Right,49.03355011053827,53.75291072292657,43.654329261969906,49.93655948457575,-290.9007494204707,56.50453196709077,46.43796249150546,57.45795030295176
2025-12-12 18:22:15.261139,Right,21.372862553231244,6.467388185687923,-2.094820060003258,14.958402345979607,-218.72937395895133,18.970325025876264,0.3171274303313112,11.480298902975846
2025-12-12 18:22:15.265285,Right,-30.704417032586207,-53.5958188431141,-59.458176228352386,-38.186690624098674,184.64661075072945,-35.73135983920747,-60.81394019099753,-46.82365233492965
2025-12-12 18:22:15.269162,Right,-4.962285283960227,-8.396495393500118,-14.651995380021617,-5.024693598520116,173.40589987681597,-2.8329702642986376,-21.302911612878233,-7.35301348509347
2025-12-12 18:22:15.274180,Right,58.095183438885215,66.07870845447269,57.034230159297294,59.570550812386045,-224.86038418344106,60.90511473519382,48.72308446059287,59.77042247309146
2025-12-12 18:22:15.278121,Right,48.95860585039554,39.64761980671119,29.958241003821968,41.98242201014182,-262.8404599991627,42.319235995748386,23.792725870463983,34.459965212807674
2025-12-12 18:22:15.282208,Right,-8.206261657551295,-30.938898779872034,-38.880784548748125,-19.18359492463469,128.71195525677467,-17.81943889431659,-43.44961277564289,-30.272074530061673
2025-12-12 18:22:15.285189,Right,-2.2867772666377277,-9.682862911243319,-17.674672836848913,-6.190573617862356,214.9193966556195,-2.9216171007101366,-22.573277440604215,-9.479227627249657
2025-12-12 18:22:15.289137,Right,56.91693900750579,64.59447663598348,54.242147327058774,57.84013175600194,-164.36711646491312,60.122420944140686,49.3020081477589,58.888779180874735
2025-12-12 18:22:15.293208,Right,58.12480660678011,52.340707276398916,41.718908265618666,52.95334250615633,-293.25440315560263,51.40333576805824,36.82154151827308,45.30745679218717
2025-12-12 18:22:15.297212,Right,-1.5627050902312476,-23.939602401596403,-31.45884669641964,-12.172142564293608,79.67560568432964,-15.933351341882371,-38.805411633340555,-27.295985913939376
2025-12-12 18:22:15.302169,Right,-9.869385443782448,-20.711801297262355,-25.84668479636457,-15.307800751128525,268.1638193298859,-17.952846761243563,-37.05514796413263,-24.312906436217418
2025-12-12 18:22:15.306234,Right,49.979626671143706,57.05991561169526,51.80458500068016,50.478230554782385,-70.06678876996739,48.78674186468743,39.83054069582795,49.23990426314322
2025-12-12 18:22:15.310247,Right,65.65797343526538,62.93806918539576,58.50536844695125,62.32129204223111,-294.12005665522884,59.42834412653065,49.76731376101543,56.89084975993792
2025-12-12 18:22:15.313268,Right,4.371247702882101,-18.22058238246302,-19.543482450783813,-3.872492435798449,20.13518656126689,-7.064927871679174,-25.037723077857663,-15.3784788061609
2025-12-12 18:22:15.317262,Right,-24.818433742999332,-40.68199361563222,-40.80321290026859,-27.994947452325505,285.8617265440698,-28.427873121367156,-45.048032774499916,-33.04509433940302
2025-12-12 18:22:15.321281,Right,28.216106970714463,32.7016261479111,29.57900053065441,31.650619657997595,2.529869762060116,34.21667756569332,27.24847977738864,36.594144366319824
2025-12-12 18:22:15.325290,Right,64.05017618400052,63.79319559709259,57.60859462289318,62.565474108389026,-308.20177961082663,65.92881834156287,59.08915954964323,64.35249833166858
2025-12-12 18:22:15.329317,Right,20.493843380487306,-2.011951073750083,-7.8828386048726315,9.204286267731732,-78.21980603186239,13.276618826248523,-4.111929262668127,0.35121896271311925
2025-12-12 18:22:15.334323,Right,-13.815399594150222,-36.639151000023844,-41.84731051072413,-25.135358984511186,247.03822338407917,-18.69590161222186,-39.483485239640686,-35.052523711114645
2025-12-12 18:22:15.338317,Right,29.988659813432605,26.31674957829091,18.78738763261481,24.752987933887198,48.0456601067126,32.59304069137761,19.300567257432704,20.77102857542286
2025-12-12 18:22:15.341329,Right,69.42406162508632,65.08862471313387,55.05746400887074,62.240397573181326,-304.4019477504189,68.49234660897491,56.53554945476208,55.33839670797397
2025-12-12 18:22:15.345366,Right,25.850052586542006,-0.8155491208285639,-9.702300105861468,11.08528633667811,-142.28541767630668,15.956133079676874,-6.417244416151789,-5.641472689704187
2025-12-12 18:22:15.349363,Right,-25.28152097365819,-56.172418620485814,-62.394172099170646,-38.796693159216375,246.13951448575244,-31.562736825988395,-59.51469154518372,-55.44410012910794
2025-12-12 18:22:15.353311,Right,8.114308204203553,-1.522407216190004,-7.624742033535767,3.617488247829897,149.45924237793952,14.742148129607813,-6.134887029752463,-3.236934210585332
2025-12-12 18:22:15.357376,Right,64.33561676317913,62.37425182911511,55.19262245298614,61.14146266491662,-242.35393659297551,73.39606794809879,56.74497724816183,55.85577696890505
2025-12-12 18:22:15.362422,Right,42.01362840571892,20.889192085871855,15.261655229478947,30.581147708602657,-196.632463332935,41.89157200591944,16.92785477690859,15.7609108489969
2025-12-12 18:22:15.366403,Right,-13.289574253973115,-43.947859926821366,-46.593495801736026,-27.630803905931316,193.41807899002742,-15.627992691344843,-47.14255692947995,-45.269877292464116
2025-12-12 18:22:15.369417,Right,2.9557905806213967,-9.958155004746004,-12.363979347986515,-4.7620204572958755,189.6271480171854,9.335890118385578,-15.414358757461287,-12.418942835811322
2025-12-12 18:22:15.373439,Right,57.67338861117605,55.94458138732807,51.74194230507692,52.8022142572263,-203.65729206633114,66.9615918578038,49.59173479731612,51.55513971126129
2025-12-12 18:22:15.377485,Right,43.32555140913246,24.86728613097921,21.278848398814716,32.513252514871056,-246.57261410876526,44.72663875683247,22.240588993043275,25.772738382548596
2025-12-12 18:22:15.381391,Right,-18.540588343115814,-50.24943197555558,-50.82282368607957,-31.198809006000374,147.11061735138355,-19.419935182624613,-48.725275450977506,-40.944459379251384
2025-12-12 18:22:15.385458,Right,-16.234621347633947,-32.631775708050554,-32.34761537758959,-20.487789163482375,242.90022562239028,-7.191069034632164,-31.030846645432973,-21.719978496918884
2025-12-12 18:22:15.389472,Right,43.4033673945014,42.32266237422755,40.40053144049148,45.014473153198196,-142.00192558461276,58.217482738546096,42.77037857378636,49.95285828948454
2025-12-12 18:22:15.394505,Right,48.037106045525434,33.573129071637595,30.458471820769773,44.78632383752483,-295.0512846653146,55.11474187013664,36.02991588393314,42.91227743590662
2025-12-12 18:22:15.397439,Right,-9.9588473104086,-41.23657033935979,-43.23937700826423,-17.103934475251663,60.22924025783141,-9.315732058727008,-35.946532012332,-25.67354114704449
2025-12-12 18:22:15.401584,Right,-19.45455843118907,-38.57099481021578,-40.820946732811535,-19.66761237611172,246.68424099078402,-12.663713144855137,-34.10206414591016,-21.898766982102643
2025-12-12 18:22:15.406575,Right,40.98898929495044,42.03709594469001,37.03147791955337,48.33247501851838,-100.93785030284198,53.53501511536706,44.28820996060267,54.36397787295937
2025-12-12 18:22:15.409566,Right,61.462024684777134,55.19120878322792,49.164064576733495,65.87201958888363,-351.97565218761156,66.97186601099747,59.20827880022625,67.6420963905066
2025-12-12 18:22:15.413576,Right,4.353116562033392,-20.882797939490047,-24.065957834798496,3.8876638043275307,-55.46804951346712,1.835989237857575,-12.469113522828593,-2.365695881459942
2025-12-12 18:22:15.417584,Right,-26.018078306762618,-44.59913727066487,-45.21116752050314,-21.617304219145808,222.03878758889914,-23.436530703540484,-35.1821666830333,-24.55268756087753
2025-12-12 18:22:15.422513,Right,22.952101420360123,25.80459122441971,24.10751344096019,34.218175857044116,-40.707510127002024,33.981185590311725,32.533138037206754,39.14698298561052
2025-12-12 18:22:15.425515,Right,56.9705870941325,57.622027490275286,54.07716370183482,63.79621370119639,-348.67232705846254,64.47415523657219,63.2429870696601,65.79139386639508
2025-12-12 18:22:15.429592,Right,13.531199739572912,-5.897534670779351,-8.651601873432128,10.412551493940555,-125.94406542365323,12.755819327670906,1.0953705619667744,4.292546421045699
2025-12-12 18:22:15.433619,Right,-22.33124626412973,-40.98162583260273,-42.46664055524229,-26.365488528139394,200.69106557763007,-20.93646871222154,-34.75896520073729,-29.45694462197389
2025-12-12 18:22:15.437665,Right,18.725144278170774,20.662348844380176,17.903877666882636,19.86327131868893,3.09862004336901,26.526101454886884,23.127621568369705,26.980921247024526
2025-12-12 18:22:15.441633,Right,56.407779561384814,60.07465421331017,55.81233360538931,54.92561323031987,-363.55744295463955,58.6625599370218,60.762354996146314,61.89172449264879
2025-12-12 18:22:15.445673,Right,10.242442969807598,-6.4899759908612396,-9.051538248543238,0.2650285670879384,-216.99796640349814,0.22350538846148993,-3.834433587921012,-2.156464419713302
2025-12-12 18:22:15.449638,Right,-46.40924815005201,-66.82307888632658,-66.55276698257194,-56.35672108536164,177.39173728760215,-56.73846445017989,-63.0559006675976,-59.832828286766016
2025-12-12 18:22:15.453596,Right,-18.89168252082709,-17.844565577093817,-17.47143970664274,-20.519876105978256,99.22094897653733,-19.03366620791894,-16.177153821122374,-15.04358446678998
2025-12-12 18:22:15.456607,Right,35.008997682532936,44.70912391555339,44.07626530798825,35.28571115740124,-284.8845747972664,36.809588592910586,45.14942101622728,43.02771666149965
2025-12-12 18:22:15.461678,Right,14.051116360238666,5.999831405227269,7.3779021847417425,7.923545001427556,-237.74998217615212,7.522803242753071,8.522455134126176,7.659293195782084
2025-12-12 18:22:15.465667,Right,-38.73426181125251,-55.02285646174823,-49.89172519201384,-45.48323893786255,167.31255958182737,-46.90753622113334,-51.29899256034605,-47.940419966987974
2025-12-12 18:22:15.469723,Right,-19.210409313991477,-16.316599988285816,-10.400863358022889,-17.60934160189936,183.85320152287022,-18.90701400834041,-15.276218485209029,-11.237777475114854
2025-12-12 18:22:15.473725,Right,40.44078468494081,55.83478035511871,59.85380205325782,45.19749109465738,-210.86827087232814,43.3163291582041,54.69336012510303,55.49213876264548
2025-12-12 18:22:15.476733,Right,29.92026875366355,28.380513197182154,32.392493493969596,27.40918199878797,-273.01146283964044,25.176314425001692,29.999379901429165,29.320528362201003
2025-12-12 18:22:15.480678,Right,-32.94554136003353,-49.56203753669979,-43.36834841172549,-39.35620769284287,117.19293361877499,-38.952723068214254,-43.60985591417011,-42.941353638248984
2025-12-12 18:22:15.484741,Right,-33.965893272403264,-36.20649616535957,-30.079644107606327,-33.17059431377311,233.33936387042922,-28.216823151295102,-29.637442240433302,-29.769066336144533
2025-12-12 18:22:15.488748,Right,25.759993694717195,40.70015778685229,43.7094385979326,32.6184681458617,-136.11072224230156,39.72481552986392,45.6716862902249,41.654649659882125
2025-12-12 18:22:15.493774,Right,33.80504830031532,38.428358184835815,39.64812810487547,36.12202420142057,-292.3778400531228,41.890162228206464,43.738179414126535,38.1274567021519
2025-12-12 18:22:15.497797,Right,-22.48167013280181,-33.09765747551319,-30.759440781212106,-24.9333810761691,63.94891279844887,-20.955071925431184,-27.07162095705462,-30.200935473285426
2025-12-12 18:22:15.501819,Right,-33.51398113880532,-32.01326260240603,-29.403562893428898,-30.73011812862933,271.7503422786249,-27.68126629183098,-28.709667393385644,-30.59401276391145
2025-12-12 18:22:15.504828,Right,25.37616609161887,46.92505014840208,47.31081746674681,34.251030113737215,-52.63811811828782,35.07562970062827,46.35272050567983,41.68326742425961
2025-12-12 18:22:15.508778,Right,46.114255625159785,60.356830460097626,59.73675988715331,50.862474768202446,-296.8858277131585,47.78744375518727,59.9221337005165,53.167532312589174
2025-12-12 18:22:15.512846,Right,-10.005584596980043,-15.414283035741391,-13.846555490750688,-11.539602309667316,0.4101971307572967,-16.72168342414534,-13.07243923459282,-17.843135351686215
2025-12-12 18:22:15.516868,Right,-38.39711843555597,-38.203096020988596,-34.99745407442333,-36.35970544138581,283.90535412342433,-39.988768175563564,-36.32929900187628,-39.3450094727541
2025-12-12 18:22:15.521807,Right,14.284960293653057,35.281858786418525,37.04390643579336,22.75901670470921,19.277278145313176,21.271197381028287,33.41245857661306,28.043351487169275
2025-12-12 18:22:15.525869,Right,49.55838893966029,67.4354153864515,68.40745765677639,54.10291929389132,-304.923334549665,52.25843668434118,64.32539969145,56.56909135742535
2025-12-12 18:22:15.529897,Right,-0.4588819116670493,-4.767856532709629,-0.5116935878431832,-4.723255015202085,-86.53557482186443,-7.913880427736331,-5.338564224306538,-10.725966825722935
2025-12-12 18:22:15.532905,Right,-46.88620393000019,-52.341349684256784,-44.06784311551837,-50.162344954114815,267.53866893456143,-53.2131177866122,-51.47186784558289,-53.07477940145509
2025-12-12 18:22:15.536920,Right,-9.328688215873626,6.279943119721793,14.845838947768243,-4.4971801430201594,102.70770959253423,-7.326049218090702,6.018326823425014,4.106300053354062
2025-12-12 18:22:15.540921,Right,36.014503250973576,55.81526512713026,62.968513752503895,41.53988225971625,-262.684016052086,36.67869779678858,56.23667008557095,51.999931820715574
2025-12-12 18:22:15.544941,Right,0.9419845495867776,2.125842888095576,10.51338618408954,0.24211081853718497,-138.42468664031549,-7.361460507742777,6.096745274498971,2.7701095770535176
2025-12-12 18:22:15.548944,Right,-49.56111499104554,-52.09310409096179,-41.08286488449812,-49.672102592450756,244.5550693087025,-58.164429706013834,-47.050011932056805,-47.7777472073376
2025-12-12 18:22:15.553900,Right,-20.378795804766924,-1.923055049373943,8.952220149019922,-12.500614229325947,170.41853545764207,-21.361790556110464,-0.4843263532675337,-2.109227524138987
2025-12-12 18:22:15.557966,Right,34.57253134006896,61.708834393062716,70.38406084326562,44.21906403971661,-217.32847049879183,33.21656773490349,60.3645452184046,55.58639980900625
2025-12-12 18:22:15.560927,Right,13.338494241841545,22.395477390700762,30.589950886667793,16.78142577879953,-184.50448673313713,3.7472789286562147,22.83502663677791,18.250074116533142
2025-12-12 18:22:15.565006,Right,-42.57683956238179,-42.790631159497934,-33.92548433200318,-39.39736424680268,214.98542008149298,-51.292763911330894,-40.36022792852964,-41.88139948643948
2025-12-12 18:22:15.569002,Right,-25.833717715378953,-7.265552472515992,-0.27869955574897176,-13.550250195688932,235.1468084962312,-22.72388597414738,-6.809193625680564,-8.200519292733588
