timestamp,label,FC3,C3,CP3,Cz,FCz,FC4,C4,CP4
2025-12-12 17:59:08.668716,Right,1831.2051185016228,2157.253686948128,2153.1305486281535,2137.921400001789,1300.1099263830508,1992.649778012605,1996.82607524904,2234.7842019661725
2025-12-12 17:59:08.685790,Right,9876.059239616836,11633.12336907402,11610.151061930963,11529.037893794412,6984.443923280551,10746.36046194459,10768.014219932444,12049.43253561779
2025-12-12 17:59:08.688793,Right,22674.138851498225,26702.00335423569,26645.9019452625,26464.25316408102,15956.864696356242,24669.36743096894,24716.149447378222,27651.80917202782
2025-12-12 17:59:08.692778,Right,28428.777542169348,33464.40218563932,33384.51191401508,33170.41797922081,19906.089753880457,30921.359381683098,30974.086736740457,34644.41509276221
2025-12-12 17:59:08.696807,Right,19317.978767159322,22719.817691744334,22645.89531783449,22528.608495236105,13512.166486531692,20995.874849591688,21022.52148331717,23508.862889689713
2025-12-12 17:59:08.699748,Right,2238.1546342098736,2612.7876233994757,2567.9723311127455,2604.9471755902778,1689.0854857091763,2412.938706973233,2399.9963348140736,2687.841630691575
2025-12-12 17:59:08.703748,Right,-10636.01402155406,-12522.887292779575,-12537.022539070633,-12398.664029234758,-7292.420381642209,-11576.019871261175,-11618.180417495605,-12984.090601909382
2025-12-12 17:59:08.707819,Right,-13800.410972125188,-16237.561452293536,-16236.028564468783,-16085.386659868585,-9728.490390116174,-15002.790941145795,-15053.589822801121,-16836.192803867452
2025-12-12 17:59:08.711832,Right,-9774.633492634515,-11509.420203271671,-11510.136203294096,-11399.862040425942,-7075.383035650826,-10625.478999490151,-10666.339458714356,-11941.768864943413
2025-12-12 17:59:08.715865,Right,-4194.181987697724,-4948.168845632579,-4959.111605846672,-4894.155423266813,-3023.0506252604537,-4562.686037659529,-4586.433260694263,-5135.928714253649
2025-12-12 17:59:08.719843,Right,-1238.002559852379,-1458.1128059286857,-1474.5036493452499,-1435.0125823471462,-763.4887509349501,-1342.9851396898157,-1357.0292157093063,-1509.51340116153
2025-12-12 17:59:08.725875,Right,-1867.221755440347,-2190.8972028320422,-2204.025668051094,-2163.921624545241,-1287.7445924238418,-2020.0570151924621,-2036.6470857411623,-2268.9712999368785
2025-12-12 17:59:08.728880,Right,-4330.972422150779,-5100.58452775667,-5107.33478134661,-5048.342528782901,-3176.4179663708783,-4705.322734794347,-4727.811159677338,-5286.789579030708
2025-12-12 17:59:08.732876,Right,-5971.861531970673,-7039.648028013064,-7042.681020720163,-6969.010494235787,-4245.598482166359,-6500.417478535674,-6522.590544983279,-7289.410485839238
2025-12-12 17:59:08.735883,Right,-5399.631049776101,-6355.098839005572,-6357.5306030637585,-6292.515942657483,-3677.7406157437363,-5875.945137765491,-5893.01440316462,-6572.557361099753
2025-12-12 17:59:08.739895,Right,-3548.247144676745,-4165.598655884387,-4168.863113586209,-4127.180595412734,-2457.721942830831,-3853.9583440398565,-3867.700656826608,-4309.439771590987
2025-12-12 17:59:08.743898,Right,-2487.715230324655,-2927.449503284646,-2932.0042401130777,-2901.72513744724,-1902.0839471846703,-2704.1360130109824,-2717.1340283061145,-3037.084849728388
2025-12-12 17:59:08.747928,Right,-3053.903407611302,-3606.751302424469,-3611.3811952811666,-3573.0264653298073,-2239.202426700969,-3330.917035892955,-3342.605116609833,-3739.230199666694
2025-12-12 17:59:08.751923,Right,-4020.06164371036,-4735.965769629111,-4737.841959097423,-4692.394453693414,-2706.797113628767,-4379.981633042917,-4390.219863058766,-4900.109870558372
2025-12-12 17:59:08.755868,Right,-3854.157246968476,-4526.1036751063075,-4524.332394224592,-4488.299727307516,-2617.9300617446424,-4187.197048204718,-4197.755494036595,-4684.631110094488
2025-12-12 17:59:08.758946,Right,-2738.9499439565698,-3218.6630918419687,-3216.1325209361967,-3194.406836339738,-2057.427424703841,-2973.3933825332206,-2983.6439636892173,-3341.6472575062653
2025-12-12 17:59:08.763942,Right,-2149.052727670525,-2539.229781371774,-2538.1645159909967,-2518.3365245793248,-1653.5158981760032,-2344.4002418358577,-2351.0245079041924,-2640.154207984102
2025-12-12 17:59:08.767966,Right,-2691.5303013492376,-3174.0964029494207,-3171.906252558925,-3145.5474153506802,-1809.6466917051002,-2938.0293730143458,-2941.1087899344275,-3288.8272574516013
2025-12-12 17:59:08.771981,Right,-3320.865377304028,-3898.160214939271,-3891.3686460626777,-3865.631652435055,-2199.408220431884,-3610.6841043874156,-3614.513028233894,-4036.1179300131043
2025-12-12 17:59:08.775977,Right,-2942.506687618443,-3452.2207554329652,-3442.509120084811,-3426.3250035853125,-2144.505166646326,-3192.8459882960888,-3198.4137755465927,-3582.2954374322435
2025-12-12 17:59:08.780003,Right,-1963.5290492525091,-2314.7616663533263,-2306.430079197511,-2297.4150406485423,-1540.0401682322845,-2137.249828119646,-2139.8654833033215,-2406.301177149173
2025-12-12 17:59:08.783985,Right,-1603.1436222293414,-1892.3127031037584,-1884.954147820943,-1876.1789224090753,-1091.3515881550265,-1751.7019395222887,-1749.167836091714,-1958.495164127322
2025-12-12 17:59:08.786950,Right,-2133.6332007121528,-2501.9822319153463,-2490.9961443978827,-2481.638243818772,-1350.963204148924,-2320.6331575596705,-2317.595917142462,-2583.8346006305655
2025-12-12 17:59:08.792019,Right,-2603.6588204512373,-3051.3901544908294,-3035.7396112058777,-3028.75821311411,-1851.9647184192436,-2825.454678405309,-2825.3639964377508,-3160.243795460905
2025-12-12 17:59:08.796037,Right,-2247.009107175283,-2645.4084280149546,-2629.3899779160274,-2625.609121391084,-1732.0716140578734,-2445.4052901586983,-2444.163283258793,-2745.415099589736
2025-12-12 17:59:08.800079,Right,-1463.1919428427937,-1728.0180831208127,-1714.1770916861715,-1713.9430323665729,-1031.9092495895457,-1599.5253130018245,-1592.8025751560926,-1787.3077272123192
2025-12-12 17:59:08.806125,Right,-1150.1095043363748,-1345.8906046492048,-1331.4264847273007,-1335.7947473493405,-666.8575376225635,-1249.2267066846834,-1240.880013379734,-1382.7765039540827
2025-12-12 17:59:08.809078,Right,-1510.2609135897364,-1761.6316183328163,-1743.9634949085303,-1750.1488786115078,-1047.6877156563569,-1628.1425849347143,-1624.5893994098296,-1817.0131982519524
2025-12-12 17:59:08.812072,Right,-1897.887833722867,-2228.087194458465,-2209.25813892344,-2211.9630062038777,-1473.8380628729938,-2051.723508834024,-2051.8193911502603,-2306.105922119459
2025-12-12 17:59:08.815026,Right,-1705.0233858851716,-2007.9467256851494,-1990.5992515271064,-1991.742368757492,-1228.0628927574144,-1849.902286313707,-1847.5509078607429,-2073.7514853008324
2025-12-12 17:59:08.820068,Right,-1084.561614249833,-1266.9898747926345,-1249.829066256876,-1258.8270227058092,-630.888650983281,-1172.5413114447147,-1166.7272201373708,-1301.1709714592434
2025-12-12 17:59:08.824102,Right,-709.3564632202033,-817.6955639792141,-798.0689124166965,-817.6355421255575,-465.0963306777412,-758.9280573686119,-753.6836516777985,-842.9874671072466
2025-12-12 17:59:08.828095,Right,-928.3114625358721,-1086.71249830327,-1064.646025569411,-1085.2140877358615,-794.4046602543676,-1004.2422758205794,-1000.0364916167455,-1131.1545162729453
2025-12-12 17:59:08.832114,Right,-1328.6534630270908,-1568.3571053965716,-1545.0928649009438,-1559.8392704682192,-996.8034772390965,-1451.1855693233665,-1444.1084715331672,-1625.7175232683076
2025-12-12 17:59:08.836061,Right,-1258.7261486047646,-1476.3145354433218,-1451.4146470585838,-1467.5752193790395,-760.7738275260781,-1372.0393378261942,-1361.5639443293912,-1519.5801527512958
2025-12-12 17:59:08.840115,Right,-697.450313648791,-803.3348917801632,-776.2717299362412,-802.4349269818049,-425.0551907035406,-749.5527757940581,-739.7590400516056,-822.9283569101244
2025-12-12 17:59:08.843135,Right,-308.0809575889725,-352.3052741152933,-324.8933142226888,-355.34318951598834,-349.2810852319817,-326.3576795355184,-318.50768606131896,-363.5345009462908
2025-12-12 17:59:08.847164,Right,-524.628845179046,-619.7306279657641,-593.7620071726851,-617.2601082307519,-465.09085265215253,-573.2773008710938,-564.1072155749425,-638.6784667990869
2025-12-12 17:59:08.852160,Right,-925.086641047732,-1084.7485700900434,-1058.8674593056785,-1077.1220562476665,-535.6105518160621,-1010.0006300324458,-998.9311936855665,-1110.9672956104623
2025-12-12 17:59:08.856178,Right,-834.1893024445162,-963.7665613726131,-936.0221297011594,-960.1428134602029,-474.2070480247494,-899.5465094740503,-890.6293885518098,-985.848950032494
2025-12-12 17:59:08.860126,Right,-303.1392212859937,-342.8879331597127,-314.71602574258577,-346.5518129710108,-310.5796494014794,-318.14823972742306,-312.70969519315986,-352.3529821301345
2025-12-12 17:59:08.864211,Right,-8.61741369048832,-10.747389994794503,15.280521780368872,-15.438923135749064,-127.84702963710879,-7.375966405146755,-1.5011791636934504,-10.113090149709024
2025-12-12 17:59:08.868236,Right,-238.90418454940664,-279.4721429779893,-254.57566195563413,-281.12821040011477,-79.79203714907635,-261.8315619312343,-253.47861794370692,-280.32464872545097
2025-12-12 17:59:08.873275,Right,-514.9120444241562,-589.2369257794344,-562.5105169796152,-592.0718035610626,-217.04347006222815,-553.3299662916688,-545.5808207311202,-600.1193873311277
2025-12-12 17:59:08.876256,Right,-362.341633814387,-409.776113037311,-381.7604509666562,-417.87857268942753,-309.66980857079034,-384.1500759003102,-378.80776840250473,-424.4091624383
2025-12-12 17:59:08.881294,Right,17.51014953228878,21.806311198160984,47.6083506977302,11.09971482004039,-126.2329811991658,18.265643244201783,24.36767856014194,18.271216735127382
2025-12-12 17:59:08.884259,Right,147.36205485719256,171.4465735165286,194.3875808744633,161.9494458779809,153.33484217731166,152.9229001957283,161.82310681493254,181.7985734050162
2025-12-12 17:59:08.888227,Right,-7.988759433967061,2.005522299092263,25.078400919534033,-7.204479429288767,154.5745374152757,-7.227114084671484,1.0355637769389432,11.673247076920234
2025-12-12 17:59:08.891224,Right,-102.23430132906651,-105.10318473848747,-80.82597160880687,-115.84604262612993,-81.86880682932679,-102.18688993965043,-97.3828098673257,-106.75917740238947
2025-12-12 17:59:08.895279,Right,19.018421734974254,24.666796960897045,47.473768268333515,14.019427993451245,-127.99476116572623,22.38230294821551,27.16018242551945,21.318112080771243
2025-12-12 17:59:08.899294,Right,184.12838798023586,214.3632364091318,234.2365657176124,205.15300214225135,139.66625703389582,194.31049403650104,203.17107168014627,223.89664631635242
2025-12-12 17:59:08.903309,Right,247.84566555741185,303.0843581597146,322.19874281475495,293.00758658484847,335.4398501196847,270.96361828930094,281.4633911157289,322.04454335104674
2025-12-12 17:59:08.908257,Right,251.0654650024444,314.9444186950641,334.6804709573262,302.6478440672363,209.51362651707677,284.52324912682525,291.83607012329594,328.1878608932311
2025-12-12 17:59:08.912289,Right,247.851201293455,300.0033662203896,318.1298818808773,288.58710530994995,44.07029437314941,276.65670646283615,281.9032091054901,304.86681091064884
2025-12-12 17:59:08.916331,Right,237.44531342119444,279.05581154982065,293.86125726809405,270.6345062424225,143.5951675858778,255.91306512655137,263.8431824826621,287.50553799366025
2025-12-12 17:59:08.919341,Right,270.45156088437943,327.58912607895036,341.2251503459556,318.7660640327085,337.1997990841919,295.43248217072687,305.8039000250865,345.54029485177307
2025-12-12 17:59:08.923363,Right,398.58431515606935,486.8492460166017,501.60322970589914,474.5298429791874,333.02365890261717,444.906435526078,453.13341397978365,507.0278877183446
2025-12-12 17:59:08.927362,Right,520.393050059909,619.6799622379767,634.0884223102767,607.264027544792,230.1646543242532,575.5848253580625,581.2234106000105,637.0269315651967
2025-12-12 17:59:08.931368,Right,490.9197249728895,573.8325343945471,585.7715231031762,565.9092852646427,280.83778915635776,534.0144006165792,541.6236840811907,593.2997143821267
2025-12-12 17:59:08.935394,Right,379.75748783978634,451.74981514929095,462.6404869577091,446.01674044225365,407.1461631768616,414.086539209442,425.2575785371009,476.2134848179412
2025-12-12 17:59:08.940410,Right,397.73193459404865,485.1157779346395,497.4178666382795,475.8676146789512,380.58769507127,442.0617014950549,453.3545265245193,508.7245612805418
2025-12-12 17:59:08.944414,Right,561.3621698678471,669.4668594604591,682.1869096698938,656.6463486088905,286.2099316358508,616.8417626628361,626.7709555351175,689.3633002486313
2025-12-12 17:59:08.947440,Right,663.3137627593824,773.8176371710724,784.4784089373425,761.9963412616053,365.4438449982845,714.6992353762616,725.9098890577443,796.7667499813833
2025-12-12 17:59:08.952440,Right,607.9165835590684,712.2501673326478,721.6567876500194,702.3043831599061,533.0031408774084,653.0784377054079,665.700655184628,742.1319141442655
2025-12-12 17:59:08.956435,Right,540.8112960156868,647.9473178926273,658.718513941858,636.7362105241627,506.0150608131953,592.6682918903534,602.4286156295566,677.5088580640731
2025-12-12 17:59:08.962467,Right,581.9733809093595,694.6982917406131,706.1940126256668,682.2771412429865,336.60635964229004,642.2806747661089,647.9488267033012,718.6051444060868
2025-12-12 17:59:08.965458,Right,656.5609693963197,768.1582021380309,777.3331601672107,758.0135274442728,349.19650520785945,713.9495092651341,720.1417874519248,794.1156625014264
2025-12-12 17:59:08.968472,Right,678.9337249820237,794.1084991522366,800.8707006727345,785.9473208559793,560.9707599001122,733.890138817078,743.3020980078145,830.389980602602
2025-12-12 17:59:08.973437,Right,691.6994587509544,821.8949992096168,829.1327675487264,811.5937323424732,634.798734075157,756.9913894303609,765.9878175185295,862.4808142598486
2025-12-12 17:59:08.976500,Right,721.0145944686374,856.2578035402112,864.5536124473438,844.0404037566041,466.6626412454061,794.1251938485075,799.720407375542,890.3520366828889
2025-12-12 17:59:08.979501,Right,698.8477030697977,815.5714793800144,822.3880453865277,806.7804147053976,362.05058745405404,761.371391942841,766.9342014199938,845.5543003594503
2025-12-12 17:59:08.983504,Right,639.3932466389961,742.785418636864,747.3822399360361,738.6677799095633,498.9062672604923,690.7603112211218,700.1784929562127,780.185556128039
2025-12-12 17:59:08.987508,Right,682.237992925744,806.6923933487851,811.3190836100839,801.7789664916927,642.0543379652081,745.9813650260912,756.8334157831268,853.9143684046576
2025-12-12 17:59:08.991473,Right,829.5224194084294,983.5995367100695,988.7448314802023,974.9545771105913,581.3580968239112,913.8303247735603,921.6891541853547,1031.726716529578
2025-12-12 17:59:08.995539,Right,864.6319996911334,1010.6759898202727,1013.5407465670723,1002.6037105649011,471.98245894763386,944.3734705572715,950.1253371638013,1053.9825854041846
2025-12-12 17:59:09.000541,Right,703.6703487318009,814.8080271137878,814.1114042989211,810.55202981201,507.35270226874854,759.8695482069161,766.9751113132806,856.1845883802744
2025-12-12 17:59:09.003552,Right,597.3469496017788,702.4618688474875,700.636013039737,697.9124060905306,587.254146135354,649.0423619094072,656.7230230107671,744.4653979307041
2025-12-12 17:59:09.007567,Right,751.9287934872555,891.6043596353848,890.2623758267146,882.4787442937959,565.6199634113582,824.8077514808392,830.1109299206873,932.570464612334
2025-12-12 17:59:09.011570,Right,959.4590449944371,1121.86901718867,1119.0775919550797,1111.5285274739144,534.7279586835066,1043.8247806366999,1047.8604030809365,1161.777748374734
2025-12-12 17:59:09.015524,Right,903.4416998403613,1043.4894980299287,1037.9400530855637,1037.2453432014445,597.276989918435,971.7725087277358,977.6234205500223,1084.2194604557008
2025-12-12 17:59:09.019595,Right,676.5144421559526,785.33861796977,779.4821974108927,781.234373676707,625.0405680545373,728.5356958364137,734.785798994475,824.3663635653211
2025-12-12 17:59:09.023656,Right,639.7534595404286,753.8861167604337,749.9772437921492,746.1408594821114,521.8400695588207,699.6758542259922,702.4887031737017,787.2081352490932
2025-12-12 17:59:09.027625,Right,841.5464164925506,984.6149738895474,980.8628578975331,973.3313237210969,468.3277364203823,917.1808356120018,918.1911446043523,1016.3421363319503
2025-12-12 17:59:09.031648,Right,956.0583909733687,1108.9241091767326,1102.9065667607356,1099.2751412540674,602.995102205372,1030.113051792141,1035.3357681096531,1147.311561425915
2025-12-12 17:59:09.034647,Right,818.4415157727199,954.4797804855043,947.6069197501056,948.0698822168633,710.1768725198926,879.9673482141225,890.1989446715452,997.4522024887847
2025-12-12 17:59:09.040652,Right,659.1507661876967,779.2783240346471,774.0171452045906,773.1843667946523,570.8998019113787,717.3057720785728,726.7082594295498,815.9698475784389
2025-12-12 17:59:09.043653,Right,703.5173561024712,825.0829903803533,819.9628012080211,818.3605871159816,393.0103611103259,767.1829637379851,772.6861562203849,854.1474011902465
2025-12-12 17:59:09.047680,Right,844.9440873519052,977.3538906143513,969.0671896924032,971.7542804909172,489.2136328838533,911.2120274998015,916.1658189069713,1010.363673111191
2025-12-12 17:59:09.051679,Right,872.4935134080006,1013.4320484654745,1002.4059896124527,1007.998341142782,714.5211818896933,938.7442678099032,945.4833601517603,1055.0111017978052
2025-12-12 17:59:09.054714,Right,787.5397135104286,927.4130064343335,916.8023733459413,918.9319383595139,684.4368206404615,854.8657537677791,860.8399507753784,965.8550818995573
2025-12-12 17:59:09.058708,Right,721.6221962798154,847.0969954971224,837.2063703729073,836.335919540259,436.8245173501782,783.9171999519458,787.9716528749559,873.413616033853
2025-12-12 17:59:09.062726,Right,715.4016418035608,824.1880087589379,812.5341561982641,815.4118949761614,375.6126136665698,765.0044718665304,770.8209747015499,847.8282412973931
2025-12-12 17:59:09.066659,Right,738.1913717560237,850.3881409548922,836.9403289449401,844.0350556886988,580.4952174663777,784.3092853544513,793.8054474035744,884.3647124428535
2025-12-12 17:59:09.071688,Right,784.0893115557265,918.9217642941512,906.5481183802476,911.250775103108,686.2338056522422,844.231934668147,853.1744625625433,959.4063604801195
2025-12-12 17:59:09.076709,Right,815.7620705539593,958.3665398065932,947.6513149212115,949.3280857845675,522.2507779469015,886.0740444732364,890.5724687711336,992.4516183317173
2025-12-12 17:59:09.080752,Right,754.1638681740733,872.0267200439703,860.1855631943326,866.3971196926432,378.2035977151245,812.2019648206187,814.762924167444,898.8871447035344
2025-12-12 17:59:09.083701,Right,639.9115209347801,734.3741168093402,720.3210393753834,733.131064793095,470.9768908522092,682.5980956570711,686.9433285658015,764.5597869934281
2025-12-12 17:59:09.086773,Right,640.8972802517237,749.7196392572951,735.8488461421803,747.4581641647965,595.2661554439692,693.0375643486623,697.2062562491046,786.7702359873801
2025-12-12 17:59:09.090784,Right,775.3810919681564,913.8630436582025,901.3477596873417,907.7788524858188,533.2836653384147,849.0747340546222,849.1642906052293,950.2907395861112
2025-12-12 17:59:09.094776,Right,819.9509620048339,954.363321116427,940.9175740448991,948.8930642601335,423.56016505055595,892.5560284913518,889.7946011977037,985.339933900279
2025-12-12 17:59:09.099792,Right,655.0322704386199,755.3371161748655,739.555791584542,753.8338918040972,452.5534484857926,705.2987451427616,703.5837155370973,784.0313139556674
2025-12-12 17:59:09.103809,Right,498.57337502820883,585.7320901614148,569.6330464979401,583.9776494906982,511.2829131191829,540.2674724644748,539.3520402768627,614.087775338674
2025-12-12 17:59:09.107763,Right,576.4376959609799,686.9820533996681,671.9257828954142,680.2740702856099,449.6952276905067,632.7910999002634,629.8671589123551,712.5017840055516
2025-12-12 17:59:09.110825,Right,743.9371829959564,871.8030279970262,855.6997497259872,863.0906034790678,385.1258751277346,808.477061248268,804.6340820804471,895.4574867722113
2025-12-12 17:59:09.114762,Right,714.6900254924549,824.8146807658486,806.1595212607644,819.6166103973519,453.9744183017174,764.9357353670057,763.7564306884306,851.6573680232977
2025-12-12 17:59:09.118783,Right,530.5202233847231,615.8390432447195,597.075221721665,613.3803608713206,512.9713349336525,567.2977494952502,567.8616309616482,645.5012387983734
2025-12-12 17:59:09.124802,Right,477.9002751520602,564.5962423230521,548.2540754196234,560.7079142073635,406.1377223836025,521.7943556953687,519.4441991605563,591.2840271103196
2025-12-12 17:59:09.127807,Right,605.365070189815,706.5499767010333,690.9923844599398,702.0602827100083,295.5827882899903,660.8622610862367,654.9771191752516,730.3755872654729
2025-12-12 17:59:09.132936,Right,669.2327970687766,769.5643131366232,752.169357662322,768.6504492560634,383.9682937368052,721.0284555099206,715.7164788102964,797.1405037469231
2025-12-12 17:59:09.135931,Right,563.9694402731257,652.0853723313194,634.1378875721712,654.3635702353204,516.61197155423,606.5931818234967,603.1814976873575,683.454757414409
2025-12-12 17:59:09.139933,Right,472.6079713724321,556.663971530972,540.9982912755804,557.9889174583368,436.03540935216006,516.1796320296125,511.5731518425746,582.9637905836571
2025-12-12 17:59:09.142923,Right,520.1303911380237,605.3425425408641,591.1245778359007,605.2741526718019,258.49537113751285,566.0217217919417,559.5638640625402,623.523819881957
2025-12-12 17:59:09.146918,Right,579.5716194226407,658.4180406926898,642.7136485319352,659.9392518249806,283.8165373451775,616.7330322200432,611.979869387811,677.0340669046855
2025-12-12 17:59:09.150917,Right,537.265782021801,609.3316164903808,592.4755431107478,611.7317215028452,455.22339625342283,565.8462538799504,563.578864823794,633.5978686515009
2025-12-12 17:59:09.154932,Right,485.64989028975833,561.974411719013,546.8356852632714,561.1931986514246,453.68099950498436,519.5422946135513,515.4826394914417,584.1735549309524
2025-12-12 17:59:09.159932,Right,510.21228606801014,590.3424808348063,577.0653620201629,586.8290635326412,268.9409212770406,551.5037994948216,543.889087450807,603.7486474023899
2025-12-12 17:59:09.163962,Right,517.7018993418897,586.7519983405946,572.8141700616106,585.8941014057491,212.61196594551438,552.2666752202203,545.7571593122557,598.8377903279616
2025-12-12 17:59:09.167961,Right,436.5909324795939,493.26469797757454,478.4910665070638,496.58664490503725,353.30437831766903,461.023788167513,459.3042485426413,514.0319199343212
2025-12-12 17:59:09.170957,Right,379.14334560278803,441.6794902016409,428.49577191495337,444.4369541207561,405.1376942943316,408.2367970730411,408.00818580563646,467.29105003981385
2025-12-12 17:59:09.174962,Right,430.8686078583123,504.79700873291586,493.0896765651414,504.4484804457752,258.70206165796844,469.8342408646131,466.5791737890104,524.953092503245
2025-12-12 17:59:09.178995,Right,471.8064097755123,537.3982402713737,523.7878398330649,537.7000986840576,170.21801778126974,504.8188734474825,499.789610460517,552.268111654208
2025-12-12 17:59:09.183017,Right,392.3997686676448,437.97916115412954,421.3691058700206,441.65964406274725,276.2716664224281,410.6106931134127,406.9471971698804,455.0615732591832
2025-12-12 17:59:09.188000,Right,308.2230074747931,350.9826286237221,334.4995183593128,354.94434476213064,347.67906051757745,326.67488700163085,322.7577435533749,370.26332801254466
2025-12-12 17:59:09.192015,Right,355.8176012453623,411.8318625820102,397.6234915080713,413.5689666955732,229.9913546704338,387.28351989469957,379.98117911908776,427.37082654144615
2025-12-12 17:59:09.195014,Right,434.24469132511877,490.9692996678641,477.25408242607955,493.5922490389785,133.1616317970329,466.6831080795964,458.08928330999333,504.01145685336087
2025-12-12 17:59:09.199027,Right,378.11419228394516,418.23944824538194,403.64735762705095,424.4072053990094,228.56895300833276,396.45851764432155,390.94343085889705,435.2539486712776
2025-12-12 17:59:09.203040,Right,255.99527423025575,288.32737152068876,275.05326734879054,294.61624323937576,318.1238813981763,268.20144541433547,264.9279052657075,307.3221904715756
2025-12-12 17:59:09.207061,Right,247.55548748245928,289.3994103843579,279.1814078433672,291.9241373548284,204.22814801253844,267.81772064079996,262.77087140642107,301.5342591853114
2025-12-12 17:59:09.211003,Right,323.73083738656715,369.24358611309435,359.8560256110504,370.2319619040936,68.20519349048845,345.47374210099224,339.2247132102493,374.44572463654913
2025-12-12 17:59:09.217088,Right,313.1735712760128,346.2031306705903,335.24043658853043,349.3477297326317,139.59215264645172,322.2922276777681,318.7798483610386,354.1005526141962
2025-12-12 17:59:09.220083,Right,220.22476459934842,245.4687627959065,234.42008905252442,248.72424095787574,265.9598138727015,222.3879294868093,221.0278929277556,258.7925175637938
2025-12-12 17:59:09.223075,Right,202.65745838719886,235.33632653253153,226.27787260559853,234.6776908163447,189.6915582724614,212.28829674818553,208.39133813267108,245.1014811162604
2025-12-12 17:59:09.227081,Right,265.80583178275265,300.13439344929066,291.2437007667031,297.4703812984517,24.923035841144156,277.75501079531386,270.6949797940906,301.1450357454596
2025-12-12 17:59:09.231094,Right,257.1762094825972,275.5445237205131,264.0034607560374,276.0718380525941,50.15167928498704,255.93196382699534,249.98943207703996,274.69815967872273
2025-12-12 17:59:09.235102,Right,164.85270615370246,172.284249414457,159.32239495799877,175.99006396508776,198.35133556264918,155.49991541402414,151.67795215221122,175.8501642969204
2025-12-12 17:59:09.239077,Right,143.3952833065996,161.16356498294044,149.89393463928718,163.94106940645725,184.3170837374637,145.71669324976392,139.480700109154,164.84709706215654
2025-12-12 17:59:09.243129,Right,211.95680586225353,239.08599920815323,229.1329849048052,240.99458854773548,26.669092694239225,226.37158419238403,215.55199146067025,237.99555144645274
2025-12-12 17:59:09.246128,Right,202.9955961367814,216.84425242862199,205.60220746544655,221.92763488937635,0.33070250711170956,210.42579419736285,199.06293665629346,215.48441785678733
2025-12-12 17:59:09.250142,Right,78.45675887336256,76.05327980936272,63.961500884615816,84.16007886501029,123.60387866897509,74.95155707147205,66.4127803965821,79.6532324317377
2025-12-12 17:59:09.256183,Right,23.708487959345803,29.146625204070006,18.912598036113195,35.30585017224075,138.60422211606055,26.766835798858665,18.747937138716225,33.23546441679355
2025-12-12 17:59:09.259167,Right,118.30789859767538,140.71141250268556,131.86112530867103,143.57426559354644,4.15944848023355,133.4402479903074,123.37880470161326,138.80167550605256
2025-12-12 17:59:09.263121,Right,178.08766532706795,194.42375705612358,183.55219443840906,198.26216113130795,-33.778442979673855,186.88571252283873,177.14320293598576,189.3275650611613
2025-12-12 17:59:09.267174,Right,76.03577971522463,69.9178313712473,56.56432021170622,76.51133998960722,83.01984909479506,67.84532944968669,61.106301802094094,67.76805437385337
2025-12-12 17:59:09.271208,Right,-27.92655879026279,-39.408819941512775,-51.93125554983271,-34.00089605676476,112.98697350209113,-37.85968610190321,-43.87502477428643,-40.457294307940174
2025-12-12 17:59:09.274242,Right,29.823080743837636,33.01933605404338,22.698300152551383,34.99039716523839,-20.675307331315707,31.87274879013421,23.53928786981851,28.121500842738897
2025-12-12 17:59:09.278204,Right,125.03081728506368,133.73819060862297,123.24094909097767,135.82052189321257,-75.66583481049747,128.6106587628601,119.8223344606813,128.03342005907325
2025-12-12 17:59:09.282251,Right,68.16330756590469,64.21370843466138,52.44441253883997,68.94855096063111,48.87782483221963,60.121050519752316,53.84406198671786,63.77710254024714
2025-12-12 17:59:09.287238,Right,-62.990211744385306,-75.25944508955581,-85.98544378124643,-71.43113512563286,107.22555102576734,-74.78299866244197,-80.67364512983477,-73.80272896116367
2025-12-12 17:59:09.291229,Right,-70.74514304671902,-76.96795686922269,-85.54997432243545,-77.64951871609082,-36.12059107038658,-74.28562641417375,-83.60166212223703,-82.15581107564503
2025-12-12 17:59:09.295208,Right,18.086450894537847,14.890058621531352,5.9873013065662235,12.162286533217411,-136.4206793413614,15.662054731103126,4.494672914210241,3.877779046772048
2025-12-12 17:59:09.299268,Right,24.273317480576225,12.922762101981789,2.2337338438956067,11.84593699866673,-11.373883019608911,10.934451599488966,2.330045760347275,4.231333292962518
2025-12-12 17:59:09.302253,Right,-58.983308847411536,-74.47090613807086,-84.46970008706558,-75.38379190443084,111.21139811151079,-77.05791404817137,-83.72321510297479,-80.80962533102138
2025-12-12 17:59:09.306312,Right,-84.14885422223597,-94.28095501594362,-101.59922778524924,-97.81056337305927,-1.0493441239523236,-95.09028462923015,-104.26774039011798,-106.67337190944818
2025-12-12 17:59:09.310304,Right,-38.68077747273492,-50.11343255257816,-57.1131374060642,-54.01309946621768,-158.72482821301674,-48.16442547622137,-60.03534903153195,-69.41522066801554
2025-12-12 17:59:09.315235,Right,-49.83647768013179,-73.1185732447484,-82.64810467339703,-73.78494964085985,-91.18084112281213,-69.36854361675796,-79.7199659672624,-89.5760896151478
2025-12-12 17:59:09.319297,Right,-123.11262760599493,-149.07957195848576,-159.74056255392497,-148.4320222758106,63.455647539987694,-145.6609007550869,-153.60750442417338,-158.40899385712692
2025-12-12 17:59:09.323322,Right,-133.8644553538179,-147.81957856856752,-156.80962603341322,-150.12260842340766,13.812386172270635,-145.09674712488777,-154.14891851806897,-157.74019793822663
2025-12-12 17:59:09.327323,Right,-80.29577875230461,-91.00690539344214,-99.1177379359433,-95.1568359383673,-156.05835077600204,-85.87683717938489,-96.78430241846945,-106.72045684445766
2025-12-12 17:59:09.330344,Right,-92.97493899903202,-119.6506501478143,-129.23671201779507,-121.23641057679197,-149.55544625509356,-109.28847922952264,-118.42536471823405,-134.62339418526972
2025-12-12 17:59:09.334382,Right,-173.70433079014765,-210.24811140423117,-220.22872510916204,-209.58089467599348,1.2259672921936726,-196.98666565745953,-203.2013802321453,-218.32419786778337
2025-12-12 17:59:09.338308,Right,-177.55963778001023,-200.28076835983666,-207.71585994346242,-201.32800925128686,9.27385882929957,-189.1108090153284,-195.91430473364017,-206.35966838611057
2025-12-12 17:59:09.342369,Right,-95.06881427855114,-103.82542507824837,-109.10740678902948,-105.98798750221613,-136.42819021682226,-94.89935415328364,-103.70821096739382,-114.06493863061769
2025-12-12 17:59:09.347401,Right,-95.2664644066972,-114.58064218448999,-120.51198458934232,-113.01641219911107,-169.1972964343804,-102.68081730619451,-109.81698870866967,-125.0911220744456
2025-12-12 17:59:09.351381,Right,-216.16790060917265,-252.34329222466476,-259.04071155685233,-246.92529884529358,-51.11432480109943,-235.2280044264553,-238.49958014472577,-257.21654921141453
2025-12-12 17:59:09.355402,Right,-270.6576043847417,-300.81906141760555,-306.16747357929125,-297.3007976312765,-30.672176747633785,-283.40386402238437,-286.0618594596326,-303.97506149866604
2025-12-12 17:59:09.358410,Right,-172.62347086073396,-185.64778880251106,-190.29397661292137,-186.35452388269368,-160.91305717418436,-172.78865607996158,-177.56093268199356,-194.45331560181648
2025-12-12 17:59:09.362411,Right,-104.29189426859557,-120.74015833237354,-127.82702896353294,-121.32069681983376,-200.3933110869807,-109.92393006161365,-114.51296435849144,-133.82780636830103
2025-12-12 17:59:09.366373,Right,-202.19947507347388,-238.20531641711932,-247.7955764651051,-236.00488208253955,-79.98487429271154,-223.91899173350976,-226.39691065836814,-250.1202753984544
2025-12-12 17:59:09.370433,Right,-313.58250955456606,-353.7312771970537,-362.09396796447254,-352.3134049937944,-41.49257728129669,-336.0234175743026,-339.6721141562666,-366.43535599032475
2025-12-12 17:59:09.374486,Right,-265.41216321312095,-291.43838774073083,-296.8685785357666,-293.34810547535017,-177.86646723273952,-274.6305682944876,-282.6790762786113,-309.8755091247731
2025-12-12 17:59:09.379477,Right,-166.1866742286511,-187.77273194228474,-192.6682284345734,-189.3613139440131,-247.04950491649652,-172.54558747989358,-182.19894690267392,-208.12359708483564
2025-12-12 17:59:09.383465,Right,-203.4275574561907,-237.5549530841672,-243.2272074890643,-235.39187738050532,-124.61931881303462,-220.24026183930982,-227.07467169607116,-251.99926578784653
2025-12-12 17:59:09.386476,Right,-312.4213464543136,-352.7912538476812,-356.7962642393977,-349.46178244821203,-47.7022210869618,-331.9821656465647,-336.99844212179596,-363.29621208527533
2025-12-12 17:59:09.390430,Right,-307.9179113480932,-339.61514259026444,-340.5910129030235,-338.26388386200415,-177.46328084472043,-318.11773811602325,-324.9248842554225,-354.72281098231906
2025-12-12 17:59:09.394486,Right,-217.95080392343516,-245.87528470964753,-246.73824735201197,-244.14593294952647,-289.4188049491204,-225.76597216827213,-233.42849548673257,-265.30993729652255
2025-12-12 17:59:09.398512,Right,-213.69908985309303,-250.8592467365961,-254.13407378227566,-245.64775302051567,-181.38943478901638,-230.98814903592574,-235.8144062543288,-265.8744930597022
2025-12-12 17:59:09.403500,Right,-291.6823427690251,-332.4837271239667,-336.1871653968119,-326.2476286564488,-51.61660560910241,-311.51713127442054,-314.17050831601955,-341.4307403800485
2025-12-12 17:59:09.407461,Right,-300.54618686507456,-331.85460074667935,-333.39515388413565,-328.2652687826194,-139.7185684087599,-310.12845397464116,-314.424051733542,-342.6995308257756
2025-12-12 17:59:09.410482,Right,-236.6745119668485,-264.97479168736027,-265.76098157739034,-261.9753940932278,-287.3901472902071,-242.65214221714996,-248.10257375138463,-280.5873215942993
2025-12-12 17:59:09.414541,Right,-240.64087832174846,-281.3349205450504,-283.7056020349846,-274.85016041831113,-231.0733079202182,-257.9759493722231,-260.19221944667515,-294.80415732515394
2025-12-12 17:59:09.418498,Right,-314.99776378905517,-362.52263009079616,-365.06089061964303,-354.0727777798893,-85.98181570091401,-339.0867676921189,-337.68210913951043,-370.84438685362693
2025-12-12 17:59:09.422548,Right,-313.51955093228025,-349.968930108269,-350.157035214972,-343.91844417573884,-127.769416279305,-328.1548228726606,-327.64570831062156,-360.4427243479877
2025-12-12 17:59:09.426559,Right,-227.28535170224495,-255.75632417033194,-255.01686640511616,-251.24838764645392,-281.5645049410814,-234.68862689702655,-236.64594221281004,-273.02217573754024
2025-12-12 17:59:09.430591,Right,-218.63938661813154,-258.8637686210568,-260.4189117347123,-251.44748126112972,-266.43318167014513,-235.40889917718596,-236.27970708959037,-276.3192063540919
2025-12-12 17:59:09.434590,Right,-321.62391368707176,-373.9661520062946,-377.2459635005798,-363.9479690445005,-119.80017032878823,-347.22273434881936,-345.7063954229234,-385.3017236155574
2025-12-12 17:59:09.439538,Right,-367.28604206535965,-411.23469916166505,-413.0278870606562,-403.42602737416746,-123.66997747024288,-383.91269034304423,-383.9832834197441,-421.090538108896
2025-12-12 17:59:09.443606,Right,-286.93113208789146,-317.83003952610306,-317.9292986924411,-313.34057098656194,-276.01232971195714,-292.16211589355953,-295.9701195039088,-332.77621947589796
2025-12-12 17:59:09.447626,Right,-236.14469405345153,-273.0463146577822,-273.9288006036659,-268.2170106941485,-296.72771526360884,-248.3579824504559,-252.15384722000454,-290.4134190013865
2025-12-12 17:59:09.450615,Right,-306.76916476752376,-357.1925016900641,-358.52720280800713,-351.2020559964585,-153.42717314398033,-333.14661875372985,-333.65244569280185,-372.1007594533148
2025-12-12 17:59:09.454646,Right,-359.4930491691921,-406.1961306746234,-404.56087174103595,-402.7777668797644,-120.9365173317783,-385.1271217088215,-384.467473533412,-422.114913960977
2025-12-12 17:59:09.458657,Right,-287.581404983066,-321.2648769757361,-315.6024229678442,-321.13774845853914,-264.56734911035164,-304.3365968632861,-304.91398556384956,-343.0916530818795
2025-12-12 17:59:09.462664,Right,-219.68282236577943,-256.4724754045019,-249.1798736374476,-254.77383096987614,-317.26407996803755,-240.1343787549995,-239.81008332094643,-279.3062185818562
2025-12-12 17:59:09.466658,Right,-282.146916953905,-333.61694131291006,-325.458816401253,-327.6267486161669,-182.40965782591957,-313.2680628556991,-310.20132259465754,-349.5777656137943
2025-12-12 17:59:09.469676,Right,-364.57086904591415,-416.55588660464855,-405.0496039686841,-409.75617318984587,-119.60070786636788,-391.7692514845985,-389.56905336567434,-427.93762004957534
2025-12-12 17:59:09.474648,Right,-325.9363883808837,-365.353181671293,-349.6769740052405,-360.5546488305554,-260.0498464383418,-338.5459553101682,-341.1606169656152,-379.7597734295414
2025-12-12 17:59:09.478685,Right,-254.24162798706675,-293.2079894730123,-276.4000547149917,-287.65442235203227,-354.9191382494464,-265.3617226666538,-270.31408956326777,-309.5804843287915
2025-12-12 17:59:09.482766,Right,-295.3429650075268,-347.47813977469923,-331.581246186106,-338.7832628429169,-232.19270066954778,-318.54706318920944,-321.0540161371464,-358.7497627287521
2025-12-12 17:59:09.486770,Right,-374.8146521730232,-428.63052847230574,-411.6229520023917,-420.05163934262237,-115.0236991365673,-400.3540846579708,-401.28734452143544,-435.70636117609683
2025-12-12 17:59:09.490767,Right,-336.68135435139993,-376.62741565849865,-356.7660103327362,-371.5291841205326,-208.0359485395893,-350.84363462240435,-354.5193059783196,-387.32547476387117
2025-12-12 17:59:09.494814,Right,-240.67963862174656,-276.8712691111141,-256.2972118759644,-272.63351346412674,-321.24492355968687,-251.76514956989558,-258.25742336182157,-291.57862207083963
2025-12-12 17:59:09.497725,Right,-257.3479233092512,-307.80341794504784,-288.8497393135913,-300.74519459711155,-229.5456041401194,-279.82478733040625,-286.02928766288096,-318.64175490976777
2025-12-12 17:59:09.501755,Right,-351.3588197272038,-408.9701033534948,-390.42622473847587,-401.22209094348364,-93.4971916291397,-378.0174836299266,-384.8725212299614,-414.25793157174485
2025-12-12 17:59:09.506776,Right,-346.292842633673,-391.98904756229604,-372.44017496256856,-387.24384557199664,-157.39550165325636,-360.4728994277539,-372.39152446499793,-399.17582340881927
2025-12-12 17:59:09.510773,Right,-253.6780228082789,-291.66782404191326,-273.3526260415092,-287.53665822849143,-292.9196091568447,-258.7751944818301,-276.1627105419757,-303.37857614509994
2025-12-12 17:59:09.514750,Right,-251.33428955834825,-301.1021667626919,-286.50648837001063,-292.4807320132968,-241.35996027186047,-262.86686968960566,-281.4946559445234,-310.24775237229187
2025-12-12 17:59:09.518797,Right,-348.46541889873333,-408.3770759549225,-395.59093826799653,-395.8825080478564,-97.64535380591406,-364.2320148945437,-382.44204958021874,-411.20323755888967
2025-12-12 17:59:09.522807,Right,-362.18792374274926,-412.14706888992805,-397.9201248953468,-400.404423653963,-128.84109686862212,-366.9231191057479,-387.3930314499885,-415.0288114663563
2025-12-12 17:59:09.525812,Right,-254.67173696897225,-292.98716846643947,-278.349029201956,-282.3860437106341,-269.5784435328678,-250.72406372835394,-274.0408895135042,-300.7238022215897
2025-12-12 17:59:09.530830,Right,-208.32698883581907,-254.9755097818561,-243.26826744538266,-242.12021847069263,-243.67820657230914,-214.39851212885696,-237.08872229984263,-262.5661767687998
2025-12-12 17:59:09.535849,Right,-296.75514051073696,-357.5480288628605,-348.501672653656,-342.9301711958833,-85.88760711910436,-315.5511393196648,-336.7344092147541,-360.5310777662089
2025-12-12 17:59:09.538864,Right,-354.729307399306,-412.2883378949482,-402.8870643590926,-400.264250596636,-82.3630253666197,-368.5046534855501,-392.4387886809418,-415.6270868112915
2025-12-12 17:59:09.542850,Right,-282.20777552051004,-328.70257463812595,-318.8920174096711,-319.5649093404063,-235.1613849470159,-284.2216473922017,-312.8935234269593,-336.94771258730907
2025-12-12 17:59:09.546862,Right,-219.12112887448166,-269.0067893670057,-261.5412560545956,-258.07051307015354,-253.4200203474611,-223.46584895963315,-252.27664852316957,-276.4096163539798
2025-12-12 17:59:09.549850,Right,-276.68713835277595,-337.26826987433014,-332.24202419497306,-323.04023466439685,-94.30000346904853,-290.19068974396214,-314.9076665372704,-337.3857177160098
2025-12-12 17:59:09.553870,Right,-333.4477610865724,-390.28941270842915,-384.79459033714375,-376.7725654775277,-45.38045174442232,-343.2529276229907,-365.96142205572687,-387.77046264731325
2025-12-12 17:59:09.557897,Right,-269.5931652155705,-314.10911339509767,-307.6588703407324,-302.9800903018331,-190.46159027458634,-268.6626301226206,-292.3953567040735,-316.24788772454485
2025-12-12 17:59:09.562889,Right,-191.63171148690162,-237.59385538019706,-233.05515338596888,-224.8706362847006,-252.43400477204705,-192.77176572207827,-215.16716667218134,-240.60290490818443
2025-12-12 17:59:09.566875,Right,-229.181518626865,-286.2146197888069,-284.33094314910704,-269.7049366752617,-107.8886535030324,-240.8499490597751,-258.423913368606,-281.6091527105891
2025-12-12 17:59:09.570913,Right,-293.1284212699393,-347.5644126322004,-345.18732549384004,-331.18153423292097,-16.856243229995016,-303.2721027980442,-317.92444312921725,-337.52429606596706
2025-12-12 17:59:09.574897,Right,-250.40522147441516,-290.63513757218607,-286.0717233194737,-277.56101226620376,-140.67006682266947,-249.7069657620741,-265.1674517338397,-284.8055397234275
2025-12-12 17:59:09.578943,Right,-179.75755475088954,-218.68495964136673,-214.38635297957808,-206.19112539774505,-244.85191069799475,-180.58206358051393,-195.59724591649137,-218.5035605095909
2025-12-12 17:59:09.581960,Right,-220.11942363082198,-271.4628248765948,-269.1929402241367,-256.988964517368,-136.34812544094166,-234.42252835584804,-245.52829278458375,-270.1618177431519
2025-12-12 17:59:09.585952,Right,-298.7113420635578,-350.67183986568125,-348.2340429321048,-337.62866095191566,-18.63568986777682,-315.5934655799065,-324.0685956283123,-347.7756228718208
2025-12-12 17:59:09.589914,Right,-260.30538185540354,-296.6660101399175,-292.24499845143873,-288.7451912810211,-108.10850097844377,-265.7476248383173,-275.4391277736868,-299.4281864668592
2025-12-12 17:59:09.594953,Right,-160.76658592681633,-191.19454130047234,-187.1358688470791,-185.4838376173284,-232.36492853896925,-163.34675572998822,-173.3777429125621,-200.61233055463526
2025-12-12 17:59:09.598985,Right,-168.979363407474,-211.69430566526717,-210.62124641303672,-203.51267884438857,-156.44236948585603,-183.43725781154353,-189.63079732912593,-219.82706697366666
2025-12-12 17:59:09.601987,Right,-253.23906643589726,-301.2637402169057,-301.61132793227443,-291.94553254172206,-21.30842761817621,-272.0387832853594,-274.5997685230104,-304.84960421099095
2025-12-12 17:59:09.605997,Right,-239.41918040515156,-272.9914464833564,-272.0361338342773,-266.4086348959245,-76.49491029971978,-245.35684339213185,-248.44646977836965,-277.72241105744615
2025-12-12 17:59:09.610954,Right,-138.14803729346022,-160.9643071743776,-159.68234502570704,-155.6636080928729,-213.01183467905503,-135.35647079796763,-139.22614420991158,-169.03604502027156
2025-12-12 17:59:09.615014,Right,-130.4244749075733,-163.2145224212436,-164.17794098565355,-155.00072631885996,-171.30419971927768,-136.86092654318782,-137.31778463203227,-168.3927526792977
2025-12-12 17:59:09.618034,Right,-232.08601310203085,-275.33696969761513,-277.8442703241599,-265.37315911223413,-29.933332890155725,-247.22168968984624,-243.87538848631084,-275.26693440502277
2025-12-12 17:59:09.623014,Right,-259.2007793096709,-292.9746665493003,-294.5591191520216,-286.1746701951488,-56.51998164720135,-265.7883017550339,-264.03020468197064,-295.4628616666887
2025-12-12 17:59:09.627033,Right,-163.23554604657693,-183.39112712157657,-184.64111796073848,-179.92411626444664,-202.25852932105772,-159.08731231314596,-161.67894546699245,-193.9397118538036
2025-12-12 17:59:09.630053,Right,-118.79813100845786,-142.99727039894788,-146.32572673779214,-138.4734718266991,-191.65062190359458,-120.16115339146927,-123.1592676131404,-155.93805545545183
2025-12-12 17:59:09.634064,Right,-202.4120161573519,-236.4687280281214,-241.05467953300104,-230.3038489568862,-41.434514186985325,-214.00361418019747,-213.91829001583392,-245.93812205060385
2025-12-12 17:59:09.638069,Right,-254.93243664037436,-282.8176263254136,-285.41863411228405,-279.189300706028,-33.30850664508762,-262.8337628747686,-261.6792285373667,-293.2149915792397
2025-12-12 17:59:09.642080,Right,-177.09987308597192,-192.07107221259503,-192.4796103607514,-191.83322087593842,-186.16255924635334,-176.6525294915191,-176.29690134426346,-208.87826685677283
2025-12-12 17:59:09.646091,Right,-108.86161070346134,-126.25800496386364,-127.32818239036715,-125.09173498232849,-215.81861023331294,-113.95685696369037,-111.4454237553291,-144.67273424292216
2025-12-12 17:59:09.651112,Right,-166.56858965795254,-194.52043299353682,-196.70785842544865,-190.8376178041217,-63.64051573886536,-182.63981132063782,-175.7376719294116,-207.22566469822777
2025-12-12 17:59:09.655128,Right,-230.61131230200408,-254.5371339257108,-255.2064340915531,-252.42053612606833,-8.704682732583024,-242.90532557590632,-235.15194559993688,-264.41634467442054
2025-12-12 17:59:09.658126,Right,-172.90833244106034,-183.2871767868055,-182.06614495650865,-185.15534477925394,-150.10743883653777,-173.1977279597195,-168.25964338879567,-197.67661185609177
2025-12-12 17:59:09.662133,Right,-94.08503482403466,-105.08291305595776,-105.0231619621045,-107.86565991921816,-222.30007855012082,-96.27929909498198,-91.60715537902433,-122.23679734556936
2025-12-12 17:59:09.666136,Right,-130.01709056057734,-153.54278169665486,-155.7163252387545,-155.23356468317797,-88.65988295513671,-145.15313242538832,-136.8232212291332,-166.43301685410552
2025-12-12 17:59:09.670115,Right,-197.30707676301245,-221.0311354646692,-222.66617428697646,-224.90510472824099,5.22452796989819,-214.08994462434202,-204.13926859683124,-231.25892600783845
2025-12-12 17:59:09.674213,Right,-156.18600375961978,-166.95409141562413,-166.75742252578493,-175.22823826927925,-110.78472907235846,-162.82585290644784,-155.6529594460735,-182.45923569169827
2025-12-12 17:59:09.678180,Right,-78.64477909705602,-87.41363293945324,-88.33746563183377,-96.18098621512763,-216.25276848202338,-84.71947498136433,-79.23057893523946,-107.85700408287812
2025-12-12 17:59:09.683143,Right,-112.74941940646386,-133.85017022996908,-138.14563268527854,-139.18059475562768,-112.78027069300879,-130.28068324550986,-122.12253714998951,-150.87708864884917
2025-12-12 17:59:09.686137,Right,-196.97162484074943,-220.17224241502117,-225.7020970900776,-224.5942589805927,7.552727900038008,-216.64405266247923,-206.12664553918876,-232.43588753655786
2025-12-12 17:59:09.690190,Right,-165.53051545476774,-173.7437320649624,-178.04667410691036,-181.2708131170366,-76.20110116299475,-173.24607151077362,-164.31648703251267,-189.12457081332104
2025-12-12 17:59:09.695227,Right,-56.40177158132428,-56.98341494391207,-61.21068857994396,-65.78671539359493,-200.8732394250692,-59.593937206373084,-52.17391307867365,-77.96308759378735
2025-12-12 17:59:09.698258,Right,-47.76415400049882,-59.1212605687906,-64.55369224061724,-65.21655541309156,-126.3610190214822,-61.80945345188957,-52.0541409739526,-78.22752725664759
2025-12-12 17:59:09.702217,Right,-134.79320036136778,-152.4657599356724,-156.59884157316992,-157.2824391722097,14.186625735077541,-153.92608875001315,-141.71735283377348,-165.64824709843379
2025-12-12 17:59:09.706252,Right,-144.16594489302952,-149.0097249884857,-149.16425463557243,-156.5689672214794,-35.951427017047536,-150.84451089217328,-140.05123618477955,-161.72216819936875
2025-12-12 17:59:09.710252,Right,-57.87266563199228,-51.307386498956475,-49.44182095001452,-60.393935628118925,-176.07816480228212,-53.898263064504135,-44.72590949421283,-66.6816169275553
2025-12-12 17:59:09.714267,Right,-43.51406059972942,-44.839930565387476,-44.55034126190003,-51.11748568422627,-136.9132757621701,-46.23448816186283,-34.1638913693605,-57.26963831757894
2025-12-12 17:59:09.717278,Right,-136.1840804684325,-147.49786828656215,-148.37807074084412,-151.8102110848995,14.355395600519842,-147.90777867729776,-131.42556434089784,-154.1508332962403
2025-12-12 17:59:09.722285,Right,-167.524705976306,-171.4040756963659,-170.77432134229457,-178.65789434243925,-0.9701939226069953,-174.86319709633244,-157.7159783723182,-179.57025893591344
2025-12-12 17:59:09.726286,Right,-76.31829435564578,-69.51901238720166,-68.00549438450253,-80.05262368684635,-151.08637953500147,-78.79284227627795,-62.79174640844576,-85.02706872392446
2025-12-12 17:59:09.730303,Right,-19.867525347217452,-19.250517794047482,-19.799719763803296,-28.63184334640391,-151.1963698460313,-32.48158311937004,-14.316514382779133,-36.78160363173811
2025-12-12 17:59:09.734301,Right,-79.35715770086972,-89.33624691137811,-91.65782979514915,-96.75455433753086,5.921367046103114,-103.8856628346839,-81.71076228137827,-102.30163414683193
2025-12-12 17:59:09.738266,Right,-113.43704770936165,-116.82888687378727,-117.78732634725748,-126.30196170165436,36.663876011472894,-132.82883641507942,-110.20491169579327,-128.3500510128797
2025-12-12 17:59:09.742316,Right,-30.742958852322772,-20.620795112045016,-19.893983458227012,-32.82549073873088,-104.99527972427313,-38.14219445968047,-17.848976286011748,-35.377902084204834
2025-12-12 17:59:09.745318,Right,33.77359141479246,40.947806584241334,40.475772842473816,30.827802119601984,-143.9756385232031,24.769092190254014,45.608347474597394,28.202992198232096
2025-12-12 17:59:09.750324,Right,-29.887600301706698,-35.062415751977824,-37.32907411665656,-40.88278074329719,-0.1043282383470796,-47.377988120075315,-23.120714190241415,-38.3077386249206
2025-12-12 17:59:09.754338,Right,-98.5147460604203,-101.10160779085709,-102.394269731245,-106.53381079580868,61.68928957407479,-111.08976320188958,-86.36582950124284,-98.59994732687483
2025-12-12 17:59:09.758365,Right,-43.19350499892607,-32.122922196867876,-31.580177984782495,-39.87232622556621,-72.72914444829803,-42.77509149728576,-21.386043069825973,-33.15661218215246
2025-12-12 17:59:09.762375,Right,30.77892366575543,41.71720429864945,41.32493665535003,34.5440479159588,-152.65169633418554,30.258204448968172,50.31055042729713,37.15110633231234
2025-12-12 17:59:09.765398,Right,-17.794641033979133,-19.975801210966893,-22.589894465054385,-24.61490528244758,-30.234130095515866,-30.79023093613796,-8.381130592053523,-21.346327850129455
2025-12-12 17:59:09.769332,Right,-99.01899734523613,-101.88903035852127,-103.9733012819197,-107.72782993549481,64.85284452099586,-112.83632275729906,-89.79812212302932,-100.49511421757052
2025-12-12 17:59:09.773408,Right,-57.041475169186015,-45.33326934283832,-44.8169785477221,-55.4056103869807,-43.532557295431616,-58.47779242647812,-38.640133397246245,-47.70577303849859
2025-12-12 17:59:09.778410,Right,38.67533959756838,54.89189314059331,56.076179433148354,44.04955020383932,-148.50969257575343,40.27503384600277,58.35282947469386,49.362476827634964
2025-12-12 17:59:09.782410,Right,19.32534175773617,23.075632764812326,22.969160929176724,15.744771865021903,-48.57019866036717,10.212607148627285,30.549935532180825,21.89715524512576
2025-12-12 17:59:09.786428,Right,-71.82598226488335,-73.56894165623817,-73.36302451314987,-79.18281148732058,73.76617002452258,-83.40519771166146,-62.01920897696982,-69.69566717580892
2025-12-12 17:59:09.790413,Right,-60.139830472820904,-50.08600633376045,-47.791218354337616,-57.60191684495658,-7.275074775243411,-58.47183158088592,-40.739475417882204,-48.6734531087277
2025-12-12 17:59:09.793442,Right,37.295979002141394,54.665426898223814,57.41703360766405,46.90338817398879,-137.7395304738602,47.115399506961694,61.275886367307976,51.86727694232832
2025-12-12 17:59:09.797581,Right,45.83419121115003,53.514385722606676,54.878018823306775,48.93073422074667,-70.93073701829417,47.95417133017327,63.248226558585884,53.73987567558652
2025-12-12 17:59:09.801420,Right,-41.58591756183887,-40.72196338666254,-38.97385161826969,-44.44732903005206,71.3461326698889,-45.21691304346314,-27.56716726339073,-35.32967025358812
2025-12-12 17:59:09.805429,Right,-54.87739960086765,-43.80314008728601,-39.3633439525147,-51.82464203375275,25.960520194494165,-50.91105821472593,-34.48557706057909,-41.50448137478088
2025-12-12 17:59:09.810443,Right,33.84203944375622,53.51932501711417,58.98701634648023,41.586809141008416,-119.64852512432844,41.973777331615565,56.15490473675891,47.86433425513678
2025-12-12 17:59:09.814509,Right,61.59866721366416,72.10931670936407,75.57301902447944,60.73806815315038,-90.09723189883516,58.11305504202028,73.57570555395796,64.9904226406943
2025-12-12 17:59:09.818509,Right,-16.18352509799297,-15.159839113242924,-12.77562185525312,-25.765339611214586,63.84528113275883,-29.76474738944671,-11.921697425917955,-18.023168533516582
2025-12-12 17:59:09.821509,Right,-42.134416786720976,-32.034700196789345,-27.4098821040825,-45.56730749621056,59.646114249073435,-48.048121426050784,-31.683175240352284,-35.25210246775532
2025-12-12 17:59:09.825521,Right,44.69277733695344,67.06619951484026,73.97609741607448,51.175445570697775,-90.09173039440066,49.31209545262391,62.351722092949785,58.8770041342068
2025-12-12 17:59:09.829525,Right,90.11235470118118,106.32657711373759,112.72037157366867,93.16799382207682,-101.7326858972956,89.06942480892758,102.5992751706799,98.94811453664443
2025-12-12 17:59:09.833596,Right,11.621301800740184,15.373125855490798,21.039593753113877,5.9951320346444845,49.85064509281074,-0.12322096689604223,16.909820265776943,15.613218341430184
2025-12-12 17:59:09.837599,Right,-43.42788409761852,-35.09105162721244,-27.51169358387415,-45.34789797622943,85.37631707443506,-51.461180178797804,-33.40378840515041,-31.493547822814435
2025-12-12 17:59:09.842599,Right,32.26054212072631,53.538511143415235,63.41114640048181,40.37070368643617,-56.58427289334941,33.310048524755985,49.84785904666933,52.71947505950811
2025-12-12 17:59:09.846607,Right,107.42081784109178,125.88415428940789,135.56181628142076,113.43029072284116,-105.44261288864072,102.81198628648417,120.1154308996629,122.56429614051012
2025-12-12 17:59:09.849580,Right,56.02068456252164,61.70784490942606,70.7980043485295,51.640290669107344,35.64489273239451,38.41688052404788,58.689640899261576,62.18457697183476
2025-12-12 17:59:09.853596,Right,-10.75576480354357,-2.8627081628801534,8.169735746851075,-14.599839512025937,109.80129544633382,-26.781528508203337,-6.5951098677905975,-1.0033563821634743
2025-12-12 17:59:09.857588,Right,42.95323419042688,65.34958435496083,78.6099635456776,49.46836782633909,-13.350219778163591,38.916812186609604,55.50533258311043,61.66135728068184
2025-12-12 17:59:09.861598,Right,119.69291500489635,143.17124122468522,155.30609707908297,127.05040869790537,-96.32051788295212,115.21608994575217,130.52962624267093,136.090295152826
2025-12-12 17:59:09.865565,Right,70.43875007025781,80.4335736498615,89.83133776472823,67.55212183875847,19.28940535710717,53.480636667387444,71.6432635342353,78.15346292547474
2025-12-12 17:59:09.871641,Right,-21.506408586952602,-13.980766202512314,-4.6934325189795345,-26.52129283467366,116.39271924128116,-40.22639331704704,-20.683789322836674,-11.955553973210044
2025-12-12 17:59:09.874641,Right,12.50523377583886,33.5483925020817,44.708467460863176,17.90966875218146,11.584514249872882,6.04963576256705,22.49138675261929,31.510394375378382
2025-12-12 17:59:09.878644,Right,116.94363596641051,142.8997317144822,154.03115654642897,126.95559971743205,-98.09612218440452,115.31800274037232,128.82549496337015,135.6842768939532
2025-12-12 17:59:09.881672,Right,114.81697304149566,128.81105364311952,138.31250457019632,116.66886638985306,-2.4047138066089246,104.82885664665082,118.94093597626488,124.1655490858393
2025-12-12 17:59:09.885667,Right,31.70205747870932,40.08257899027376,50.23128769134928,29.611391643309616,127.41245993654593,20.34310863314022,34.70463045024371,39.93822050796007
2025-12-12 17:59:09.889690,Right,39.085865121240204,59.35577365144127,72.49565630561847,46.057372271534405,56.52517370316491,40.62940401514061,51.79603699207655,56.51893177325837
2025-12-12 17:59:09.893700,Right,128.93733014680765,157.03380831694085,171.35082343891554,142.20455082097033,-75.6506619083666,137.52423039801943,146.36780674436886,149.53449638487655
2025-12-12 17:59:09.897694,Right,131.15833169168036,149.3108423399899,161.98281142840642,137.41835982431803,-16.038961659214692,130.68933614455455,142.12556852112175,145.32718418586592
2025-12-12 17:59:09.902714,Right,37.52790006681607,47.623892693904054,59.59915937904589,37.970287520380225,129.34578660456464,30.66145307156694,45.68597524649522,51.375177274843736
2025-12-12 17:59:09.905727,Right,21.78822696032148,41.6627216152192,55.43795120865798,29.872226424231485,93.52248566388153,23.78943807835458,38.48886262204542,46.283630228746915
2025-12-12 17:59:09.909718,Right,116.52779533297144,146.42834668639262,161.24564173273757,132.63967160118773,-52.731370925968804,125.35964107308246,138.7699021732151,146.81207897194327
2025-12-12 17:59:09.913739,Right,150.4872150580486,172.78303758851325,186.30688099847885,161.02807592890895,-33.468510188038636,149.39431160336244,165.3750506344877,174.3511292658477
2025-12-12 17:59:09.917751,Right,65.2628610166139,77.8539773718112,90.92484780979203,68.0616665980815,116.64585494373023,53.72254056090969,73.07858254251187,85.30789669966907
2025-12-12 17:59:09.921754,Right,22.16091602803317,42.55351233249348,57.65199151047,30.548025861091446,117.51698598553776,17.55319235699426,35.18840482608448,50.29279816279268
2025-12-12 17:59:09.926768,Right,100.49718321432738,132.39804043215645,148.52495009695303,118.09009962229902,-32.3881674001459,106.98381180816432,119.82254443932811,135.02695305974248
2025-12-12 17:59:09.929779,Right,150.43030429605142,175.4973224635908,189.3527367659117,163.8290163756683,-53.00804435113241,152.61187557184712,164.19864954431705,178.858818346647
2025-12-12 17:59:09.932765,Right,74.2283571502337,85.24811586876967,96.91657814693826,77.75293666686775,93.70950065469515,66.92373045663226,80.78859516248303,96.93806763103021
2025-12-12 17:59:09.938733,Right,10.20737959503549,24.373225108301995,37.1213040638213,16.813853438321075,132.45684248382167,8.673767711176879,22.724514667348558,40.74490875547053
2025-12-12 17:59:09.941811,Right,75.5586010572697,102.95114065577764,117.47495956420607,93.33790415223075,-11.042876150662778,87.22742733122493,98.827650955438,116.26523820086368
2025-12-12 17:59:09.945806,Right,148.36430437769923,173.9574263253453,187.551700406897,166.00614977125952,-71.03837666333129,158.88789299826112,170.45207166064574,186.2024797214035
2025-12-12 17:59:09.949760,Right,96.29325219233942,108.56491419115264,120.51706019262929,104.34398635627986,62.7244163316027,95.98538871537858,110.32381369595169,126.57411118669188
2025-12-12 17:59:09.953824,Right,23.435065145222325,35.797468543209106,48.86080906759162,31.593456284193962,140.8533012066764,24.8920293703668,39.08699804207208,57.42910693617159
2025-12-12 17:59:09.957825,Right,72.9451903215413,98.0266201902632,113.22628247305693,91.32592678250512,21.381133493585367,87.1119665669903,96.93012594684842,115.57821734531899
2025-12-12 17:59:09.960851,Right,156.77398267709214,182.03754310160002,196.48337445163634,176.50124150924967,-65.86183099041773,172.17633420143466,179.36242638458498,196.28170223713823
2025-12-12 17:59:09.965837,Right,119.56020687976707,130.18893833485345,141.966948937712,129.01826660468214,49.268492614181014,123.29853751666451,132.2829020038116,148.3156842413664
2025-12-12 17:59:09.969871,Right,29.771195962377533,36.29796574469947,47.431940073904116,36.09770633147855,157.77077976905093,30.920234528057335,40.93397456017556,57.45901843851607
2025-12-12 17:59:09.973919,Right,53.786620114588004,72.88196606790007,85.10646448832995,69.4587791054073,61.87522692081939,65.68481116976182,72.6582407199312,88.65554057836562
2025-12-12 17:59:09.977890,Right,146.75198772790463,170.68408994290803,182.1668850359274,166.16498437571136,-54.88402598982384,161.55213770316186,165.8988120945578,180.0470756455179
2025-12-12 17:59:09.981911,Right,136.1085735258457,147.54933254908974,156.67744491118356,145.79986712446407,29.372633356211736,139.26526195956103,145.0141031173698,158.6391520809848
2025-12-12 17:59:09.985908,Right,42.73539092401188,47.3149905617538,56.18333821624401,46.359000635500706,160.02208193006481,40.34491666341637,47.53282099610078,62.56166492729972
2025-12-12 17:59:09.988911,Right,40.799173609600984,56.82576290430734,67.53435602610989,52.454904455909855,95.3353954239501,48.4627910371637,53.205121947074076,68.88486240759084
2025-12-12 17:59:09.992904,Right,132.13749884629215,156.7530567963695,167.2287579311378,150.53711400087195,-41.06022455968014,145.81027221498516,147.80348122658324,162.57324390533904
2025-12-12 17:59:09.997935,Right,144.9153768778924,159.72176386417414,167.0767418025498,156.3015768067271,9.113964038679114,148.06814124033554,151.20515050042013,166.42195169234765
2025-12-12 17:59:10.001943,Right,57.40516922636016,62.62594589254877,68.25324460235424,61.31233324625646,156.11365728273086,51.23883878310153,56.08213007339509,74.40402162692044
2025-12-12 17:59:10.005959,Right,38.84835840135929,52.026307899082894,59.12281867284037,48.47679525068088,129.5972436001539,39.44394989409193,41.813541896350216,62.683629343722714
2025-12-12 17:59:10.009904,Right,131.86368940644024,154.0500740884745,161.90916180220665,148.7144751213491,-16.659426498612447,139.97055082785664,138.52536443252757,158.7402231359447
2025-12-12 17:59:10.013985,Right,170.90761952016328,184.27144395548385,189.6207628944103,181.50825343579345,-5.65487300339737,170.80811742048536,169.63378237892175,188.05630627743085
2025-12-12 17:59:10.017034,Right,88.42502201499883,89.9784539793327,92.85811800758529,89.44534097303404,145.06272750627977,77.5622399556305,78.9935552583629,97.3229979150783
2025-12-12 17:59:10.021008,Right,39.07306127586344,47.11580779463111,50.65594141779002,43.77476387745992,156.40542297196953,32.78677171266463,33.67817860288778,52.56210042981547
2025-12-12 17:59:10.025999,Right,113.07468348702241,133.74304831554764,138.54263268766226,126.82659291219898,9.62535166287853,115.84407114710484,113.93769728609186,131.75757176316984
2025-12-12 17:59:10.030026,Right,172.77391973952763,188.84915157037904,192.4332574155269,183.3425287262071,-18.521880501371925,170.2958487970318,168.60568609011534,184.7437179993285
2025-12-12 17:59:10.033964,Right,113.56501260126242,116.53362965189444,118.54233233683044,114.40074475485017,127.27426882835425,100.82162204232009,101.81765131087741,117.91842794214608
2025-12-12 17:59:10.038066,Right,58.333104605888366,64.12968080765859,67.13000026850204,61.2889170434064,178.18732454840938,50.84257103521668,51.49378086015349,68.2191496026062
2025-12-12 17:59:10.041051,Right,121.46436516658287,140.7404726863606,145.11483204098477,135.09290159936063,43.77694793563569,127.84340649323713,125.14346016016498,140.5761412053107
2025-12-12 17:59:10.045048,Right,187.2568424113415,205.75052344892174,208.54675337506342,201.34504762850702,-20.46383120687824,193.80009892089583,190.4905733319465,203.474739373356
2025-12-12 17:59:10.049062,Right,123.56541713261686,128.94881152872404,129.1309975861659,128.83755003099213,107.36778707245685,119.55636289194808,119.04218253106228,131.38050087077136
2025-12-12 17:59:10.054062,Right,34.646220603302936,39.330038295389386,39.64498358369747,40.470476217058604,187.43420402432093,31.173713702955865,30.974296060332563,44.29944373847684
2025-12-12 17:59:10.058094,Right,76.17543935967842,93.51282803084177,95.32005409043632,92.78770524328866,68.43797177973465,83.68795576326374,79.6828066335438,92.70495178106648
2025-12-12 17:59:10.062112,Right,170.25527814176166,188.9343612606608,189.54235076508485,188.65890113759087,-27.01215693823906,177.42040525031916,171.13938814317225,182.25854230005643
2025-12-12 17:59:10.066067,Right,148.93418875720818,153.59419996617362,151.18057475409296,156.32665343023837,82.33218296135601,142.727585051005,138.43351412695483,148.82211063045543
2025-12-12 17:59:10.069131,Right,60.23941176588414,59.8064289703907,56.91369259978819,62.66170201060595,195.90870211810397,49.84898752240406,47.01769933592004,58.55273213799228
2025-12-12 17:59:10.073121,Right,70.79620044901094,81.58361723467533,80.71012123764376,81.18991595515399,103.3601922410162,70.60124074759369,65.59088863691431,77.63679470590432
2025-12-12 17:59:10.077124,Right,151.88752502818534,167.1271350371244,166.48502179290517,166.0603821525001,-24.310090570681496,155.2559521577641,148.58554494506097,159.6303212387429
2025-12-12 17:59:10.081189,Right,137.3892013626173,140.4170073827554,137.45100394362817,142.7337002356362,45.89976985027897,130.34195866069058,125.65324313635938,136.4406121384818
2025-12-12 17:59:10.086102,Right,42.632747636322165,39.17373774004227,35.09667815142893,43.12052045536984,176.07003287204134,31.8141808329965,28.511640868033282,40.54000012812321
2025-12-12 17:59:10.090148,Right,41.512454214316676,50.17330907587893,47.27116745998501,51.768976872743224,118.22082245536149,43.730803693746566,37.38909868260089,49.7147054891102
2025-12-12 17:59:10.094164,Right,141.41859389070305,159.50978686053713,156.63197319454048,160.34750109950255,-20.881075822151615,153.46835873066448,143.6908979885484,154.30301189474994
2025-12-12 17:59:10.097199,Right,165.3574810501741,173.7361830440932,168.57398889301112,178.24926873412915,19.677660710702185,169.8519392619928,161.16508194692142,170.6028206149349
2025-12-12 17:59:10.101185,Right,76.61840764601948,74.67922806559363,68.39784812441212,81.73641926253913,164.99651461886242,73.00051077557146,66.94094729736389,77.56242751178797
2025-12-12 17:59:10.105204,Right,41.91511735683889,47.747492772032274,43.04925282418844,52.25554363828269,142.31146354858356,45.47447834876948,38.35219803077052,50.5038463222445
2025-12-12 17:59:10.110221,Right,117.50599770808185,133.29734272373025,129.55705303372815,135.21095310500823,-10.288033879187424,129.2865375665133,119.64954039882286,131.5192397548235
2025-12-12 17:59:10.113279,Right,145.77746486225806,153.28456090204418,148.01013547589537,157.67384430463426,-15.142778195877327,150.42383855990192,142.1557970870781,153.26493146218127
2025-12-12 17:59:10.117166,Right,55.54374195233686,50.25345741093042,44.1368786765961,58.38497653891682,127.35305065658758,51.241994623982464,46.34731432904664,58.06114519762923
2025-12-12 17:59:10.121245,Right,2.263399180272245,2.4430872782249935,-1.6195004738110583,10.09570641501341,142.3720431249385,6.1388241749373265,0.5432613450539066,12.823808482062304
2025-12-12 17:59:10.125247,Right,81.94393087501521,95.36563698513783,93.01767674530856,100.8149197374587,-2.753842669291771,99.64651041850448,89.89943039702484,100.68638875617762
2025-12-12 17:59:10.130251,Right,151.8865962609998,162.00258091575233,157.98165887559298,168.39946551644243,-36.39065395308717,167.31564923780388,156.04408534457616,164.6050436264486
2025-12-12 17:59:10.134272,Right,94.10532766951656,91.18565204914194,84.87410699826432,99.31999392295256,108.62875399083714,98.40599058242515,88.89189287027693,96.91895928056329
2025-12-12 17:59:10.137278,Right,29.290965222855448,28.213240931450855,22.84332576749148,34.077691262733424,166.86516016165842,35.52844900399214,25.979879719685414,34.46121369951288
2025-12-12 17:59:10.141298,Right,84.0604245927243,95.95977263266104,93.04290657603997,98.24630876723677,33.20134795717604,101.23201306242845,89.32047748452169,97.14755552264978
2025-12-12 17:59:10.145247,Right,151.30326401533966,162.72236770301242,159.82392969544162,166.00638022003113,-42.89294501877157,167.20067330540041,155.5440503774007,162.4167789562489
2025-12-12 17:59:10.149296,Right,91.78825324792706,90.28971354404348,85.75034897579462,97.18560851161601,76.17478617251618,96.60551780916285,88.1157573901146,95.93393353419378
2025-12-12 17:59:10.153320,Right,-1.6035210369736888,-3.7077889132197015,-8.19271551509155,2.6729955497721676,160.63396789001126,4.0498124723671935,-4.266178020217922,5.2902463587524835
2025-12-12 17:59:10.157325,Right,28.85680545735522,40.335760193513124,36.78796806874743,42.56461309865699,45.74810191440338,47.12807702407008,34.46182997462165,43.46700330101885
2025-12-12 17:59:10.162345,Right,116.51039713723003,130.74062865506858,125.6949457712617,131.9041069384839,-57.57317561068339,136.44328144722385,120.95940824423451,127.66945331415627
2025-12-12 17:59:10.165359,Right,95.85031183756655,96.5060627922212,88.62887555488851,100.53572049472132,43.62349561996234,102.825592385052,89.3193061795464,95.64205055832281
2025-12-12 17:59:10.169301,Right,8.92470666715235,4.0916851332149236,-3.7467309161293088,8.843146425002487,162.0836369615863,10.657107770297443,-0.9333491053112084,7.458779873559251
2025-12-12 17:59:10.173408,Right,21.82172113926208,28.63754452842113,23.43000597927312,30.569591587845935,77.90691112903005,33.525705104199005,20.01533981638204,29.67826908591087
2025-12-12 17:59:10.177388,Right,109.71046435825701,122.38445642999432,117.94261714171444,123.79403747009928,-52.47904195438605,126.20152529298502,111.0215828235232,120.06292716469034
2025-12-12 17:59:10.181492,Right,102.84369277623773,103.59072774396918,97.29113195672107,108.75027212948771,10.771192550077103,109.03962601105741,96.5823410054727,105.71673393898527
2025-12-12 17:59:10.185456,Right,6.810835118783871,-1.0318925797910197,-7.841816977947019,6.455733795650303,143.97354846396775,6.204953176231356,-2.5302019232185557,8.291084385040449
2025-12-12 17:59:10.189453,Right,-5.265362727222964,-3.8851211573201,-8.729147157486295,1.753144864938804,93.08351912481885,2.356202144292183,-6.073268677442684,5.1988100757298525
2025-12-12 17:59:10.192462,Right,84.87223121678107,94.12128837831551,89.89744142262498,98.94582831730077,-50.39794440261903,98.4695088591834,89.44414673127176,98.52887470382848
2025-12-12 17:59:10.197377,Right,106.62195467943093,105.8444662206166,99.24731495100423,114.12480897778005,-20.59751429206517,110.89267378511431,104.2824413250637,111.18036482934258
2025-12-12 17:59:10.201437,Right,19.165626280970173,7.902127284818562,-0.4848111149331089,18.92852264569956,125.33533698794781,15.309709621884394,11.330921664412017,18.047658064431744
2025-12-12 17:59:10.205451,Right,-12.294044954251149,-15.657471192535013,-23.056559370670584,-6.644016629827092,114.06589892241755,-7.921831671294058,-13.441463790266425,-6.760662258049706
2025-12-12 17:59:10.209470,Right,74.13394647714449,81.6396183573379,74.9536867235438,88.2059089573886,-32.952434148435714,87.40442047521356,79.02979754452826,84.12681031835382
2025-12-12 17:59:10.213482,Right,119.62871722383716,119.51900461177866,110.99350516559207,127.8052434183628,-40.15447975634015,123.9507882114558,117.00959271853208,121.05188535711204
2025-12-12 17:59:10.217473,Right,39.66827750499942,25.85416780556261,15.922283138497733,36.480226045896416,106.14529785998457,30.22336925198033,27.149164517904865,32.76764498655393
2025-12-12 17:59:10.220513,Right,-18.36358883192588,-28.48683968538535,-36.63929174316581,-19.69394387927605,131.75583931604342,-24.90339289722033,-28.091006933551398,-20.37471891817404
2025-12-12 17:59:10.224514,Right,51.00731023865228,53.36846661193704,47.51370798112475,59.25823911197949,-12.50821456790436,55.71709678876505,48.630263938583084,56.107768879519426
2025-12-12 17:59:10.229507,Right,116.54491283508833,116.0240722566814,109.70990578309284,123.17972427647328,-58.193333665287355,119.36483996994502,110.71669128796202,117.08901748378412
2025-12-12 17:59:10.233510,Right,56.539447663133615,43.10123993110028,35.50641723792069,53.134327572217444,79.40346786747978,49.418366634097765,42.626722727829474,50.08345367935544
2025-12-12 17:59:10.238517,Right,-14.579899741278496,-26.664469620169257,-33.155929724962334,-17.943701952826814,142.93458440132963,-18.96412839824916,-25.60601265830337,-15.806751838841592
2025-12-12 17:59:10.242540,Right,36.92829286803317,37.59234321308031,32.972554466396105,42.60634730500169,13.492639495045296,44.31173380831024,34.77629282246926,45.098791483804234
2025-12-12 17:59:10.245555,Right,110.69924733672815,110.43254616881313,105.3101211686735,115.62142100423807,-68.48724287428195,117.20950250110764,106.3744898809964,115.83142553296057
2025-12-12 17:59:10.248499,Right,59.70128030050546,44.73499580664793,38.44516234735784,53.16953476096387,46.24455327646865,53.75343777134549,44.61223123430682,54.786309524963144
2025-12-12 17:59:10.252573,Right,-32.2983986109175,-50.02531971097051,-54.34566883109801,-41.64415117776662,137.12773757742252,-40.10002443680423,-49.19437279786507,-36.68903668188432
2025-12-12 17:59:10.257568,Right,-4.641141418440384,-9.336755182681372,-9.728558010567212,-4.284864349116106,27.57591699878685,-1.7587280581064988,-14.044716729797074,-0.35585748712765053
2025-12-12 17:59:10.261575,Right,82.4030184886069,81.36628941475647,82.39012848657148,86.33436215168331,-83.26409234573657,86.70508537128626,73.0501546720916,86.2874573496374
2025-12-12 17:59:10.265614,Right,61.67612453203765,47.604190899655805,47.35550628541387,56.71940180101956,8.13706947422179,54.14905790705234,43.283380909619154,56.60829830485454
2025-12-12 17:59:10.269568,Right,-29.35247571900254,-49.10979169730854,-49.430385776024195,-38.08852536800259,128.77786294887483,-39.434592325182166,-48.7250374424475,-34.6136241001077
2025-12-12 17:59:10.272684,Right,-20.110275107901543,-27.667274405568605,-26.275449088250753,-19.340301724310848,51.28168899251614,-15.9290732749796,-28.468426050123526,-15.305258947162656
2025-12-12 17:59:10.276618,Right,73.90032317044097,74.0365733057697,75.52319788673776,80.42515219033521,-81.91193658683915,86.87078267159814,71.32318960694829,81.67473728890764
2025-12-12 17:59:10.280661,Right,80.5977733314794,70.60633973777294,70.20990796579281,78.28648543053714,-24.645351558036054,84.50291350760381,71.22214311224525,80.26752358464
2025-12-12 17:59:10.284657,Right,-6.915384438892943,-24.56482455204241,-25.00478298435337,-17.295980107941432,113.90651817372418,-11.368107535687159,-20.882786401445628,-10.13031804424827
2025-12-12 17:59:10.289649,Right,-19.222316275001504,-26.887302127754083,-24.668020765748224,-24.040701603749767,74.31518698955188,-17.368917456871714,-27.351747787644854,-14.851130505820038
2025-12-12 17:59:10.293616,Right,70.00485768596991,71.0128077611007,74.51489008084172,71.11674443383527,-68.442327953715,77.37575299029413,64.57167531760933,76.36104414491274
2025-12-12 17:59:10.297712,Right,92.9810922829929,83.60577075681067,85.14003861599485,86.52889024851902,-46.64582142881409,91.72691918394412,78.3893534099625,88.84418263609405
2025-12-12 17:59:10.300692,Right,0.6689825469075004,-21.115279734673095,-21.268782364677463,-14.664559629120049,98.0479509554425,-7.469844296560041,-20.939882672391832,-10.11386531185417
2025-12-12 17:59:10.304644,Right,-45.36801566502254,-61.020522060323856,-60.28504610082018,-55.14109783843742,91.59565115647274,-42.7380985133932,-60.42363720944559,-48.943577025827835
2025-12-12 17:59:10.308708,Right,26.452690877762507,21.604502482601674,22.761268389418547,26.34880150546087,-59.89801595181052,42.38481115353352,18.785113224075758,29.00251193367876
2025-12-12 17:59:10.312710,Right,66.08610314702673,54.43656991797616,53.199639465143264,62.086337631888455,-80.6873912220617,77.68898222695861,52.396318619117665,60.66382966795936
2025-12-12 17:59:10.317722,Right,-14.399074570275843,-39.661098381955526,-42.99797015477088,-28.440382436296204,60.08269328305323,-14.141069254124886,-37.89192474437732,-30.113403999974253
2025-12-12 17:59:10.321728,Right,-71.16152302344562,-93.1955910067918,-95.35970838180947,-82.9868873499945,91.91189647307328,-68.15636296017328,-93.07433791524818,-85.39836009738792
2025-12-12 17:59:10.325698,Right,6.89067746377259,-2.67332050488767,-3.0703138179087546,4.735711777888355,-49.846913367451634,19.6993920422683,-8.970248977188021,-2.958726549972198
2025-12-12 17:59:10.328753,Right,88.82753374340246,76.28705664187146,74.85141293887136,85.16902710330032,-102.26659220055444,97.6080031341844,68.55155586623732,72.9315296998684
2025-12-12 17:59:10.333775,Right,38.03112194137793,11.170507200724387,7.923602243659843,24.3326533370564,33.007431020756485,33.9587749971688,8.60233610180876,14.257335729707847
2025-12-12 17:59:10.337780,Right,-42.614858426146384,-70.16224767730455,-72.70284684218495,-55.93525329439581,103.98774122459872,-46.5836004846642,-70.20101233706373,-61.587399928772356
2025-12-12 17:59:10.340782,Right,-7.204152789403452,-22.519796391308773,-23.867341303572175,-9.985060087914462,-22.34696985015762,0.01676972326822579,-25.922913641494233,-16.526230512667098
2025-12-12 17:59:10.345806,Right,65.61666099116701,50.848842646453704,47.3817056894477,64.52108623229287,-111.4264348144061,73.64329474564875,46.5411663061459,54.203987789900566
2025-12-12 17:59:10.349751,Right,29.595559209577914,1.6679564685255173,-5.549628921078693,19.118610171135515,2.091399518714752,27.626780154903827,3.176094375208777,9.818452162282483
2025-12-12 17:59:10.353822,Right,-48.491004503826844,-78.65426919588936,-86.6826464968326,-60.51411809427373,107.29831149232632,-49.67439644353726,-72.20756255523884,-64.7710935563664
2025-12-12 17:59:10.356820,Right,-14.96639325410797,-31.18469103019015,-37.474690961724264,-15.807770045990765,12.099800265408703,-1.8022753947298042,-25.817172477509303,-17.780466459240415
2025-12-12 17:59:10.360828,Right,73.75746394451562,63.528105269717344,57.300266066198674,78.45698835087387,-99.26796561683295,92.52852312080358,68.2636475867912,76.3560181376597
2025-12-12 17:59:10.364833,Right,46.944620160822524,26.241632968922204,18.01371005719193,43.86604145428282,-13.87256727755448,55.77050470440736,35.66353531170171,45.42755771512748
2025-12-12 17:59:10.368832,Right,-62.49980228068307,-87.08959650000907,-95.81251777822399,-69.70279731867777,109.47849733449402,-58.44278886017855,-74.66022088134196,-61.66607192551601
2025-12-12 17:59:10.372879,Right,-72.66728090229299,-83.25515682321566,-90.50059530667204,-70.77651757955755,37.30553368196706,-58.97488172593148,-75.68351995415287,-61.0894004181755
2025-12-12 17:59:10.377885,Right,15.974768487350957,15.196861659343995,7.985553504684503,24.29011537534825,-100.08753979898029,34.49966935721022,16.96482121475492,30.413784373013186
2025-12-12 17:59:10.380935,Right,26.892090325163736,17.06804399350949,7.843272193007579,27.445893471063755,-50.08725484916067,34.71366203692014,20.603474071696837,32.92332570977305
2025-12-12 17:59:10.384872,Right,-62.27820845464885,-80.21640994528934,-89.99730521723177,-69.0668693524567,91.45658553625253,-61.814521404201514,-71.85817135952675,-59.15712652592629
2025-12-12 17:59:10.388839,Right,-81.90001610761101,-89.9619249977186,-97.92883109373724,-81.84281030802958,59.966753662105475,-71.47223253579432,-82.26009520024672,-70.17577085030644
2025-12-12 17:59:10.392901,Right,7.908150755898532,10.405311003360111,2.8732424476893357,16.801827073613822,-83.66844000631681,28.939317514414142,15.007112662944564,23.74215516647382
2025-12-12 17:59:10.396925,Right,40.08556904537545,35.00784902893065,24.9026276233144,44.87629576906329,-67.97199436536903,55.751582553974,41.9126539835961,47.156099344880204
2025-12-12 17:59:10.400940,Right,-47.59470887507996,-63.08881657512029,-75.09262659501837,-49.737360632210766,80.52968961148872,-40.080856583641435,-51.661383015631145,-47.356730747342226
2025-12-12 17:59:10.405931,Right,-95.28881024526345,-102.83581714555476,-113.60268367660774,-91.49486114704996,86.38560731446341,-81.89645193854813,-93.68810612167727,-89.22908579166324
2025-12-12 17:59:10.408943,Right,-18.18551228443539,-11.704029799213458,-21.213753867436935,-4.281522469464107,-59.630940223469224,3.37935272892355,-9.814915069597191,-6.381082268006139
2025-12-12 17:59:10.412940,Right,37.0045995525943,40.63883703839747,29.51534184562297,47.908664232145384,-82.55779180488025,51.05373305331159,39.93904650936747,42.449187670415995
2025-12-12 17:59:10.416956,Right,-32.06621057131633,-39.44987556635715,-52.50981192541303,-30.942154177279008,63.63927917415276,-30.76455747500222,-37.693888179148416,-34.011272638163064
2025-12-12 17:59:10.420967,Right,-92.43871125311489,-95.63165369045237,-107.78499462337282,-89.54528678209681,110.42363568814471,-88.56094667447906,-94.68014021915042,-89.46534022110791
2025-12-12 17:59:10.424993,Right,-26.862389941821675,-16.69943582345695,-27.11489004388841,-14.241020284553088,-24.098575963042094,-12.102890304900939,-20.28030413596207,-16.039771603242116
2025-12-12 17:59:10.428979,Right,45.10890879482031,53.76200282711579,42.56367350235587,56.82151263064952,-83.79188045363117,57.527323765301844,50.30252279094202,52.1036907888265
2025-12-12 17:59:10.433019,Right,-9.255083344001832,-13.600814611307214,-26.57541939339262,-7.960959465706765,45.187535541947,-8.765637080516171,-11.377426245986499,-10.374460966755578
2025-12-12 17:59:10.437005,Right,-87.25883939067535,-91.23268697630647,-103.52601192144357,-87.40612768164647,120.89021370518458,-86.98310281453814,-87.07804936789398,-85.54125749804007
2025-12-12 17:59:10.440021,Right,-43.273742155022774,-33.61953981389888,-43.88257886610245,-34.82340081854272,-2.0428913021460176,-32.88147763843335,-34.22982990680612,-33.67905715268353
2025-12-12 17:59:10.446037,Right,38.03713611115836,49.46775755094768,39.12653150404185,46.9546109254934,-99.90735449938802,47.474818780088754,46.323945711485976,44.4243065956216
2025-12-12 17:59:10.449035,Right,-0.573362868005006,-2.5253262513560912,-14.27886345178922,-2.198820303145112,3.1023075740231434,-3.7672952659831935,-1.1280855527315907,-4.256227629099158
2025-12-12 17:59:10.453066,Right,-93.82794595753921,-99.51962332257392,-110.61948596418915,-98.63667957685084,107.71529193972674,-99.0410940521815,-94.05557099112639,-97.23834978895138
2025-12-12 17:59:10.457056,Right,-73.11978889256557,-66.10627355395889,-75.14626826711537,-68.23441993405504,13.403148073644843,-65.87063240447878,-62.69760372134442,-67.62905694729761
2025-12-12 17:59:10.461001,Right,19.591343403625615,31.97916070933252,22.732276554779673,29.19363552458981,-106.44317835039692,31.419142008965537,33.627847276880175,25.106066007065692
2025-12-12 17:59:10.465077,Right,8.284277099587143,8.857052400790508,-2.536122853443885,9.472463432241398,-29.672560840022925,9.022190068775217,14.868616324813502,4.28854212083354
2025-12-12 17:59:10.468091,Right,-90.12017762625419,-95.94694614075615,-107.30824320967804,-93.75726626095684,98.13116168120905,-95.31946632499898,-85.63121988954617,-95.4797125359803
2025-12-12 17:59:10.472120,Right,-96.4000989856986,-90.26500252543974,-98.92421908056713,-90.86765110795477,35.885668438553694,-91.54456750262477,-82.39043442456386,-91.55013636929289
2025-12-12 17:59:10.477113,Right,-0.22696602820178668,15.300167342805253,7.8071424344962,13.070474202949754,-100.90816727824131,12.150722533375301,19.61317253809011,9.325790744933329
2025-12-12 17:59:10.481129,Right,24.35815968274619,30.694003963015348,21.397465400383226,31.33387533082714,-54.53535844874568,29.119969501183732,38.0380345008507,26.974914298366457
2025-12-12 17:59:10.485129,Right,-56.10344597058065,-59.333959094838065,-69.5306040398973,-56.19997714529927,93.57079496332153,-57.50630435651692,-46.81994042007318,-56.57782284146106
2025-12-12 17:59:10.489155,Right,-78.67953078649771,-73.97695163301978,-81.88032178270441,-72.48427983407055,73.41164776143341,-71.21310328983054,-62.4847549021124,-70.74151091109889
2025-12-12 17:59:10.493150,Right,2.8621668887408305,17.242933441977584,11.892782577800972,17.14270439257234,-72.1611834437208,18.126778385803846,24.423198321626842,16.19631888731419
2025-12-12 17:59:10.496151,Right,28.963543563908388,35.56105422983637,30.75874694214508,37.48656388581185,-70.35334958392195,34.590760408691494,43.11361126425254,35.19014436876387
2025-12-12 17:59:10.502166,Right,-62.590622436309786,-67.23945540107889,-71.11726103070032,-64.31031480364436,71.2709122371125,-69.89904639757151,-57.10984426940922,-62.909264337786226
2025-12-12 17:59:10.505172,Right,-111.68463863106444,-109.69523903791196,-110.5614887812626,-111.5165598888525,81.1418928109124,-116.08362769145242,-103.3000708951713,-107.2541073505945
2025-12-12 17:59:10.509174,Right,-27.815787278643256,-12.758312339679833,-11.623427539347176,-20.778314003815467,-65.24839941005848,-23.96646442308156,-14.602740599768367,-19.252866346087103
2025-12-12 17:59:10.513205,Right,42.005813634896185,53.10868722577288,52.66397193560988,43.935299172240775,-97.05020321673146,39.60429111140911,48.33063744872561,42.129574273567414
2025-12-12 17:59:10.517213,Right,-17.11484573610869,-19.14944748195194,-21.787566423310636,-26.263437313868053,45.854027100256644,-32.06083997192036,-20.70791273632858,-26.654749320561677
2025-12-12 17:59:10.520209,Right,-80.80473126731158,-80.87773986894535,-82.75560021073761,-88.19919137955003,98.7577408052457,-93.45959267822036,-81.437908893633,-86.41077527763628
2025-12-12 17:59:10.524218,Right,-23.364420456957305,-10.878903931701643,-11.030922217807529,-19.347318070816982,-35.46341350668081,-24.21486889089283,-13.839597891765152,-19.747324333671713
2025-12-12 17:59:10.528162,Right,46.31338176736972,57.428110244174604,56.296116555859044,51.66532141366406,-106.44413733284455,44.939569805595966,56.725110727416904,48.92328907051342
2025-12-12 17:59:10.533297,Right,-9.058597589100827,-11.611183604527469,-14.965286470684077,-12.834939606356784,15.790720354325458,-21.01484350438841,-4.231926119537093,-11.867502020995744
2025-12-12 17:59:10.537281,Right,-95.01034911932584,-98.59239848119978,-101.55175413650431,-99.56200274409639,99.44522563692408,-105.8809939720195,-86.8855765691078,-92.80771228603044
2025-12-12 17:59:10.541230,Right,-59.436376574965834,-49.79113097804657,-50.55591474509856,-53.96734209063652,-14.172719140104164,-57.44305810786318,-41.58032703027493,-47.586033395571576
2025-12-12 17:59:10.545284,Right,24.89946040000723,37.246683696797845,36.70266549845837,32.74350905989559,-113.68719654488268,29.500845647387905,42.233717370145314,34.1101054017563
2025-12-12 17:59:10.548227,Right,-1.859908659778739,-2.1295871186703152,-4.101044131981325,-3.961815092872712,-13.66663329115545,-8.065759418987,4.991937817045255,-4.1256849611781945
2025-12-12 17:59:10.552298,Right,-87.28752850650199,-91.26158021403899,-92.80184412345261,-93.77344696634827,97.65910954113133,-96.27540867812422,-83.30589570640223,-91.53765017335536
2025-12-12 17:59:10.556290,Right,-66.41706175551008,-57.379152382280154,-56.90831389658706,-64.63840218335463,9.917047623093822,-64.35280303367108,-54.48032759306807,-62.71519644946966
2025-12-12 17:59:10.560305,Right,25.715103421578533,40.83469741322915,41.19273125047039,31.743832546624617,-115.69498277631465,32.11011864788452,40.24050509697554,30.23796798432886
2025-12-12 17:59:10.565309,Right,14.184544919895416,17.08730307692167,15.230023356758466,11.640375324976048,-47.4933573349017,10.167402650942677,20.927290004186943,10.048292674946424
2025-12-12 17:59:10.569260,Right,-91.51034750014514,-97.13481461329866,-99.19400488374959,-99.55765618102305,83.15186859782352,-100.63179751465213,-87.56164529305534,-97.46587958472082
2025-12-12 17:59:10.572274,Right,-111.44649935913912,-107.33141253852227,-106.84747335470456,-110.97709694380319,27.247110798083668,-109.61605160350882,-98.73938891497164,-108.65495696418657
2025-12-12 17:59:10.576346,Right,-22.573021776748647,-9.816462450620747,-8.216790315003891,-14.278073342233256,-115.44113188679421,-12.895043039337907,-4.646289555672411,-16.977506365205045
2025-12-12 17:59:10.580366,Right,7.226495878734568,11.003804969117482,10.65428751676518,9.34088919658825,-81.06596587065906,7.425002697833406,17.62893798467121,3.323718859523069
2025-12-12 17:59:10.584381,Right,-63.94497268823761,-69.55897652618296,-71.22811162078142,-69.57486494650948,67.13874979595676,-74.26920389229781,-60.62207383061468,-74.22987482995086
2025-12-12 17:59:10.588381,Right,-79.425643045186,-76.50703421660728,-76.67507375817513,-79.79949153518828,58.02930057141475,-85.14574565186922,-72.16375084105675,-84.44685891758127
2025-12-12 17:59:10.593377,Right,12.15118885886477,26.30103979240812,27.36862294185994,19.367680347320857,-81.98511624856519,13.076963467538008,22.956200536704273,10.325116672967852
2025-12-12 17:59:10.597396,Right,51.935243461724895,59.524345955731405,59.13392822127935,53.10178738551622,-81.67060596787292,45.246371330511465,54.80088385663112,41.57406699323474
2025-12-12 17:59:10.600343,Right,-33.938510220337776,-38.050665415023104,-40.03741391235235,-43.70022323758894,64.83781572845487,-50.53775475671864,-39.54060840377497,-51.76600152768515
2025-12-12 17:59:10.604410,Right,-90.82774531591713,-89.3616344961847,-90.6407957758347,-98.64805036320467,86.2361134752075,-101.77543239655643,-92.32722782625206,-103.69273788859573
2025-12-12 17:59:10.608416,Right,-17.62179877320159,-2.8611797085832222,-3.420996676562936,-16.172807253133215,-57.34373084292747,-17.780473483020614,-11.539618687915208,-24.312002643753658
2025-12-12 17:59:10.612458,Right,46.48887390145683,58.49227160784358,56.26916031695873,46.713053863881214,-98.06645645072376,42.185025083956134,49.19935797173093,34.74437764401955
2025-12-12 17:59:10.616431,Right,-20.712640839898086,-21.16981913584459,-24.82725395786838,-28.93708938974305,39.41566488649187,-36.415335640384,-25.33852334108815,-38.58408890887222
2025-12-12 17:59:10.620406,Right,-99.46411547307798,-97.4191848014525,-99.09002586118004,-105.67045934605267,96.42480109051394,-112.07765648709028,-100.16381437034579,-110.35883356082195
2025-12-12 17:59:10.625483,Right,-52.138546117064834,-35.67562709280173,-34.27244753359264,-47.74559225906705,-37.11146603706766,-51.36904697591672,-42.86078570850805,-51.675491431116825
2025-12-12 17:59:10.628460,Right,22.155781807930907,39.718346873807604,41.207480726479844,27.035485411834088,-117.34370179674352,24.237654645410657,31.148035231344693,21.781219220407365
2025-12-12 17:59:10.632479,Right,-24.0709511340101,-19.44374159839208,-19.62712471406121,-29.56634352268884,-1.9635548452224612,-32.244763031281764,-22.91643145767739,-32.07269651045499
2025-12-12 17:59:10.636482,Right,-109.42862339704152,-107.1737033364625,-106.8495495097086,-117.37614254660002,84.93265051847084,-117.98753827569453,-107.27513659838587,-115.01635021287802
2025-12-12 17:59:10.640471,Right,-76.24931184209709,-62.03641739360319,-59.66421527673083,-75.18777829088503,-26.78456209929209,-73.63265959484124,-65.0112759258991,-72.33885339002882
2025-12-12 17:59:10.644474,Right,14.151232719159452,31.112114493640547,33.38139156714169,17.875824602757348,-133.86806432129197,18.3820979129232,26.10435682022944,18.10658818436059
2025-12-12 17:59:10.648509,Right,-3.2591398347576614,1.3253824570419965,1.756197739727213,-8.591998336654797,-38.54192021059498,-10.95634216209146,-0.23458719557675067,-7.542394573079946
2025-12-12 17:59:10.653528,Right,-89.13726979922649,-88.76021567884163,-88.16057108949462,-97.93588621571689,82.11353630544363,-101.25956959685573,-88.27072461719217,-93.56051066633518
2025-12-12 17:59:10.656536,Right,-76.18891377245745,-63.05591299087246,-60.36599836368259,-75.28089006913069,6.430471968700658,-78.11994822739507,-67.06150408723624,-72.08014663206268
2025-12-12 17:59:10.660531,Right,14.76489489148662,34.817183997780376,37.70698466198519,21.819328189456428,-119.10814570289585,17.767970153370698,26.92743460059137,19.882694156607613
2025-12-12 17:59:10.664485,Right,12.565185815445147,21.116947303096822,22.104852858174127,11.607666684933065,-55.56364401409519,5.578058766346658,16.979931102607225,8.892423400422558
2025-12-12 17:59:10.668555,Right,-82.63190790157387,-83.37572677947173,-82.25269854105863,-91.25884664152545,80.61336044336531,-95.97888785866962,-82.06985813254869,-88.81953173138754
2025-12-12 17:59:10.672638,Right,-96.18882461447356,-88.59785041795112,-84.28353150696785,-99.88124703335052,35.294847439057776,-100.30480893305503,-88.61192690756434,-94.42780039302306
2025-12-12 17:59:10.676569,Right,-1.622854012210155,14.11569326766039,20.587891745635716,-0.04024453218880808,-107.2781177247125,1.9516280093812384,9.688571182094165,2.6376250764660654
2025-12-12 17:59:10.680606,Right,31.79374074907537,38.62274887994863,44.149328289007826,26.252885905225412,-80.72100973605484,27.306993802158104,34.672567928006174,26.589278079220094
2025-12-12 17:59:10.684582,Right,-46.5780078900425,-49.64918966849655,-44.97397612300847,-60.11141817035241,66.24556260656027,-59.59373160063842,-51.05194606668374,-57.928904800108285
2025-12-12 17:59:10.687620,Right,-78.37658462142281,-73.58326872558973,-67.44675617203029,-86.36213811006746,60.750240205547016,-84.37886640318175,-78.06636988985701,-83.62341461265896
2025-12-12 17:59:10.692632,Right,4.118211549517582,20.1729634302028,27.454125948243018,4.9661234136801795,-84.98665128873472,7.154953051045595,9.937035089002165,3.4128490194198093
2025-12-12 17:59:10.696611,Right,48.270062215655344,57.68861733828817,63.86233856788749,44.80398036928091,-98.10186158109354,44.46839088151319,48.17830117451376,40.29565095929138
2025-12-12 17:59:10.700632,Right,-35.63185999124107,-39.169382625914295,-33.52243102261855,-48.55928499683796,43.11533002981378,-50.65845636410086,-42.72493399862287,-49.5030173266714
2025-12-12 17:59:10.704673,Right,-105.23262892919593,-104.73656268510967,-96.82051603728178,-114.85724373706762,68.18366543317097,-115.72166683289106,-106.5945344659558,-111.14303665597981
2025-12-12 17:59:10.708665,Right,-47.89046828724531,-34.43639944020106,-24.53010249826184,-46.61294339581218,-78.8063094226818,-46.143138171224564,-39.361872504188796,-43.45855029784434
2025-12-12 17:59:10.712615,Right,14.748365922278026,25.857545712446154,34.27631480158743,16.068753663006646,-132.55248976403163,15.579367978396476,22.059337241313187,17.382218258513603
2025-12-12 17:59:10.715623,Right,-39.83523868783959,-41.68883487216226,-35.82678937449964,-46.96713234598428,0.023091068022040417,-48.10730188177695,-38.77418534514436,-42.6388759574329
2025-12-12 17:59:10.720709,Right,-104.57348674772948,-105.5340885871774,-99.57876263434446,-110.59208271781245,67.49192644959112,-109.68400009661127,-99.33791479476349,-101.84811386731599
2025-12-12 17:59:10.724713,Right,-47.582388755705324,-35.38027454740222,-28.18410430123913,-43.45653055837465,-56.286105498791585,-40.68289017515053,-32.264507189262076,-35.40001221228886
2025-12-12 17:59:10.728717,Right,34.69765627853485,47.8979315334218,53.93692944422219,39.895682504014985,-138.16158440913568,41.117288434172224,49.68071384418727,44.821739397069905
2025-12-12 17:59:10.732743,Right,-6.460238736799511,-5.815320959314704,-2.074862095192657,-10.62647783018474,-23.49170231230164,-12.040056495301542,-0.13517767560551874,-4.637945963651873
2025-12-12 17:59:10.735732,Right,-94.32774702700408,-95.6503827162087,-91.59292571873084,-99.92125155128451,73.82660246461091,-101.30671794228692,-88.57898752373148,-90.75052135607257
2025-12-12 17:59:10.739735,Right,-67.65184403119929,-56.26270242755709,-50.10599912558973,-62.938565504904545,-28.556876815546275,-62.97502425310813,-54.1803713875197,-55.420776607687
2025-12-12 17:59:10.743694,Right,21.02897564644809,35.69358459660725,41.68410834554379,29.47876664080104,-139.75154777127682,28.801310600189026,34.57284897495265,31.880420859924925
2025-12-12 17:59:10.747774,Right,5.90571242988517,6.998702754928672,10.560910366315511,4.8027179072742,-51.73457425368906,2.788144079662743,9.93033082385955,6.020457626262214
2025-12-12 17:59:10.752766,Right,-80.65304530996218,-86.49542843813106,-83.78888744543292,-87.3591762681026,72.39667662181819,-87.95792438354692,-79.90223288434936,-83.64613630550593
2025-12-12 17:59:10.756718,Right,-67.44891645979806,-62.538447513841675,-58.55655177207154,-66.58651571119117,4.126996764094656,-64.40810836658784,-59.92165804938122,-64.16719612549787
2025-12-12 17:59:10.760795,Right,34.765903951883956,46.42735649108363,50.338148518112575,40.75570177834015,-122.81718637182712,42.52368850383937,43.328397793076874,37.29186078202474
2025-12-12 17:59:10.763773,Right,49.22192669220385,49.77615371160937,51.62180189933133,46.98938743415056,-63.31114284688738,45.23208779788547,47.16280443726646,40.69177676266554
2025-12-12 17:59:10.767788,Right,-41.48040222789132,-50.01531596120185,-48.60877979690122,-50.86138789062534,78.9479504476949,-54.84508152152557,-50.09254767050879,-54.53409490158083
2025-12-12 17:59:10.771816,Right,-65.37317156904464,-64.37167140400925,-60.745181720445544,-67.87852419631236,43.39413426270403,-71.82184018797852,-67.45267753136795,-70.2969627916973
2025-12-12 17:59:10.775825,Right,18.550527933824924,30.257106468659913,34.9882292293114,24.33882811953663,-101.15506827069112,19.31797329307301,22.394441849726718,18.64374848674197
2025-12-12 17:59:10.780833,Right,48.3270958127614,53.0888083264399,56.05040854120671,49.29648160743818,-84.55879711900707,41.534088932559825,46.957166545656946,41.962151320884004
2025-12-12 17:59:10.784836,Right,-32.59675952293401,-37.92256601790723,-36.151876213607466,-39.06986430981851,61.36056803069732,-47.42091450838052,-38.55527042241374,-42.98548030955135
2025-12-12 17:59:10.788858,Right,-67.68537014908725,-66.60127749950334,-63.28466958387435,-69.06248763004987,64.0822191509651,-74.54133792004723,-66.76553420617347,-70.57505786758702
2025-12-12 17:59:10.791868,Right,16.49128769510571,27.52663159155054,31.933611274740542,23.31847522528551,-79.58277825665573,20.574362054278026,24.24824777723188,19.22639110479213
2025-12-12 17:59:10.795911,Right,67.39202219393337,70.4837353008952,73.04793301085738,68.82372882068375,-98.46534769662685,66.55080574028034,69.2800053142164,63.27831038911245
2025-12-12 17:59:10.799905,Right,-11.183076772289496,-22.724913174377434,-21.89451844375435,-20.893598823000502,44.54986960424503,-22.433800602007977,-17.372032456249144,-21.701861398476467
2025-12-12 17:59:10.803897,Right,-77.67635776565294,-86.11729944555555,-83.87236168976597,-85.48408083142203,82.25346407177494,-84.61495228437343,-79.19045077036571,-81.07976032519218
2025-12-12 17:59:10.807869,Right,-12.773835631574912,-7.325459267285623,-3.0818579148253775,-10.262503932422987,-57.230706840862695,-8.451712373018381,-5.008284266663395,-6.791811723320279
2025-12-12 17:59:10.812945,Right,61.380543486178794,66.33306480127794,69.70933009812506,63.22958270275194,-115.29816150261468,62.63844948731639,66.67532816319726,63.6069428245537
2025-12-12 17:59:10.816967,Right,9.280927595405956,2.3201677862671204,3.999099610660778,0.950980125573551,14.459689877367055,-1.7109005631245964,5.734081940860051,2.9155826419300865
2025-12-12 17:59:10.819961,Right,-67.86638436481007,-73.63375968502805,-70.66081280234357,-76.81533469205533,87.88762465763284,-77.82455771597597,-69.82603152257798,-71.34505398767215
2025-12-12 17:59:10.823946,Right,-24.156821802851482,-16.16684971999348,-10.279406518191536,-22.91466610202042,-32.79851704883913,-21.26344393927866,-16.834392013013712,-18.715892760006682
2025-12-12 17:59:10.827985,Right,58.146056574521936,67.48914637450798,73.89579361426877,62.14905543888017,-121.06984823220773,63.36419595488769,65.96453220542753,62.438638466919656
2025-12-12 17:59:10.831970,Right,25.053138250590564,20.536725983452925,25.587154169668793,21.08396837833061,-9.449386548083567,20.038885509395186,25.332888068791362,21.71664074876753
2025-12-12 17:59:10.835994,Right,-58.4139409102354,-67.21257477728432,-61.81994111745371,-63.690008750574634,97.26887118111335,-65.20576100979815,-57.58525462655234,-59.95875695549694
2025-12-12 17:59:10.840998,Right,-29.57462425589256,-26.578372541483986,-19.516068201126473,-24.87037460217107,4.284717060818366,-25.648946147572133,-19.513422133997665,-22.595661951145303
2025-12-12 17:59:10.845005,Right,65.72329484995862,73.23857196331664,79.81326931447984,74.01439613915136,-110.03138936209143,72.3653535376252,76.96843828796409,70.7381072549615
2025-12-12 17:59:10.848026,Right,56.12264178298574,51.76637309639045,56.096262864317396,54.517348954865156,-28.48357920017952,51.37371851009084,57.42312592507005,49.08061377071863
2025-12-12 17:59:10.852028,Right,-37.47340486909161,-47.92005435571991,-43.61605401659472,-45.04834917838525,98.3025127402143,-47.17035849743479,-40.672614247796446,-48.39253531719805
2025-12-12 17:59:10.855982,Right,-41.05688924816968,-40.21982927332283,-33.54061976192861,-40.48708252781944,33.34784200802824,-40.04229567940274,-37.51563581795199,-44.4335381407509
2025-12-12 17:59:10.860049,Right,50.51248642129576,58.778631369772484,66.03614832674612,57.64497393984129,-102.91987203701501,58.298453416176926,56.68300500651458,48.96342226093839
2025-12-12 17:59:10.864062,Right,66.83908451119896,64.07813471001646,69.21950114961874,66.69913135271781,-56.76101219866905,65.3042933198958,64.16941012268035,56.27741114389937
2025-12-12 17:59:10.868076,Right,-19.644395074112253,-32.23119972137829,-27.677654479568446,-26.918811059302243,85.06359902076292,-28.795181862635218,-27.753895152443874,-33.33471914907204
2025-12-12 17:59:10.873130,Right,-44.95441110238244,-48.44816333864401,-41.262789637647074,-45.279185478255386,57.31657070316578,-45.86095682400264,-45.72069524761173,-48.68749035264409
2025-12-12 17:59:10.876083,Right,36.02872289261177,43.465758097812795,52.495722064120855,44.43529210289853,-88.95055695296833,42.919660562729405,41.2630870529465,38.931221546215966
2025-12-12 17:59:10.880154,Right,63.689677190426664,63.72509876653203,71.20206675179179,66.80298313947424,-83.23652014986146,61.5407699277348,61.69182641310181,59.56648383423453
2025-12-12 17:59:10.884139,Right,-24.603004407565095,-36.33796075969258,-30.773151058408985,-30.957990402648647,58.63216524040763,-38.24052607795238,-34.949191751475155,-35.40184425745974
2025-12-12 17:59:10.888188,Right,-71.90658129238,-78.13100988025144,-72.23306874630543,-75.11200599079893,65.82515755353234,-80.65164819062011,-78.24939228159928,-77.3776685787343
2025-12-12 17:59:10.892163,Right,7.512917083943648,12.945933720209723,18.89029593790292,12.526595710380207,-79.1060657590424,8.876735492782245,7.646358718218835,7.257898079544248
2025-12-12 17:59:10.896147,Right,66.24186433393152,66.59471676603971,70.01669892358404,67.30876122625159,-106.784834365586,63.1718619169842,61.141994261090076,58.74149803156979
2025-12-12 17:59:10.900092,Right,-4.2643497555382055,-17.4485941732255,-16.063289744368376,-13.37450856194846,34.69081231110613,-17.723944735460464,-18.02895016589173,-20.208264085922565
2025-12-12 17:59:10.903152,Right,-73.35667015674335,-84.53773487348735,-81.45348460770765,-80.44998035639037,81.26854756438479,-82.6249717809369,-83.91784310460935,-84.63579133755775
2025-12-12 17:59:10.908163,Right,-14.910664125785843,-13.5435636576658,-7.622638500602989,-11.244239650748568,-54.438171327277814,-11.703977928352288,-16.52990873460658,-17.506579650564163
2025-12-12 17:59:10.912166,Right,60.355383086997335,60.46277289023965,66.279203987232,64.35255738529395,-119.6195484774471,62.69174514631595,57.51856850075637,54.900285605162935
2025-12-12 17:59:10.916166,Right,15.265794208856732,2.330408982124027,6.305233467256585,9.54069336622615,7.281444428368559,6.80315795288152,5.012907165550132,1.8072965121373272
2025-12-12 17:59:10.920204,Right,-56.97398285003669,-70.26200532083931,-66.46837768549358,-63.804252729605196,90.7179387038268,-64.00769198564831,-64.92725355751372,-68.22990325654064
2025-12-12 17:59:10.924209,Right,-10.010873421172732,-10.272845798541312,-6.032648709892783,-7.529005655848323,-20.890714651806775,-3.9531414484135894,-8.547590585864782,-14.125627287925454
2025-12-12 17:59:10.928147,Right,78.24056737384632,79.60570309064315,81.8070388540259,82.16538970838451,-112.32886461345697,86.49163041546899,79.35012433835709,69.97895302835423
2025-12-12 17:59:10.931167,Right,49.94152964419368,37.737063647349714,36.82331628778411,43.79544178056335,-5.378222394119803,46.63073324427478,41.082967647367695,30.049528497536812
2025-12-12 17:59:10.935233,Right,-36.29976993760056,-52.454533525589795,-53.510419427971556,-45.595663398087886,106.64235742794699,-43.09372057901737,-47.67443185684624,-57.435325604486934
2025-12-12 17:59:10.940238,Right,-13.900166580494897,-16.972202265692886,-15.738025317382835,-13.205417935634387,19.391478931702295,-10.492487774770453,-18.03960560217365,-26.456441681288197
2025-12-12 17:59:10.944260,Right,80.03478341903747,83.08824723262296,84.62212192533389,85.76784280275683,-100.95017036134959,86.44312444611012,76.37755968241845,68.1321840493274
2025-12-12 17:59:10.948207,Right,73.50548924600525,64.64398912409888,63.79908195565213,70.01793496296295,-28.105460054090145,67.90152943089697,59.63068766334118,52.29643454440247
2025-12-12 17:59:10.952274,Right,-19.125732114310267,-35.89233991496212,-37.88813939341492,-29.631574659526905,102.21416093546759,-31.299478089817967,-37.24137833814984,-42.34477024299758
2025-12-12 17:59:10.955290,Right,-23.404741373268735,-30.06520962249465,-30.75006833480421,-26.981722436502878,47.0910494540185,-25.74401784226984,-33.041759983543216,-36.91855426911479
2025-12-12 17:59:10.959242,Right,70.22451635563175,72.08411560546517,71.77987221127974,73.52273994927327,-88.83487905776565,75.4659158214481,66.29413606842968,61.899753898959716
2025-12-12 17:59:10.963322,Right,88.19798544506011,81.16399333449567,78.95370794448928,85.68911792527888,-49.30887702241307,85.46954989116693,78.19635318275459,74.27664767314309
2025-12-12 17:59:10.968309,Right,-3.606205295781365,-19.16110785742029,-22.37353885848927,-12.04891324651453,93.32944741144638,-13.28585976019167,-17.849347114587317,-18.972052244134375
2025-12-12 17:59:10.972299,Right,-36.94709615739521,-42.9804493412862,-44.86469527956751,-37.92879424065177,72.42800859562885,-37.694348370290754,-43.474281003269596,-42.47894310524089
2025-12-12 17:59:10.976316,Right,45.597750947493296,50.79150765301574,49.167159295362126,53.5604436206022,-74.43987942698004,54.573724900823436,46.22108100108905,46.1389150927223
2025-12-12 17:59:10.980518,Right,85.43830069086835,83.17747366924436,78.65679453107145,87.9879831371336,-74.89498232775077,87.8554523011262,80.83207938822954,78.77983447231804
2025-12-12 17:59:10.983332,Right,5.676389029926213,-9.035369430747323,-16.50321051065066,-1.8082230196278033,69.91404194550887,-1.9271255467720039,-5.858475857469671,-7.548868487077229
2025-12-12 17:59:10.987355,Right,-45.582971599735174,-55.146885735131946,-62.987472817911566,-50.211699522898925,87.91723134998756,-47.866771374323434,-53.143601492007065,-53.33795287686257
2025-12-12 17:59:10.991369,Right,26.085656120707426,28.943309439096083,20.856040871759888,30.293629048372168,-55.34752282020054,34.09797273577533,23.991180107174387,23.379225119245802
2025-12-12 17:59:10.996317,Right,83.62183400924914,82.39112956137069,71.6782109875644,84.67267428243213,-92.78286750386724,86.7204768644151,75.11927385415925,72.80340050533687
2025-12-12 17:59:11.000332,Right,15.396600626479994,0.7619494357536496,-12.419757157005733,6.229420592018869,44.4879143233793,6.191403970926331,-2.449610904826386,-5.048267256880081
2025-12-12 17:59:11.004399,Right,-54.02235476012356,-66.63420452060382,-78.94727618066418,-61.41505798279832,98.134574322361,-61.23652719454367,-68.0379502906112,-69.96475406961827
2025-12-12 17:59:11.008408,Right,5.309876844454266,6.3557685997620865,-3.604496045972155,9.655125635666991,-34.32187743338909,10.341438396046215,2.5907893959852117,-0.11910743684984482
2025-12-12 17:59:11.011420,Right,85.22641667512835,86.44886263298758,76.9707162551249,91.99286087465771,-107.64386871573879,91.3100437459616,84.26868819054471,80.15563871207178
2025-12-12 17:59:11.015429,Right,37.8737635924208,26.1650646004764,16.426946938468063,36.6129310167471,12.729318653509836,34.85876892809574,31.186504162845267,28.0386649233933
2025-12-12 17:59:11.021435,Right,-51.25156007559053,-64.18405990022893,-72.03033841613069,-53.06606045336957,99.04351115226928,-53.14639982539666,-55.77716403784643,-55.98762294648259
2025-12-12 17:59:11.024447,Right,-23.10475576716999,-23.012143442418164,-28.247898350800824,-15.753313546500067,-13.040107708058713,-13.720187035125491,-19.12783285979185,-17.666364421375874
2025-12-12 17:59:11.027468,Right,60.940717964036594,63.801684278068024,58.37831998813181,68.9984590575641,-117.1602669278891,70.28139666335665,63.61122697448718,65.13932742185989
2025-12-12 17:59:11.032456,Right,38.215419576630666,28.15557679095855,20.809097380752064,34.429997536179144,-21.689382857358396,33.73746379272961,29.864845451933434,32.68263429413582
2025-12-12 17:59:11.036481,Right,-48.96542058030718,-63.45985520480008,-70.2945312189895,-58.12029722752959,92.71872156217796,-58.48897260729791,-60.49423627100805,-54.782599022955765
2025-12-12 17:59:11.039483,Right,-33.955095902065295,-35.60383069421823,-39.556731570426564,-33.93551439679686,11.583859511348237,-32.91934898130239,-37.3239209463336,-30.160860763722667
2025-12-12 17:59:11.043501,Right,58.909857156884755,64.24533290337422,61.49785825451545,65.50080362422705,-112.1773811295543,65.05037084230935,58.54752439731055,64.7896335342084
2025-12-12 17:59:11.047450,Right,57.58342444313348,51.89720381772531,48.16705429524973,57.633147848424414,-44.43629732829959,53.36624391666555,49.24109207451329,55.21050837905386
2025-12-12 17:59:11.051509,Right,-34.173320022951884,-47.53763395067472,-50.48483399509041,-38.89804416458719,92.17475444137563,-45.31842851773763,-46.419951057761864,-38.39601619222594
2025-12-12 17:59:11.055553,Right,-39.55153535508907,-42.330325606385486,-41.62435737442047,-35.918644397743265,47.72639702309152,-42.36335609386151,-44.61148069273622,-34.634223010592905
2025-12-12 17:59:11.060529,Right,63.15260088437026,69.88540179934716,73.37976215366871,74.03720522980439,-87.651600981505,66.53548074135324,61.74281472587336,71.66375405804865
2025-12-12 17:59:11.063546,Right,97.35961178266916,95.13747404052629,98.82704058190211,100.89486604290323,-53.19625181230458,91.26201433112874,87.21071180143554,97.00579484572336
2025-12-12 17:59:11.067555,Right,11.326894442507182,-1.3304174224049348,2.9804173600296053,5.601008714784257,92.77766398183212,-3.5451188962142623,-6.081191607931032,5.316871023387648
2025-12-12 17:59:11.071559,Right,-32.489336383370755,-37.63602879239261,-30.90540678539037,-33.86321018429226,79.39184880563425,-39.2493950954522,-44.56643695873481,-31.80065528597879
2025-12-12 17:59:11.075571,Right,36.00067461121762,41.63165542377101,49.165334037586945,42.18781166996814,-71.52809652207134,40.002178059497965,29.681343686261243,41.507671118857616
2025-12-12 17:59:11.079588,Right,67.491028953782,65.64926167440353,70.61736371648476,67.77034946868298,-85.18630900200333,66.50988894986585,54.74092273955284,65.15859218632795
2025-12-12 17:59:11.083591,Right,-18.88953929957097,-34.40628664822543,-31.506184098825543,-29.25405229927128,55.2477347044337,-28.98973840245526,-39.35790497447488,-28.470272450837
2025-12-12 17:59:11.088551,Right,-76.21256854616877,-88.0705436094413,-83.69174567052505,-83.47287818671248,80.35243262887548,-79.71318574928227,-91.14699074303462,-79.55961461064726
2025-12-12 17:59:11.091604,Right,-1.0910850845066307,-0.5804454782028188,5.744479652406881,2.5225332756926946,-60.02441887700343,8.408463950698206,-6.331751185878602,3.5848665335543046
2025-12-12 17:59:11.094621,Right,71.8568377218071,69.02105173732707,74.08997321424613,74.61288139331373,-103.2084836678419,79.11249637015862,64.01806725433562,71.38510614734696
2025-12-12 17:59:11.099614,Right,17.729480575380876,1.2532601262410026,3.925363983009447,10.362311934652098,33.81926413137077,13.363727440275397,0.8464067132135824,8.037787446144648
2025-12-12 17:59:11.103637,Right,-50.61694269968939,-66.26049941502606,-63.47906894547668,-58.77589171272848,97.6428375383332,-53.89034246703886,-66.80595288969198,-57.90793248952832
2025-12-12 17:59:11.107645,Right,3.177683582649479,0.38755790030700155,4.448536919127946,3.116965551613248,-28.74230122132235,11.191510693450255,-6.437380447934629,2.992977673511632
2025-12-12 17:59:11.113665,Right,83.71670991127394,80.76639443667409,84.07082557767717,82.73120762425242,-107.35013735291727,91.97171881445684,70.88523020719003,79.55274777691739
2025-12-12 17:59:11.116610,Right,41.87205798077048,25.03916396718705,27.05840600668307,30.239118939647597,9.575182745526718,40.14157144305136,19.22925952649166,28.39788868926189
2025-12-12 17:59:11.119677,Right,-46.16765919694808,-65.63283737127313,-61.79630709891353,-59.50889794849718,102.66328569203597,-46.68256292265869,-68.24999501241837,-57.31902320786685
2025-12-12 17:59:11.123678,Right,-20.129371633487608,-27.06071419221007,-19.607228582754033,-23.062833166201017,-4.81621216143958,-7.248634599960496,-32.180418021514924,-20.875364429302863
2025-12-12 17:59:11.127695,Right,65.57001893508277,61.78941429470251,70.22247693777717,66.2978872801832,-116.21891999099262,81.51002433826216,55.40271580243643,65.68555362192637
2025-12-12 17:59:11.131706,Right,45.246519261774665,28.197296676491533,35.010466329078554,36.68664382321367,-28.10690549716719,49.597633514593326,26.81188291291437,37.665358734368056
2025-12-12 17:59:11.135697,Right,-45.80326558170782,-68.54786931563103,-61.94166529760332,-58.47730779450285,90.76826184032143,-45.05511614556235,-65.42929262220423,-52.05290577186315
2025-12-12 17:59:11.139719,Right,-36.34487183533565,-46.63764726408044,-38.40838183377673,-38.93616481143181,15.986320303829416,-22.93339403943537,-45.58871853071287,-31.177054804949876
2025-12-12 17:59:11.143736,Right,59.56602374327122,57.36054820575009,65.24686760988334,64.48025030050849,-112.44943726320525,80.76285696655032,55.77776984042612,68.22078357049031
2025-12-12 17:59:11.147710,Right,66.73027894191182,54.3864557820998,59.30266659683366,64.91540787278063,-51.92676141158063,79.24255479935528,56.68503892371518,67.09994850225848
2025-12-12 17:59:11.150768,Right,-25.805946573396795,-46.44072801277434,-43.12261649007996,-34.1599972010481,88.50087860891199,-19.89460414720088,-38.51679514885291,-27.870415724984923
2025-12-12 17:59:11.154763,Right,-45.40394482143165,-56.41312078408919,-51.881751983401045,-47.07217088748803,50.97523079469647,-30.713650917372433,-48.67929821311009,-37.4010650033124
2025-12-12 17:59:11.159792,Right,42.00353723803164,40.79200787061927,45.688169519979056,47.917855768158915,-90.1026502815912,64.174530643053,45.99596095976085,56.374690443284635
2025-12-12 17:59:11.163781,Right,70.80391501576742,61.77076887725161,64.21826605198112,71.53709300439004,-67.61619341289406,84.25437162654634,69.40897349129409,78.92736928025624
2025-12-12 17:59:11.167735,Right,-12.113552269884167,-30.901001627116784,-30.629343190055806,-18.209635525745398,79.50747483376108,-8.51036084772204,-19.114717323041987,-9.02424730821076
2025-12-12 17:59:11.171805,Right,-48.836111742668436,-59.631817199870056,-59.26111268965178,-48.641218052427575,80.10865651411586,-39.09518561146251,-49.94672660626202,-39.947730847867206
2025-12-12 17:59:11.175816,Right,31.334666974629727,33.01542708680245,32.939608859756845,40.97716813050283,-61.93927990814518,50.81888440610419,36.963325225939116,44.55618788740685
2025-12-12 17:59:11.178829,Right,77.96184365656518,75.13856346971988,72.24169462198915,83.48100432768479,-75.52076004533592,92.4171712843272,78.63185114649059,84.08898293073435
2025-12-12 17:59:11.182854,Right,1.0502040796091023,-12.857840535589276,-17.586232774414384,-3.5765414556990436,69.93901502892913,5.599394952158036,-5.619131897947227,0.7623878203121421
2025-12-12 17:59:11.187851,Right,-58.77770484208122,-67.49429181699452,-70.28679843918144,-61.38535323542601,106.63377528335332,-49.78703474957365,-61.312844261829014,-52.78068911288574
2025-12-12 17:59:11.191831,Right,8.256644858549407,13.594170892465627,13.43841903748762,15.614728542666853,-31.160978273846922,28.18574427708154,13.893268680538313,22.730053461804346
2025-12-12 17:59:11.195870,Right,74.81648644849702,79.07281103443165,78.51460400775431,82.0960338844925,-84.18899238606173,91.88476688207083,78.03141943781884,86.39608566850075
2025-12-12 17:59:11.199867,Right,12.863830609179786,4.958680999414355,2.853856239338711,11.950877658098761,47.408378744352376,18.71236781495827,8.794113659325376,18.586432967247674
2025-12-12 17:59:11.203894,Right,-67.55111567029962,-74.30748642724211,-75.48678695803392,-67.10251959483503,117.87179325854959,-60.27464349769434,-68.42720008539982,-56.43594264629792
2025-12-12 17:59:11.206875,Right,-22.819976674616555,-15.950790962608153,-15.103774699135101,-11.87589285555805,-4.370205640490894,-4.520820236466534,-14.037699819027694,-2.238519780439674
2025-12-12 17:59:11.210911,Right,60.033351685053276,68.66861247714587,69.05413933555064,72.23433734734135,-90.08711813143782,77.017054490374,68.64021781934389,78.15957175813674
2025-12-12 17:59:11.215901,Right,30.38690651239267,26.715597664398956,25.155116247344267,32.45889421056199,23.162174243054324,33.62604713431574,30.53020763265522,38.793318091480614
2025-12-12 17:59:11.219914,Right,-44.40865539472179,-50.394351606106284,-51.68802749381757,-45.33248678423843,127.91651617804018,-44.94763410140877,-44.47005472864839,-35.90167138910692
2025-12-12 17:59:11.223939,Right,-9.216681432337282,-2.349632416124223,-1.7201104808482341,-0.9999029641803645,34.386468388926005,0.4107778965590114,-0.39493059972664923,7.587971519355051
2025-12-12 17:59:11.228003,Right,81.95980465624962,93.11303587841212,93.55830166890155,93.54120698217594,-76.31107416761733,94.42251056991881,92.2683211315325,98.33119277441801
2025-12-12 17:59:11.230996,Right,60.459730964099435,58.89757524724155,57.1355815457282,62.021393322913354,6.514282139152783,61.55494017735691,61.66677617429923,66.97136112340377
2025-12-12 17:59:11.234983,Right,-43.131211622589035,-51.48449638310376,-53.66949940404629,-48.146558106091106,127.05313351263976,-47.7562044765873,-45.53362899747117,-39.15991323022172
2025-12-12 17:59:11.239001,Right,-51.68534599430677,-48.816046112458935,-49.151496467497054,-49.71016493016941,54.27908000144089,-47.31396465856051,-46.478903943208934,-39.72286429455198
2025-12-12 17:59:11.242954,Right,34.380044253999586,45.87345383995125,46.03637862290998,42.14823609986888,-84.0230219171026,43.977023695193566,43.87374229080524,49.23733140339755
2025-12-12 17:59:11.247981,Right,43.27585229425131,46.37188682954911,44.87086365685718,44.2315342753609,-37.30622096886145,43.44342358391441,46.76648120876416,51.27997658841559
2025-12-12 17:59:11.251999,Right,-45.74327236488716,-49.74606112649235,-51.49679295121132,-51.05234214527991,101.25032286421629,-52.342002196613976,-45.15013805419767,-39.663129731550725
2025-12-12 17:59:11.255044,Right,-64.83674458884343,-58.80573273448317,-58.27258949787756,-63.55509910147521,69.3973139753216,-62.88033771505616,-56.48018078174573,-50.707426580465835
2025-12-12 17:59:11.259036,Right,27.091704528769696,43.197295358550036,44.8054933750318,35.59238274317249,-74.30012476850607,36.63303691694637,40.35176370164663,43.768365383759374
2025-12-12 17:59:11.263029,Right,65.69282388067586,73.6064669342104,73.11954825000794,68.10528860946397,-60.58731403750426,66.97075046670216,71.4627977836517,72.2213393254533
2025-12-12 17:59:11.267034,Right,-13.33458300971688,-16.89682723900478,-19.42924764163945,-19.471502597680228,86.75829350252752,-21.420960598057718,-14.565492403678945,-14.13080909985365
2025-12-12 17:59:11.271054,Right,-55.63823698567103,-53.25087207886827,-55.45818816185056,-56.96713045425895,95.55514912949366,-57.02552853385896,-51.41301129102976,-50.6731798079345
2025-12-12 17:59:11.276072,Right,20.91836975615115,34.607137762282946,32.27365778530839,28.99943688628082,-45.86496220574918,29.617177059662936,31.97527623679889,30.86645562285412
2025-12-12 17:59:11.280112,Right,71.3457292970088,79.44539544172949,74.0873291721,76.08831603508952,-67.40181949006728,74.20706994474858,76.99501222408799,73.16262605004158
2025-12-12 17:59:11.283084,Right,-3.808569407876348,-8.662943199278743,-16.92001154371974,-8.842616278066998,76.92184445707244,-12.814096788637471,-6.531645634320739,-10.885108575261256
2025-12-12 17:59:11.287101,Right,-69.14130915247551,-70.1365351093882,-77.60236987113967,-71.91299274206358,122.04583120537791,-75.54963038192363,-68.11480866922466,-71.03301228509736
