timestamp,label,FC3,C3,CP3,Cz,FCz,FC4,C4,CP4
2025-12-12 18:16:26.077464,Right,1896.2863209886725,2395.073534632494,2374.2151020769575,2061.0203547714746,1188.116416253651,1905.5863682003726,2188.88799441269,2460.9549282960047
2025-12-12 18:16:26.094546,Right,10210.107729132533,12894.494761912549,12782.757055042748,11097.643157467697,6403.698947954635,10259.774875198207,11784.090116279789,13249.79291327723
2025-12-12 18:16:26.097506,Right,23372.839128651864,29517.095697440353,29263.609499910377,25408.420862740582,14736.188537808612,23485.671664310878,26972.793847362514,30333.233554547387
2025-12-12 18:16:26.101513,Right,29158.826844694588,36831.650449365494,36520.46686075344,31710.20059450296,18655.98502517071,29299.60152082461,33649.082454058276,37856.28987883573
2025-12-12 18:16:26.105486,Right,19640.866828880222,24834.23407308413,24631.102474271436,21380.001261970247,13053.341532387618,19739.34384209179,22674.207362429457,25531.162000940647
2025-12-12 18:16:26.108554,Right,2149.3670443014416,2760.881738508382,2744.540323018795,2364.81438354509,1987.2554677013104,2169.477392815621,2501.861668366648,2836.7483464935794
2025-12-12 18:16:26.112592,Right,-10861.44808411185,-13689.399119612091,-13573.036806831078,-11802.473384718207,-6873.310763193425,-10902.792477245937,-12516.945067470893,-14087.92572441505
2025-12-12 18:16:26.116568,Right,-14058.54793084052,-17763.068623391504,-17615.284982614743,-15296.823929519975,-9416.26569583139,-14120.449266096693,-16226.478585219302,-18279.414087752404
2025-12-12 18:16:26.120573,Right,-10081.987687228306,-12746.739103422966,-12637.798367384006,-10966.445478629961,-6678.273630336218,-10128.173641321424,-11643.988548531837,-13109.676433516375
2025-12-12 18:16:26.125591,Right,-4422.0073050269275,-5574.047653475427,-5523.679468048387,-4797.793543052627,-2636.228903018695,-4437.467518701102,-5095.920244110515,-5725.988071402535
2025-12-12 18:16:26.129603,Right,-1261.0681157618528,-1572.6848794422112,-1559.5231829221593,-1363.0286519837682,-691.7942722895532,-1256.9610075194505,-1435.8324649662245,-1616.8626353396103
2025-12-12 18:16:26.133568,Right,-1841.9964590345044,-2323.397225409397,-2305.796015727101,-2004.1878439096035,-1372.7041126633412,-1841.8066739185015,-2113.923882167903,-2392.5067131145624
2025-12-12 18:16:26.136578,Right,-4490.194572377717,-5673.899537790334,-5624.638289255905,-4879.581419252558,-2952.656857730821,-4505.547777315951,-5177.349771265639,-5829.4066190148005
2025-12-12 18:16:26.140644,Right,-6236.959757374134,-7863.269804109819,-7793.915421714191,-6770.104288586066,-3761.6930896134,-6259.695438371622,-7184.874497483368,-8075.485090576229
2025-12-12 18:16:26.144651,Right,-5518.685944952536,-6952.532040511491,-6895.235059083672,-5996.257917063776,-3450.839945825981,-5536.741531544016,-6350.935381713556,-7148.677687267424
2025-12-12 18:16:26.148655,Right,-3535.8142400194192,-4470.141466332832,-4436.724661117652,-3853.8798586470075,-2567.2826167629682,-3548.260597658111,-4076.4280189559795,-4605.07009813562
2025-12-12 18:16:26.153650,Right,-2582.1985610451084,-3274.8936117517296,-3247.573247741442,-2813.252499400871,-1853.1978577000555,-2595.0488692246145,-2988.494747039047,-3369.189093499561
2025-12-12 18:16:26.157635,Right,-3280.497180409613,-4135.28196845518,-4097.1679279267555,-3558.570806844742,-1857.2607016945258,-3296.1999806034146,-3785.9910286210943,-4245.102662494406
2025-12-12 18:16:26.161685,Right,-4156.970945562003,-5228.7344235385535,-5185.495696352795,-4514.163360327599,-2437.3705057488987,-4173.983006990864,-4786.434377877624,-5376.530049596564
2025-12-12 18:16:26.164712,Right,-3847.952454550774,-4858.410186908324,-4823.50515512994,-4193.932627394446,-2696.8436044320115,-3864.8844608314103,-4439.265456385445,-5007.248618357466
2025-12-12 18:16:26.168713,Right,-2795.7682087852154,-3547.186381869251,-3520.902882377035,-3050.0118070930475,-2086.3463874584995,-2810.7809506237973,-3239.257974859327,-3654.66192687687
2025-12-12 18:16:26.172718,Right,-2342.728235320421,-2958.5115625540493,-2931.9377592874225,-2540.1955465339124,-1347.6236143995775,-2353.5146170472726,-2709.173005735851,-3037.211915326072
2025-12-12 18:16:26.178739,Right,-2825.8121116942493,-3548.8579372665845,-3518.692586553865,-3060.1339776376262,-1517.4934730758541,-2834.225111276959,-3250.0967193177203,-3645.8400526321493
2025-12-12 18:16:26.181745,Right,-3299.088770441129,-4160.02952193073,-4129.72505621484,-3588.7302559004165,-2242.678179027629,-3310.9248909694143,-3799.5835526771843,-4285.447338202503
2025-12-12 18:16:26.185759,Right,-2947.5858658088837,-3737.464557370753,-3710.117408096092,-3212.8402395504527,-2223.136515573482,-2964.0636072080815,-3410.3171773817157,-3850.3477726215497
2025-12-12 18:16:26.189836,Right,-2113.7437459426,-2673.661379483412,-2650.9722293419763,-2293.409090701374,-1301.8040719028795,-2128.693319154554,-2447.6958773642546,-2745.4282624479383
2025-12-12 18:16:26.192769,Right,-1734.3014840794494,-2171.009567092173,-2153.77538449259,-1873.2341049994575,-783.994925135572,-1744.0224777006079,-1994.268282485311,-2227.851574268425
2025-12-12 18:16:26.196805,Right,-2113.854679841781,-2657.3385798721574,-2641.843646002235,-2297.686146367225,-1344.0318492308725,-2123.3723292156355,-2430.2604598217877,-2738.560244444292
2025-12-12 18:16:26.200798,Right,-2582.9326235995395,-3275.1873693050584,-3255.4018092264887,-2816.9422980160452,-1944.5501531196642,-2596.5610111908754,-2985.629002723261,-3375.3212094914634
2025-12-12 18:16:26.204788,Right,-2369.693270624848,-3005.6705215777038,-2983.3963299962925,-2574.817907417426,-1546.482751363772,-2381.7710120262345,-2742.2889895242406,-3086.767152844928
2025-12-12 18:16:26.209812,Right,-1587.872982353787,-1996.9720785042737,-1981.7383102166932,-1713.8743103181478,-736.6119586002314,-1591.1372504523024,-1825.7760557744186,-2045.0653620032826
2025-12-12 18:16:26.213822,Right,-1111.8867758988636,-1395.6122686363524,-1389.1378945518518,-1203.7072189820465,-657.2022566452506,-1110.4546549400548,-1271.5436046975665,-1435.5858334839577
2025-12-12 18:16:26.217855,Right,-1435.3436627152842,-1825.2982220168924,-1815.8480244643288,-1565.3642499818234,-1188.8384360714117,-1439.7515683159,-1658.2931289811386,-1881.6241277937079
2025-12-12 18:16:26.221878,Right,-1972.8292937602382,-2506.3561860797927,-2486.658073697472,-2143.054205060471,-1345.3808993237326,-1984.487289409386,-2285.8019796726294,-2573.520663271658
2025-12-12 18:16:26.224870,Right,-1828.1053234927822,-2303.0541656009154,-2283.763178350404,-1976.0398070666706,-920.9936755072558,-1838.5303842391586,-2107.950030062697,-2360.345763824298
2025-12-12 18:16:26.228823,Right,-1056.3635528889718,-1324.3828813084401,-1318.2230741489911,-1144.2975695813075,-589.471220696927,-1061.4026101893978,-1210.9193791238358,-1363.3423836296424
2025-12-12 18:16:26.232877,Right,-611.0020159494597,-781.6808081662748,-782.7437671463704,-671.9659659994068,-651.3265265299124,-615.899740825058,-708.4708865341963,-811.3921877932735
2025-12-12 18:16:26.236901,Right,-977.7614062003559,-1249.6943159436341,-1242.9368883686839,-1065.479770254693,-742.1769509998849,-986.4975485815667,-1139.8515307173366,-1283.8708136387868
2025-12-12 18:16:26.241897,Right,-1476.27799462236,-1858.4341988791712,-1844.1494036396034,-1595.6780178389745,-673.3126404657378,-1485.4543615196599,-1704.3420178086963,-1901.7961955069331
2025-12-12 18:16:26.245979,Right,-1273.85750939243,-1595.3536089451518,-1587.8245252352208,-1380.984243902145,-631.6253742396948,-1280.8182954989607,-1461.5631828998448,-1638.1355608099839
2025-12-12 18:16:26.248866,Right,-588.3566780962283,-751.4754320639186,-755.0276820054278,-650.4843672495335,-590.4613647321821,-596.7103447385598,-681.7562313228846,-778.6658726328751
2025-12-12 18:16:26.252936,Right,-299.0290028885938,-398.707630463643,-401.833299861406,-334.55165903735906,-355.9860689576017,-311.0748666409636,-360.9299287071917,-410.093827271834
2025-12-12 18:16:26.256886,Right,-636.4673665912123,-806.1762443748303,-801.5322234998457,-687.9453017903725,-149.54931628488703,-647.7476229547174,-742.9460226263618,-821.03532287688
2025-12-12 18:16:26.260958,Right,-939.4853337383247,-1174.6060195348691,-1169.3023355434416,-1018.037284109334,-332.26913829374826,-946.4226637824322,-1080.1316169862403,-1206.7351672898512
2025-12-12 18:16:26.264961,Right,-704.7614746547188,-895.5172860905295,-896.6346827256493,-777.0581306856475,-614.3906397270039,-710.8551175919129,-815.9708846117137,-931.327348353574
2025-12-12 18:16:26.268975,Right,-245.9210861985921,-332.5777165790787,-336.0623663457227,-279.57600850088056,-400.87548165716,-254.8874358232133,-300.24542472383473,-349.25938050216064
2025-12-12 18:16:26.273991,Right,-104.71283670316916,-138.33393859659554,-138.98703360190848,-111.92488291661721,112.50895711377962,-114.07923841936281,-132.51777064381167,-138.2876420757966
2025-12-12 18:16:26.276999,Right,-290.4101375223254,-353.3549836144666,-354.401493700454,-310.99395205214387,140.39597918005893,-297.4366146418615,-332.9019844880095,-360.40968836063985
2025-12-12 18:16:26.280956,Right,-417.225370775559,-526.989786135382,-532.1363394405344,-464.0800247428124,-338.8730221752776,-424.79673443804495,-483.3459103089408,-548.5767972926842
2025-12-12 18:16:26.285007,Right,-292.20810870453715,-392.30089885549387,-397.88316343614133,-335.26228980050655,-467.7334886563185,-302.7651081236545,-355.0975525804097,-408.20534656534437
2025-12-12 18:16:26.289038,Right,-54.74815407482674,-85.41220994002651,-88.09495566610713,-65.0663003231748,34.168744535010774,-64.00057105187443,-80.47644548973767,-80.83755250222748
2025-12-12 18:16:26.293062,Right,101.47525845828932,132.46521861862857,128.8259085274767,112.16406798004755,370.7169546058285,98.13895259873243,115.47846089318045,144.64312313310802
2025-12-12 18:16:26.297069,Right,103.56496930107824,128.90741712701856,121.72459286655067,103.44663041821332,46.12722749034583,103.04567367068375,120.59106112396694,131.370908963494
2025-12-12 18:16:26.302132,Right,0.6752018103725277,-21.740398205496604,-26.96271758171497,-16.031851791747613,-297.1965741648164,-2.425033468636684,-10.567341935122386,-24.02397700480651
2025-12-12 18:16:26.305130,Right,-51.44652489843429,-81.16730101060239,-80.76876142571564,-60.78866362883127,-36.87883342632267,-55.21031040730304,-71.29280055864365,-73.73590568921645
2025-12-12 18:16:26.308078,Right,85.27617852203548,116.69214625490713,115.88893776889017,99.2714967396605,369.7108002106397,86.36042341613211,102.22459694875579,132.47527415232616
2025-12-12 18:16:26.313118,Right,319.1580469417604,411.25934261667135,402.664241354345,345.0516129791358,267.24409796562395,323.4907340128557,376.54039704317984,423.74971737228043
2025-12-12 18:16:26.317122,Right,392.39805361793697,478.0207044016279,467.4154684455789,412.9743434938173,-46.84417737433978,393.14674169999853,445.3904752427916,486.6370516555835
2025-12-12 18:16:26.321123,Right,255.4176391071078,299.6887521919639,296.01489074100664,270.3044650061606,50.17572935773205,251.76090508939842,278.2904851908165,312.5998903556965
2025-12-12 18:16:26.325150,Right,175.27940021096583,220.4073763337583,220.55872549320338,193.7957335826868,360.54150927202863,172.56887130661926,196.81045934624126,237.06133437099197
2025-12-12 18:16:26.329122,Right,329.47417799945106,422.40307749387284,417.1504899693682,354.75127850576246,311.53601277283815,328.60713536942785,382.72878016880713,435.88392906791705
2025-12-12 18:16:26.332101,Right,521.2450217388832,645.9876902513352,636.2857524930732,551.2893661672133,64.39375875975384,517.1804445560119,594.0895407478529,658.5855538765754
2025-12-12 18:16:26.336159,Right,506.7884852573043,622.2971190930111,616.6615222473047,541.5875063216954,176.57676468903082,498.4194114107522,570.2754786261648,641.7888137079717
2025-12-12 18:16:26.341188,Right,387.65992951535736,493.2474783442449,491.8823704874667,426.05553538992535,501.6890926286578,380.27941229980206,444.41097399554565,516.494160345319
2025-12-12 18:16:26.345194,Right,409.33064090576954,530.3368978714861,525.4545150620688,446.22264696014463,449.3505944753415,405.40935343693127,479.6763171549246,547.241943049914
2025-12-12 18:16:26.349153,Right,546.3344033838366,683.5573298931122,674.5249950124999,581.1169745824882,123.60049297110527,542.1966811425809,627.8940539745381,696.0513107007719
2025-12-12 18:16:26.353190,Right,595.794346596027,734.2024668453378,728.7876691973652,636.9523088459973,164.76051238767104,590.1335248690448,673.4238413779531,754.5752172639477
2025-12-12 18:16:26.356225,Right,557.5724535682821,704.904722400126,704.5482315433328,610.7266853082692,552.2824852833292,555.1564848690177,638.0727165022399,734.6592461224063
2025-12-12 18:16:26.360229,Right,593.0515642329701,763.716498068592,760.7940431109746,650.4379303881433,611.7702043256431,596.108850755496,692.3169150276808,790.816793264763
2025-12-12 18:16:26.364263,Right,684.1715348312282,859.2065814016387,851.3500327490037,734.8968815339031,247.64534386529704,687.4344795182697,790.5187505280483,878.9284841399058
2025-12-12 18:16:26.369253,Right,672.3138427861268,823.2694092625752,817.5263111348031,718.310197158542,126.37553604514687,671.4800773790921,761.6497150403447,845.2968359331135
2025-12-12 18:16:26.373205,Right,599.2602758433786,743.3763400880853,742.321753183729,651.6587345042499,465.55764547741273,598.1125986956176,680.932607635681,773.6733766764519
2025-12-12 18:16:26.377269,Right,660.2022924279445,841.0592681880808,837.426162755175,722.7852885066532,658.0530963687343,663.9084502042388,766.885033591534,872.5135253397748
2025-12-12 18:16:26.381292,Right,814.4177916907938,1028.448096740176,1019.0780891459435,879.8241731016315,398.29961257003015,821.180788231839,945.977238631167,1055.7160311447224
2025-12-12 18:16:26.384241,Right,805.9225122954813,1001.3481408159714,994.4402542564785,867.3682334180339,211.44929376459913,811.2200927833328,925.515627084882,1030.3663253237028
2025-12-12 18:16:26.388331,Right,626.1161443129531,784.921759989229,786.0590768390102,684.9001953228144,445.9661424885271,630.4536291058757,720.3577300369507,820.228369168588
2025-12-12 18:16:26.392354,Right,584.1070928867557,752.6504569315584,754.4148442992009,645.0008486413863,647.9140594688943,589.7083472041413,685.4310457541142,788.4146758221323
2025-12-12 18:16:26.397336,Right,793.4197085626656,1008.993344843504,1003.3076601553475,858.6102687650127,456.07244048878783,797.0175078700995,925.4304734895704,1040.8132317431737
2025-12-12 18:16:26.401356,Right,949.9516753032804,1182.696484517306,1174.0519227661425,1017.6963919176487,282.0025075657759,946.6556196340825,1088.2598405812168,1215.9202097523957
2025-12-12 18:16:26.405360,Right,820.6738028350519,1021.3869869748596,1017.6401863350766,885.5641842201585,493.0869444841519,812.6940160831437,932.7906859547365,1058.4782276386395
2025-12-12 18:16:26.409394,Right,629.4091150657041,801.0254359925166,799.1208815649152,686.1012911946746,687.2809624146903,623.2076224522898,723.5523880455876,833.1494867084548
2025-12-12 18:16:26.412385,Right,686.8682710344438,871.3576201120159,863.7723356833449,738.6541783383582,469.28337580227526,683.3973348855507,793.2376833278686,893.9981820365647
2025-12-12 18:16:26.416383,Right,896.6335788657889,1112.224531265092,1101.4409287960734,956.1281467337394,247.23099741223268,892.2704973280197,1021.9433297234355,1137.0294572395505
2025-12-12 18:16:26.420410,Right,944.9600313839037,1170.9997918494046,1165.2103480101796,1018.4323539616307,482.8030091241235,940.4936782190343,1072.6646269608755,1208.0626687594922
2025-12-12 18:16:26.424422,Right,802.2620559865609,1014.7401437000372,1013.3306290844921,877.803298610379,777.2321402240195,802.2833375522168,922.474325425108,1054.14077168738
2025-12-12 18:16:26.429417,Right,709.1164886798942,903.8543780046748,899.4552295345347,771.5407115340931,570.2908246653969,712.9401286068605,824.1469861904625,931.2718203425175
2025-12-12 18:16:26.433425,Right,767.3874032325111,956.1194160595769,948.275062528206,821.6843739746837,209.26458689849824,769.162761999527,879.6888428552775,977.555095479358
2025-12-12 18:16:26.437461,Right,849.1720108938171,1051.4484840238001,1046.1013643317856,914.5762012198102,361.06329426920274,847.8111884199316,964.0121010724688,1083.5591055055847
2025-12-12 18:16:26.441403,Right,860.8220910828095,1087.802939402056,1084.89432181546,941.054652568535,783.7184546695207,861.7204258105485,988.0270858273143,1129.7055647211382
2025-12-12 18:16:26.444410,Right,834.3363679610193,1066.5738944206387,1060.3087399472715,910.4204865593929,728.586572769389,839.5913660941878,969.465726452996,1101.66555421683
2025-12-12 18:16:26.448476,Right,788.6913703326136,990.5982206636108,981.6229937167373,847.695259997854,288.31805359222926,793.6772022547666,909.3998558741296,1014.6310254406417
2025-12-12 18:16:26.454439,Right,727.8651050768094,900.9000682547921,896.0539802762214,782.9762835516594,240.12616529333172,730.2375436256407,828.8461192683317,927.7303648602683
2025-12-12 18:16:26.457516,Right,734.8310273250099,927.5309956681449,926.5670046729501,804.8216239580652,655.2797322997358,738.7765434982721,845.6536264650058,964.4517612239579
2025-12-12 18:16:26.461494,Right,850.0554527933709,1088.320037817699,1083.1483394984389,930.7306330194697,789.4829331834335,857.5370527358027,991.8260525878286,1125.0601069262484
2025-12-12 18:16:26.466525,Right,918.2168078998802,1157.0473584162537,1146.462288488634,989.797176292399,425.5664335017209,923.94345919427,1063.345499089337,1185.2758168715518
2025-12-12 18:16:26.470529,Right,795.283610642422,981.1501079153968,973.8614576179534,851.7565770248184,222.52052026684396,795.6440552718705,905.507040978875,1007.6499412843259
2025-12-12 18:16:26.473561,Right,638.3949975272408,793.8954878143268,793.0989978360012,693.5529114945093,495.1167985412758,638.1287884528283,726.7800534171984,826.0424486628035
2025-12-12 18:16:26.476552,Right,703.7647649798309,895.750690044486,893.0892960570054,769.2080507017672,691.525920821703,707.6930948136142,816.0065941375215,928.5679611642845
2025-12-12 18:16:26.480581,Right,904.0206876185257,1139.8579834778793,1130.2740781062748,975.0465289761778,459.21782750467537,908.6641225341009,1045.0451400143793,1166.8265935997479
2025-12-12 18:16:26.484587,Right,905.341914224322,1122.8898780437885,1113.4604790032608,971.2018317603506,264.02888377191266,905.5901434344705,1031.8097162228078,1147.0043471402023
2025-12-12 18:16:26.489577,Right,676.1912439084845,842.4405538627179,838.9791009487817,734.0340538676828,461.9350652411231,674.7449354808778,766.9112280475674,867.0645288606174
2025-12-12 18:16:26.493606,Right,565.0763427203055,723.516514649149,719.5746633440722,619.9101811669534,635.5241224090569,567.673130926094,652.3480235432507,744.0671691610478
2025-12-12 18:16:26.496614,Right,734.3555377548328,931.2382340066833,919.9046521917917,791.9291009020526,428.922717530746,739.7722885378171,848.7529632649384,946.0061775599606
2025-12-12 18:16:26.500629,Right,892.2335461648181,1108.0130161781562,1095.0265424806857,954.7681066002697,243.32509903196478,895.0335901032668,1017.1666857091477,1126.0440619552974
2025-12-12 18:16:26.504630,Right,779.3113224045373,968.686347879353,962.8122192125302,843.7627402647631,452.36294118023943,779.722475774819,885.5039549510693,995.9056513772812
2025-12-12 18:16:26.508641,Right,582.607779028709,743.9664495056495,742.0836093567777,642.6395463019144,653.1270729069365,585.3908451102907,674.8659249795601,772.0294197609182
2025-12-12 18:16:26.512664,Right,595.9326101352926,761.0008581837174,754.6809593501966,650.0377090640832,421.68842512508854,601.1385173527524,696.1792859672569,781.8672383585945
2025-12-12 18:16:26.517664,Right,742.7725574192591,922.7860800350318,913.6188065208262,798.6813102136366,155.71379333059303,746.120372809819,851.1339473336702,943.8529994364362
2025-12-12 18:16:26.521691,Right,755.11021602666,935.3233367610956,931.0808452060446,819.5821871064836,361.0658765776898,756.8367055510171,857.7894139500568,966.1870521816891
2025-12-12 18:16:26.524684,Right,628.6411944995634,800.0615426015574,799.9589525180636,695.2047736844979,679.9985130624264,633.4047795332735,726.2124124619877,833.7114316823427
2025-12-12 18:16:26.528686,Right,568.9156189082423,733.0514853941277,729.7229364282684,625.2050171237206,517.366676880687,576.3413308286108,668.8626245246269,756.3304953873158
2025-12-12 18:16:26.532713,Right,613.488345904043,768.004600323271,761.5190052863909,660.0228073633043,149.17784837807994,617.1168133278843,709.7527462316211,783.8567885698285
2025-12-12 18:16:26.536663,Right,624.9768082798691,771.6876663722796,768.7509464711184,675.1033284638543,239.64744888612768,622.6971117965877,710.8289303054335,793.6382276632357
2025-12-12 18:16:26.540729,Right,581.914855711977,735.7705927450443,736.1382870009402,641.011383785517,621.6736726778909,579.7569712650729,668.9800219532335,764.5572296157479
2025-12-12 18:16:26.544744,Right,581.8563118188176,746.9057680494152,743.4704079582589,639.0621074375231,592.7151476754225,584.4498956190655,680.9415528327227,770.9609691116493
2025-12-12 18:16:26.549758,Right,602.5866368876304,755.0055378961843,747.7330156568205,648.6866812000517,197.97832302714232,607.4516672403552,699.6704183930997,772.7978428701172
2025-12-12 18:16:26.552754,Right,538.939927111147,661.529824434896,658.4536533401115,580.5827452397207,142.41018989490112,543.7654624877032,617.2464943855302,684.417686594883
2025-12-12 18:16:26.556712,Right,446.2233065313194,562.2952615865506,564.8503586275037,493.6790046322858,498.922702636919,453.80658939597197,518.6141355722211,593.1842405052157
2025-12-12 18:16:26.560777,Right,471.3723673247732,611.2276089291554,611.3201481750002,521.9823294219095,593.2229501873953,482.58872466441244,560.3237840387737,638.8932908170391
2025-12-12 18:16:26.564790,Right,561.1483481450705,710.8045212834841,705.6830016195308,605.7462522637798,254.73159752914216,570.4208344167564,657.6389758929145,730.0711358442204
2025-12-12 18:16:26.568808,Right,523.5305930734612,646.2182882333873,643.717639417504,562.2730897146976,108.6651269143913,527.1460948775057,600.1815560864052,666.4506960961735
2025-12-12 18:16:26.572821,Right,378.35122113279067,476.1703364379937,480.4104754443979,418.6225747775752,396.58125632157316,381.20699306600727,437.0963794114068,503.2969241858227
2025-12-12 18:16:26.577817,Right,347.57028820796404,457.2418168837903,461.11254161479883,390.4597602224676,540.8429860301549,355.31964406371117,417.05233869852964,483.3669584020972
2025-12-12 18:16:26.580846,Right,465.3131916167913,595.3990356588038,593.5606610564282,505.3384967878228,243.73850937292445,475.0378799182363,551.000336802681,614.2686064748559
2025-12-12 18:16:26.583853,Right,506.9207033875864,626.0054933485808,624.2690659840591,543.0357915558852,42.444074789003935,512.5920082832454,582.1276617592666,644.190046080621
2025-12-12 18:16:26.588917,Right,381.8128738121595,475.25489302538335,479.3206642729929,418.37407767178956,288.73059081076644,384.4726151744835,434.8041698607849,498.4604463868309
2025-12-12 18:16:26.592870,Right,288.615038812859,381.24672340229154,386.1359025570564,326.23524448205717,485.19005148008,293.3528806574177,341.3008010435151,402.7640924040461
2025-12-12 18:16:26.596925,Right,355.7544900821522,464.18701766687445,463.9263600598788,390.9418503976194,226.83051884616725,362.14232035994064,423.1828300768975,477.90497888287064
2025-12-12 18:16:26.600916,Right,422.0442676944658,526.918180771987,526.0194640081609,455.86520610563457,-28.329255597374868,425.9397138147615,488.2919427411398,539.9480579855153
2025-12-12 18:16:26.604896,Right,343.4981816218933,429.01029595849104,434.15279371244833,380.86713543185033,184.05542738176882,346.04703402286395,395.03485297132283,449.06159554584883
2025-12-12 18:16:26.608913,Right,249.8345434544608,332.4263468348654,339.97829888027627,289.3901885834057,454.87768127175514,256.04982313292567,300.59575287869666,352.9505735646235
2025-12-12 18:16:26.611933,Right,287.8658652676968,381.1780132938875,383.98167366418056,322.1821266170591,256.71396522427676,297.1592659187736,349.69206337223295,392.67375511524733
2025-12-12 18:16:26.616938,Right,346.54404434666503,432.46242387930397,433.1395619593095,374.18086547905114,-69.85755399323534,353.0148783100303,403.686013545841,439.8395796448458
2025-12-12 18:16:26.620890,Right,277.70101605309173,340.97463305061683,346.68963965272997,305.81560510769486,54.58473351818975,279.9458628607681,315.7378982405644,354.7425736002624
2025-12-12 18:16:26.624983,Right,185.47506783599965,246.22044517984614,254.62293788045645,217.6860117081087,372.2404886906734,188.03071636310779,220.10937355505303,263.34876406681724
2025-12-12 18:16:26.628968,Right,227.99013337574434,306.89587853790727,309.7166941703763,258.5099268548656,271.21250063338084,232.1429476486519,277.0746428287821,316.46968423051294
2025-12-12 18:16:26.631994,Right,304.34978196781594,382.3879845350748,380.1451119611738,328.100148391095,-75.92694461974315,305.80744699633215,353.4569231047062,385.35639752063435
2025-12-12 18:16:26.635985,Right,232.4003700276371,281.91377092013136,282.1879259137204,252.52086327283178,-41.7683662349591,230.15716017514933,259.3732623211108,288.4957657759078
2025-12-12 18:16:26.639961,Right,99.13961960398592,133.17860184563324,135.7435022261925,119.52261499431916,281.5468063856242,98.35857455630321,114.62849761266261,143.4532596464269
2025-12-12 18:16:26.645020,Right,118.65914723061724,169.36357105977368,166.3836384814931,136.9734515825985,261.08460241294233,121.4898370745359,148.29738554230426,173.55312815937214
2025-12-12 18:16:26.649046,Right,239.5532531531062,303.1698077691253,294.5304539996432,253.44717026839498,-85.75555650045862,240.9399722534581,279.2545708513353,300.6458863080479
2025-12-12 18:16:26.653010,Right,225.51196885621175,271.12057876598556,266.21913582168054,238.5785649837926,-123.57682965876302,222.18066179496236,250.24390225228854,271.9781561609125
2025-12-12 18:16:26.657116,Right,76.50385916687082,100.55458256136626,102.59946090832818,91.87894900800893,206.6636872862,72.72551819175715,85.36643244151492,106.75305604434106
2025-12-12 18:16:26.660123,Right,29.245388988463674,58.617348838131875,59.96360929077491,43.712387978623156,275.59026441321475,28.838326334254816,45.2442617425113,60.525815959321335
2025-12-12 18:16:26.664061,Right,135.38820542307803,178.27741899120156,175.07047686656006,146.16946233599447,-50.887089906900655,134.73997195111588,162.95059014402796,173.35065363161266
2025-12-12 18:16:26.668110,Right,179.11399526969763,214.1717216395773,213.14246027031913,190.1437036160496,-158.0014644274779,173.8902353339363,197.97826450696448,212.36008218105417
2025-12-12 18:16:26.672121,Right,69.81028705858625,87.39516291156178,92.8406492623617,84.0737482594559,157.21060086996295,62.88000529736746,73.6453940597712,92.81817615649197
2025-12-12 18:16:26.677109,Right,-10.64506706490647,5.0204952990752645,10.950925804441795,1.2452303795726039,292.33367523821653,-14.455038350250106,-4.183669488469604,8.530186713323928
2025-12-12 18:16:26.681070,Right,48.90431303170044,69.34736547718057,71.38305774662877,52.98856989236083,-33.017150416446384,46.60961227142252,65.28531453822507,66.50221596768824
2025-12-12 18:16:26.685128,Right,103.25578029692406,115.10939878958743,119.2021784382523,105.11730375816114,-237.67532641277649,98.2925642108894,115.01516484993044,115.78668512555305
2025-12-12 18:16:26.688143,Right,39.92898015369428,41.05148315092083,52.1445911200135,47.87504573352635,44.22682209138293,33.7446434032172,41.6488628461957,51.294552771083545
2025-12-12 18:16:26.692141,Right,-23.876926517637912,-16.88366618048167,-5.162141572567634,-13.424073340022005,270.9774225020665,-27.150024064350873,-17.694417043880094,-8.143614203261677
2025-12-12 18:16:26.696181,Right,10.96960098092677,25.09156933845952,30.064489673124626,14.00181358732516,-7.756123939790996,9.62537994136801,25.479887426656205,21.22151426988421
2025-12-12 18:16:26.700182,Right,33.90276685002027,34.448807401931845,36.462497016298585,30.575560901954304,-306.9004777283699,31.22844728839118,39.5997683267924,24.673762713966426
2025-12-12 18:16:26.704240,Right,-44.35411420103628,-59.6514755441458,-53.85489673714619,-43.031696411257144,-92.99753690281068,-45.70608075830387,-52.043977581255604,-63.66250894416589
2025-12-12 18:16:26.709235,Right,-101.95596650967491,-106.24958214280196,-99.83105961215915,-93.22668122133473,233.98174369891058,-96.24977630338981,-101.87178925098851,-107.7344630958396
2025-12-12 18:16:26.713244,Right,-41.299676365510095,-26.175747276109178,-25.50424466311233,-35.147482904663775,79.66909350000788,-29.52062065663631,-24.26233667397173,-35.10098781529814
2025-12-12 18:16:26.716220,Right,2.659572043165099,5.862966426589992,4.627700285811443,-0.36129364985390566,-258.86089688612265,13.975170868128771,13.039519305719296,-7.7325112709077075
2025-12-12 18:16:26.720222,Right,-92.87651500772336,-122.06177387505886,-116.82565531559521,-99.26756169262808,-162.01130549865775,-83.41840563635924,-106.71358649051399,-129.92207339775632
2025-12-12 18:16:26.724272,Right,-187.2713008300052,-221.84043251353432,-211.96655778339482,-190.3978688257921,167.16592027140723,-174.54519556032028,-205.44471620363765,-224.72816247871378
2025-12-12 18:16:26.728272,Right,-117.22497302625561,-128.08972285824711,-121.88753580584307,-120.01894415917923,103.15379827695142,-99.79265927497181,-116.83345992921386,-135.16161310457392
2025-12-12 18:16:26.732227,Right,-9.420701027964242,-15.889964464091463,-12.432913162163459,-17.19759655962116,-233.2960907589877,7.076098034711322,-5.397653804946458,-26.711483094783034
2025-12-12 18:16:26.737299,Right,-71.28784122643992,-107.88620187371271,-98.36160808301065,-82.60762199261808,-221.85505243916123,-59.22995502871345,-90.96788356057368,-113.84656332532177
2025-12-12 18:16:26.741310,Right,-214.6332379929081,-272.3099861416558,-256.1407524716051,-226.15363681809686,84.52221596115851,-203.75254665531975,-251.2441972126253,-274.3394992337562
2025-12-12 18:16:26.744323,Right,-202.22164974629413,-246.2196664379444,-232.22811882167298,-215.84728966355033,69.98745158540987,-190.66420847803238,-229.07474386385002,-254.07192490508896
2025-12-12 18:16:26.748335,Right,-69.50672508015123,-99.75661393406335,-90.23545594749157,-87.89100217101804,-272.45544068452,-61.79071399795066,-87.1335059236153,-113.2654197839729
2025-12-12 18:16:26.752343,Right,-61.84993761902297,-109.87415483330551,-96.95472889467783,-82.61241516489827,-324.0077347296101,-60.77123227651464,-93.95681401556067,-117.91486143042857
2025-12-12 18:16:26.756326,Right,-198.91740459411812,-271.83984803292697,-252.51103656522173,-219.77927402807836,-9.985761504620314,-199.4782785478892,-248.13109051815263,-271.9643674814288
2025-12-12 18:16:26.760367,Right,-249.29719635271613,-321.4969305104605,-303.27062075162394,-273.25755548482266,54.00983446611099,-246.31529517893068,-293.84855621161114,-323.80469786538015
2025-12-12 18:16:26.765363,Right,-148.51189504438844,-208.75570680866076,-195.9077166205061,-177.17442722302076,-275.76811554910637,-144.04035702303008,-182.00203601955582,-216.57123425615282
2025-12-12 18:16:26.769386,Right,-100.36557161522774,-165.26363216149002,-151.64523985385676,-127.822415159907,-389.8237308179123,-97.56373928490302,-139.3884765269595,-168.7995719379228
2025-12-12 18:16:26.772382,Right,-197.92755642893098,-273.76087211573395,-255.2846492465469,-219.04288377484772,-69.08516923166462,-193.7273206929076,-247.00767027700203,-268.92919457461176
2025-12-12 18:16:26.777416,Right,-269.37059597653933,-339.9966406539352,-322.86081002566425,-288.8470405247681,90.51989266956298,-260.39289436037143,-312.3734242306273,-336.94906019681366
2025-12-12 18:16:26.780427,Right,-209.59523762382014,-270.9842824554871,-260.098022736187,-234.02412656998058,-214.56948065834513,-200.17066471924045,-242.71145294740563,-275.6021217183079
2025-12-12 18:16:26.786374,Right,-162.32097961886757,-232.319835186383,-221.970810809682,-188.0855323321739,-421.80206140397786,-158.68326428347063,-203.0874739008359,-234.8724628464115
2025-12-12 18:16:26.789428,Right,-231.53002814747742,-314.1168663355056,-298.7062173470331,-250.72640330890135,-147.3354876609592,-231.71793194529891,-285.36566250502074,-306.8536193885666
2025-12-12 18:16:26.792457,Right,-288.5811591125821,-363.5757916619332,-348.3618208964035,-303.32451751598273,93.55920406831137,-286.0586063606024,-337.50130887926207,-355.50113918463467
2025-12-12 18:16:26.797510,Right,-232.06546480106772,-293.6453738468117,-285.22743015162996,-251.60933105135337,-158.9091299508509,-226.3948684349889,-268.81954740746005,-295.3165115554584
2025-12-12 18:16:26.800459,Right,-187.70022687714663,-258.07601203068043,-252.25149084901204,-212.8775335814571,-452.3018716141087,-183.29287035942252,-230.47790540805727,-263.7588921096467
2025-12-12 18:16:26.804472,Right,-260.96608313309844,-349.039277221309,-338.6706858453399,-283.2235107339511,-260.1507532615651,-257.6344954313827,-318.7381985889806,-348.0196076762513
2025-12-12 18:16:26.808488,Right,-321.4408708261617,-402.85832967588794,-391.04748238128377,-337.847813314409,43.40800968745316,-315.12717329422594,-374.6307818069181,-398.47433227396687
2025-12-12 18:16:26.812494,Right,-246.40102298316197,-306.32166636758484,-300.2503267400316,-263.9070846364484,-116.48947294498794,-238.18476642659516,-281.66312029390247,-308.3118583076284
2025-12-12 18:16:26.816527,Right,-168.62221131988917,-230.64387212871225,-227.62457784096478,-191.006191126653,-449.3628455975413,-164.17376201663865,-204.78658120785258,-236.51822762587108
2025-12-12 18:16:26.820539,Right,-242.38364712990006,-327.8934161718935,-319.99735792845604,-264.2856816959684,-348.2233311871096,-242.3121499417466,-298.05769194228924,-328.6736376735498
2025-12-12 18:16:26.825558,Right,-350.07655340613564,-439.71783851319924,-428.6602985605714,-368.16861826420063,-18.149212467571488,-349.25064540602034,-410.6360600878834,-438.49840512807714
2025-12-12 18:16:26.828570,Right,-307.35404582400224,-375.16245113973855,-369.5689550184179,-327.02787903678836,-81.12652982435247,-304.72154663695255,-351.481259159249,-382.33644781127805
2025-12-12 18:16:26.831566,Right,-201.54623835845268,-260.58240533375647,-260.4355360005284,-226.9557300734159,-410.53401552693686,-202.0786742157361,-238.89579032440088,-274.1867584855645
2025-12-12 18:16:26.836556,Right,-234.96744771522935,-312.2380102062598,-309.2431173554505,-261.5215098382032,-377.78888670302695,-239.79550081444904,-286.6275865069183,-320.77560083725257
2025-12-12 18:16:26.840564,Right,-354.7864431737398,-442.2708000144339,-435.19893173407763,-377.6608173257555,-37.809861909248866,-357.854776456923,-413.54848941077944,-445.1914350289153
2025-12-12 18:16:26.844529,Right,-351.3504207943042,-422.10105125728296,-418.4975528661744,-373.28816086397273,-25.533946818410186,-349.28443099962897,-395.17933265003376,-429.84435460722307
2025-12-12 18:16:26.848611,Right,-243.28797108103754,-301.08970925898757,-302.5195323920925,-267.33437330828747,-360.9733514978143,-240.89962583777378,-276.19313438551035,-314.77358191198437
2025-12-12 18:16:26.853612,Right,-238.42751254880568,-309.61647063470446,-308.31928452220745,-260.58539077156456,-408.8499095555453,-240.27082597772824,-282.66954051918583,-318.30016744008753
2025-12-12 18:16:26.856623,Right,-347.48647403047653,-432.26710395747796,-425.4706056988216,-364.23068609292386,-71.10331541646156,-350.8664233336458,-402.2682448379928,-432.86749773076735
2025-12-12 18:16:26.859634,Right,-368.39835204347037,-442.5887202846934,-437.464655114396,-384.75683736009523,25.00249859201722,-369.4778096981463,-412.01687630754896,-445.29647364933044
2025-12-12 18:16:26.864643,Right,-265.85208221076755,-327.66638355131727,-327.45217375282664,-287.39944910182385,-299.3413673109608,-266.40438784332946,-296.34504382655723,-336.79414446494775
2025-12-12 18:16:26.868641,Right,-236.15390854055295,-308.8524566292763,-306.21112777868984,-258.53645067685284,-436.2524337489449,-238.52315748884575,-273.96710343973245,-315.03442331729457
2025-12-12 18:16:26.872674,Right,-338.28842423140304,-424.41084738262,-414.8913309845957,-354.1790761772427,-126.41461637889734,-339.20268223871244,-386.79756850970443,-422.9482712117024
2025-12-12 18:16:26.876680,Right,-382.94852724007796,-457.9332078776788,-448.83174215629697,-395.0240753443213,54.17875760863535,-379.37457238300703,-422.20591795363,-459.12275306816446
2025-12-12 18:16:26.880686,Right,-286.7795792897232,-345.2938962163753,-343.3967650744016,-303.5639735077275,-230.84871058925637,-283.4401272594114,-312.8640272344928,-357.21532794839004
2025-12-12 18:16:26.883697,Right,-228.03999645641306,-295.70118987362366,-296.29061495210044,-249.96193168859463,-449.61252458629315,-231.3106645119842,-263.33735975815216,-310.9508329947712
2025-12-12 18:16:26.887724,Right,-312.5377312251949,-399.186043716094,-396.0877562040114,-332.79236441035755,-194.77372624582495,-320.26541337009985,-365.8101822309545,-409.6144066407578
2025-12-12 18:16:26.892719,Right,-375.64554391085403,-456.3633946815389,-453.72401592409005,-393.1533873162698,57.85877394059207,-380.9500559500884,-425.6268817076925,-468.10654049919685
2025-12-12 18:16:26.896676,Right,-291.7419880811358,-351.75304701254936,-355.5383507507504,-312.18967568094376,-159.11674000576022,-294.1201681708335,-325.338169742492,-372.7160494206473
2025-12-12 18:16:26.900735,Right,-212.25664860999677,-273.3636822004919,-278.99330690293573,-236.3088969119126,-432.8429614782508,-216.47571338096168,-246.83060443366412,-296.7355942282011
2025-12-12 18:16:26.904761,Right,-284.7963107114192,-364.8576044391375,-364.74414336757036,-306.3579496598104,-246.9247463819047,-290.7988082576776,-333.98896449431777,-379.83835721958894
2025-12-12 18:16:26.908781,Right,-376.225029404799,-456.8339140142198,-454.0250433009933,-393.9468414778239,51.36218674806878,-379.26025216508424,-423.9008348521893,-467.007411293569
2025-12-12 18:16:26.911779,Right,-318.4107542047277,-379.79786486097146,-382.0707870058832,-338.24377256276784,-95.2672885642387,-318.5458694350673,-349.10411592538003,-395.0273775769747
2025-12-12 18:16:26.915790,Right,-220.13030490389792,-277.54416366212536,-282.7319821573328,-244.04040867905132,-407.17921391900745,-222.72660300234566,-248.66996437578928,-294.95329850463895
2025-12-12 18:16:26.919812,Right,-264.6446467360947,-339.3184614201309,-339.1477940485929,-287.25119329511654,-292.3516408550495,-270.7892910739756,-309.61233262042515,-349.256427626824
2025-12-12 18:16:26.924805,Right,-371.5525990636088,-451.72776767163305,-446.9861350051942,-391.22261396981776,40.16769778894377,-376.0674412540393,-421.84445862675784,-457.036639454891
2025-12-12 18:16:26.928837,Right,-349.50637866859324,-413.7149503445253,-412.5821361003909,-372.4730167493108,-31.41812051672605,-349.98909420642303,-385.60576722823316,-425.56208151753526
2025-12-12 18:16:26.932845,Right,-248.8884728755802,-306.0705661519314,-309.04864789929707,-277.7699400274432,-374.3822065676213,-249.23290534236003,-278.4949801347102,-324.0068558034254
2025-12-12 18:16:26.935850,Right,-259.7638184817042,-330.6770643010386,-330.4157921379665,-287.6085026237997,-343.81697402943973,-262.0850800467306,-301.56615502369823,-344.17863128578756
2025-12-12 18:16:26.939872,Right,-355.5401363581768,-432.0667183222831,-428.1292749135755,-377.19935947615886,12.312791126634693,-356.141890683386,-402.88199044938665,-440.6066573110875
2025-12-12 18:16:26.943855,Right,-349.5247410577722,-409.99968755838927,-410.51554936007597,-370.2762641599984,39.065042975824326,-346.9336877852911,-383.2146197417751,-424.39213637274224
2025-12-12 18:16:26.947866,Right,-249.080416275654,-300.45814135205,-307.2660862785997,-274.7756893815822,-304.88905568022165,-248.626364346419,-274.9042957764468,-323.1089322301559
2025-12-12 18:16:26.952885,Right,-238.35316345456522,-303.87601637409534,-308.878415010171,-264.79956638265867,-370.9709133331198,-243.46279865101678,-277.3098141042865,-324.55646564089693
2025-12-12 18:16:26.956896,Right,-326.84130434459075,-401.05610730848275,-400.86418409785256,-347.58431954839034,-31.36524859140627,-332.5895517539466,-375.456911540532,-415.9489024017239
2025-12-12 18:16:26.960935,Right,-331.4087216996122,-388.3353595021181,-390.21331411530264,-349.4809246439254,84.10166256132652,-332.5792425578693,-367.2242446905584,-406.80530899285804
2025-12-12 18:16:26.963933,Right,-228.35964727419196,-270.0344982435927,-278.2110089075286,-250.60748842632165,-234.4945923667692,-227.6734436462284,-251.71673276869114,-296.444589043851
2025-12-12 18:16:26.967942,Right,-206.88530799077125,-261.64050313283224,-269.5291490305681,-231.74755295953946,-385.48354786177515,-208.97938324749703,-241.05424591474002,-286.3019657167606
2025-12-12 18:16:26.971905,Right,-312.86517426226055,-384.2896118775243,-386.97782659891527,-333.9976208899752,-78.81926104141166,-315.95756284869276,-361.15176293591503,-400.6310516957892
2025-12-12 18:16:26.975957,Right,-352.45942008239217,-412.71404701611027,-416.1589007950388,-370.73695165128447,125.57949865059345,-352.9567170894006,-391.6823159378255,-428.739053167752
2025-12-12 18:16:26.980973,Right,-247.47198086051503,-288.16195592295844,-297.8686260476243,-268.92310266691493,-135.19279141686275,-247.81947625020985,-270.4916010063025,-311.11320567992516
2025-12-12 18:16:26.984980,Right,-183.02579262724612,-230.5165410990594,-241.0149033004418,-207.26331833889708,-356.2767262714624,-187.3010600155103,-211.71612542227376,-253.6390776267508
2025-12-12 18:16:26.989012,Right,-266.94345459138276,-334.0753230092814,-338.9993995089317,-288.10591853625374,-117.56117606264888,-272.4605203738902,-311.60997355467407,-349.9902300470276
2025-12-12 18:16:26.991973,Right,-330.94814857206075,-393.8760021715425,-397.85176319873426,-348.9437310825451,132.39275322694448,-332.377196676156,-371.4722110670409,-409.08398461865727
2025-12-12 18:16:26.996013,Right,-244.27225777041167,-286.3272544682259,-296.38937751215417,-264.75488064892124,-74.39368859140086,-243.42320443096105,-267.45169205829734,-309.45966595981736
2025-12-12 18:16:27.000054,Right,-158.2301160527859,-199.54759927722625,-211.99786814546678,-181.4438945360016,-343.451991973212,-161.3217634690809,-181.8020309373387,-225.50946501654107
2025-12-12 18:16:27.004128,Right,-226.4901680019684,-285.8206716668792,-293.0449211690575,-246.35159363306593,-159.51689993293257,-233.48457312613027,-265.9343643638422,-305.64136227278505
2025-12-12 18:16:27.008118,Right,-319.2297352454043,-379.6999657903798,-384.2371396702947,-334.6698789357324,142.07738340026117,-324.49293508875417,-359.3024974958971,-397.17729676445015
2025-12-12 18:16:27.013142,Right,-262.01512232807,-303.35292813251726,-312.9786951241549,-279.1484454089077,1.1307714598660823,-264.5433395942673,-285.12843156501185,-326.66191094066016
2025-12-12 18:16:27.017064,Right,-156.69115667027654,-192.45543727488257,-205.59635512181558,-177.32547441625502,-314.77797698113136,-160.7650722138933,-174.73865068721352,-216.6596422593575
2025-12-12 18:16:27.020101,Right,-190.09979074803414,-241.13814300857484,-249.94287473231088,-208.12004851090023,-207.84898683289066,-195.76477496884763,-221.16094132635044,-255.61581641773228
2025-12-12 18:16:27.024113,Right,-288.3120806282968,-343.86515736440197,-349.04099848645274,-301.1342389805359,128.74808928155107,-290.28597898740554,-322.9704730528756,-351.9913601616863
2025-12-12 18:16:27.028095,Right,-257.64804810885107,-297.09024947742,-306.6308151531266,-271.4168919905205,67.95520493542426,-255.2359211690491,-278.07763616158627,-311.5367843239801
2025-12-12 18:16:27.032128,Right,-144.24470895325067,-176.96834076056257,-191.2337742089294,-162.6790208609309,-278.3792355301848,-143.8090129729244,-159.22167829814134,-198.3895906273974
2025-12-12 18:16:27.036128,Right,-143.39611919701565,-190.65980198816396,-201.72107239847537,-160.8643200584338,-265.4220437669137,-148.19178418337833,-172.50559144833824,-208.10193231177982
2025-12-12 18:16:27.040127,Right,-236.83590471028583,-290.3062257055426,-296.57738894980866,-248.81192819745047,81.2983918878308,-242.1068357572076,-273.56751925253775,-301.9200117327273
2025-12-12 18:16:27.044147,Right,-236.35220208228566,-272.8227329265792,-281.5243698747363,-248.03318612050498,114.09179045978817,-238.03182309417753,-260.1672941800207,-288.8282251104247
2025-12-12 18:16:27.048161,Right,-141.93709822715027,-167.22716360114282,-180.27146158006508,-158.94422377389856,-226.05185852621798,-143.14954281126847,-156.88276578485966,-190.3724390824791
2025-12-12 18:16:27.052169,Right,-136.6826692695031,-175.39823055651505,-185.52336657221895,-155.01762050343677,-298.9361632625805,-141.2397307009669,-163.53671510185814,-195.59036142239347
2025-12-12 18:16:27.057122,Right,-232.15292532689637,-281.40971308917506,-286.1629828418372,-246.00050581106916,38.32134173542727,-237.94975441141287,-268.62852683255915,-294.435674029286
2025-12-12 18:16:27.060176,Right,-239.36244881054154,-273.5448248977191,-280.81328535533976,-252.18268987286137,163.90865129904705,-243.64204461034387,-263.5381607916206,-288.6111513210926
2025-12-12 18:16:27.064183,Right,-124.94117992266547,-143.78698323079152,-157.96115571825067,-143.15926535322797,-148.54605111380806,-130.3611619330477,-136.12548419309314,-165.6146023881156
2025-12-12 18:16:27.068207,Right,-80.79922617360717,-110.98190743022133,-125.1848576074699,-101.69416349078529,-310.85582830634667,-89.75721387547674,-101.34473548433743,-130.33054181258194
2025-12-12 18:16:27.072221,Right,-170.01055075076874,-216.13084083236754,-224.91378868673928,-186.12894466082798,-21.361843175633112,-177.99155287025496,-203.9825828783214,-226.9337701558252
2025-12-12 18:16:27.076272,Right,-209.97916308557615,-245.72926337609533,-254.6512885389384,-221.81673603592208,175.40563244599616,-211.80242387764156,-235.35685043456033,-256.76174216350773
2025-12-12 18:16:27.080256,Right,-114.83394759363728,-131.32344653789187,-145.87827173958067,-128.7310408501653,-86.97580481739715,-113.45474771800218,-124.12028389878105,-150.28557587473188
2025-12-12 18:16:27.085258,Right,-58.586456744000316,-80.5723715252825,-95.42867475026287,-74.51495745324064,-310.0643810585316,-60.23981367441593,-72.53352403861936,-99.91115871747024
2025-12-12 18:16:27.088270,Right,-149.93307099083904,-189.79557702550665,-198.51320816250518,-161.95036725705722,-66.27030612129602,-153.73586713901022,-178.580601381429,-200.36642532446422
2025-12-12 18:16:27.091253,Right,-223.4599923270871,-258.18097585998476,-265.196315150999,-231.30931173439603,197.54163621724,-223.57798932067817,-246.65399436611915,-265.2800631787977
2025-12-12 18:16:27.096311,Right,-141.89532282110304,-155.61308577092132,-167.95700454205507,-151.57543335400987,-5.094477377278963,-137.89290782017633,-145.6914664778742,-168.06238059757743
2025-12-12 18:16:27.101301,Right,-50.51772392215207,-63.53612109326059,-77.73489415663062,-62.823708079289645,-289.8334493309085,-47.33272523019696,-52.26716800505528,-77.01808753516525
2025-12-12 18:16:27.105303,Right,-108.94653591036331,-139.6951432248461,-148.5135606319527,-117.85232332313899,-120.81622356935986,-107.40681319870055,-125.06217992329039,-145.69841073459247
2025-12-12 18:16:27.110324,Right,-197.6435084278346,-228.85081014892785,-235.34440847922815,-201.88395544001833,186.87016471714014,-193.73024132300634,-214.60534482670482,-231.9852066807216
2025-12-12 18:16:27.113314,Right,-143.19285968283657,-154.77316437504487,-167.19962757709436,-149.25863584125182,58.71398852544371,-137.2059949519462,-145.18202765460592,-165.3717340939911
2025-12-12 18:16:27.116339,Right,-39.923968335962854,-46.30138950428227,-63.142751578532625,-50.52456373133464,-261.94124994118465,-37.492819168488495,-39.86996431264561,-61.724536723748315
2025-12-12 18:16:27.120346,Right,-69.6354861590662,-92.03802068933146,-104.96509654918918,-79.08885296538938,-169.20171225536615,-72.0050671910285,-85.05283956497442,-101.74332007550402
2025-12-12 18:16:27.124298,Right,-160.89285899332026,-187.56211606092984,-196.78264342690818,-166.1271298811771,169.68995537026785,-162.73633970471565,-180.47423992090626,-192.76720832579304
2025-12-12 18:16:27.128376,Right,-125.35078371403506,-134.51391061855247,-147.92690030811355,-131.83695702446857,125.79338823410217,-124.4939620171208,-129.60822328733047,-145.776595370844
2025-12-12 18:16:27.132380,Right,-12.043102863826789,-13.862187747086864,-31.79293602076359,-23.302005806704983,-214.91152243106626,-12.892118210380431,-9.595620967505965,-31.127571816265117
2025-12-12 18:16:27.136405,Right,-14.920178205589764,-32.99027453240706,-47.17105569841806,-25.268817383155692,-212.44985013105907,-19.23291375784902,-26.3769563328824,-45.483052337542176
2025-12-12 18:16:27.140439,Right,-110.0031336718821,-136.91585242043948,-145.56621322507272,-114.51271452073706,129.98713002170552,-112.70182048744755,-129.3641723181936,-143.04360177804483
2025-12-12 18:16:27.144430,Right,-103.84173739427933,-114.4234711304889,-125.2353727009613,-107.20948588638566,173.9084259122028,-102.12126999814063,-109.50761349051027,-124.42977442074334
2025-12-12 18:16:27.147435,Right,0.3622891965205781,2.512785248225555,-13.164064440876245,-7.409444300108589,-157.2705280382943,1.6701267901225947,5.633644038753118,-13.997587112011388
2025-12-12 18:16:27.152449,Right,8.51217872928828,-1.856845301517751,-15.388944216829259,0.24130840506404638,-234.26264291474945,5.977351803332567,3.5773267804761417,-14.74534246843541
2025-12-12 18:16:27.156467,Right,-96.76660236757016,-119.04765958938515,-127.37739518971648,-99.31649295875104,98.92679282830795,-98.09170729841571,-110.77875803178176,-124.09623871889198
2025-12-12 18:16:27.160475,Right,-117.221400235896,-125.98430061410181,-136.21400566521334,-117.03027138748439,230.6899118727306,-112.4469752931036,-118.33955018728739,-132.55938718898688
2025-12-12 18:16:27.164489,Right,-5.9123361224192195,1.2340536679257639,-15.072846944909543,-10.181712412042543,-75.45764235730167,0.35273038782179356,6.9631999732228,-12.573139915592037
2025-12-12 18:16:27.168434,Right,43.39400185080012,40.642255947284866,25.07828694622731,35.387821993324906,-238.6345484550402,43.97670779330656,46.604229678050615,27.53530623402912
2025-12-12 18:16:27.172497,Right,-46.641596599074546,-65.62943836819613,-74.68134966294747,-52.217135615006555,53.50495425291592,-50.34645576958428,-59.10038256429834,-71.73832295835018
2025-12-12 18:16:27.175446,Right,-96.57152353756828,-106.79409991577268,-114.51052486168919,-99.63228314294247,261.683137955697,-98.3044348366966,-102.3159393867827,-112.58441179845249
2025-12-12 18:16:27.179522,Right,-6.271239497815259,2.499213485745713,-9.620340261142701,-11.83746261318447,4.78967199359613,-5.663897612248547,4.885688003676478,-8.72596157976659
2025-12-12 18:16:27.184546,Right,61.2013464391639,66.18058577692136,54.220578943553846,53.72924693391542,-227.97909647885535,59.83983095138683,70.28603502432816,57.02209916099673
2025-12-12 18:16:27.189597,Right,-11.320714799163397,-22.72889624518575,-28.75631470559165,-15.148159307311289,4.835256547856261,-14.636122889787657,-15.871374655049294,-22.69405618845485
2025-12-12 18:16:27.193572,Right,-75.64551567990566,-82.43958088301588,-87.22070198785514,-76.44803012293414,268.8109524422034,-77.44921099630301,-77.17407109439955,-80.89326574950246
2025-12-12 18:16:27.196596,Right,0.8596922271535732,13.35001268639462,2.8827559445635416,-3.6479731087456457,67.1602131734544,-0.6224394888267852,14.285953806451289,6.764213588030543
2025-12-12 18:16:27.200592,Right,83.2130914524314,95.474156614393,83.27269113529474,74.37342197878752,-226.6583889653557,77.70039645014913,95.32606326817768,86.58552987739677
2025-12-12 18:16:27.203592,Right,20.429025636200095,15.426629993628012,9.623177833564114,14.45213174939272,-64.41472580164555,12.31402448535664,17.407036613032687,15.283027487981599
2025-12-12 18:16:27.207570,Right,-69.90564276446821,-74.55748037752346,-76.27758646549773,-70.60913737717783,252.49017903163622,-74.50118945998838,-72.6060285361018,-69.31741461879574
2025-12-12 18:16:27.212663,Right,-18.722868565353565,-3.839044974913122,-9.999066708405735,-20.49905072225374,135.73445141440607,-19.399934358894825,-4.766857395879924,-4.477796119637787
2025-12-12 18:16:27.216614,Right,80.24144456148497,99.0139449016715,88.73253763394314,74.18604021554347,-191.7849194985174,77.15567914911662,96.96282235873514,93.29303863403038
2025-12-12 18:16:27.220628,Right,46.537807331827935,47.66784807862132,40.56610332377022,41.84303759838804,-114.84329677125788,38.680922661646036,46.77622330718441,46.34484647429781
2025-12-12 18:16:27.224599,Right,-49.61131977714831,-52.950526922155404,-57.168774440244306,-49.23930318807834,223.4254011126468,-57.25515214537154,-55.20906178688165,-51.050345919735264
2025-12-12 18:16:27.227652,Right,-19.455825878627365,-3.399966941884486,-12.155821332708001,-19.12533341225935,191.16882281799917,-23.976381162035977,-10.315034678555094,-8.520532810507575
2025-12-12 18:16:27.231608,Right,90.05168434605002,115.4859825457097,102.27104600143502,86.12822179900832,-149.19962620591104,84.9873244969931,106.07860796275781,103.54935509915231
2025-12-12 18:16:27.235670,Right,83.5027559864393,92.29920105953352,83.18426642654231,79.88794794760179,-159.0975257401151,75.74257074284833,84.62394907750422,84.64360031014076
2025-12-12 18:16:27.239690,Right,-17.043831440765643,-19.36892131032073,-22.36958021041937,-15.62214917462552,180.05525177679374,-23.40223283227533,-26.23529033845989,-20.69024094636552
2025-12-12 18:16:27.244709,Right,-13.296423384948866,-0.582649919524556,-5.235548527940409,-10.741393142699962,232.9935490948992,-15.629008932650322,-10.640880787424976,-5.786527546471916
2025-12-12 18:16:27.248707,Right,96.39452111793798,122.12980378989596,112.90938148699934,94.98619024906657,-98.36158897991118,93.79101593399537,109.74056322828983,110.28358875459526
2025-12-12 18:16:27.252739,Right,111.26130298164207,123.97729869023897,117.43614423205145,109.16297684508027,-190.3351102437664,104.69500883763249,114.54386979233823,116.24483270643395
2025-12-12 18:16:27.256732,Right,4.216238120396156,2.921598359302152,2.6650871924939565,6.788423081918154,134.09981451664498,-2.7178771505568875,-2.1953959017118905,4.437298713281052
2025-12-12 18:16:27.260735,Right,-22.89940368749376,-11.832131986215245,-12.810959741822444,-18.341792293140315,271.9743455191856,-26.00679615298577,-16.751118289947044,-10.52431761258049
2025-12-12 18:16:27.263780,Right,87.59741300751921,116.30993790345383,109.97720007636235,88.73555335424317,-32.30231459259812,85.62447056305245,109.3514998780447,110.90381964491098
2025-12-12 18:16:27.267761,Right,141.27156437415397,163.00318231454003,157.7434611057106,141.58949391913484,-208.47986751537246,136.4687805155845,156.0366603730945,158.28014017056557
2025-12-12 18:16:27.273777,Right,49.78421004791744,56.37966045156645,57.86233100789832,55.39563598178211,73.25598255111254,44.69479069724912,49.74184232651896,58.00433888634143
2025-12-12 18:16:27.276786,Right,-10.144840743188979,4.028817069076467,6.874630586244166,-1.2025273127801483,286.6976256868729,-11.194446681736736,-5.290340772015043,4.064642320183339
2025-12-12 18:16:27.280791,Right,72.10731982707512,103.66578361907159,101.72413891088217,77.69965894175402,36.16034456231864,73.19713232884533,91.67372315807734,95.55403796199244
2025-12-12 18:16:27.283796,Right,139.92148307281605,166.7282902024599,164.62602393857378,143.38304562204576,-202.79005801861786,139.1218056985672,157.05765397453797,159.26569668507727
2025-12-12 18:16:27.287824,Right,68.6880339795025,78.15680563260685,82.52642246153846,77.48114092562173,24.011398658702092,68.35189557645936,73.64206027481123,81.48109064395248
2025-12-12 18:16:27.291808,Right,-0.24128965294949012,12.48893549258355,19.27574203599943,14.020465665511438,295.17182408239023,4.867977450157923,9.842062214316684,20.764780669938773
2025-12-12 18:16:27.295773,Right,71.55436976958299,102.28750528291857,103.90355121328321,83.22887400774198,100.1698276008683,79.81542941628868,98.00298590035527,104.53429453495482
2025-12-12 18:16:27.299852,Right,156.40632691338396,185.69788112358947,184.61169493480702,162.824459743053,-203.2834753567986,160.7375440050455,180.93505820126302,184.8754948237911
2025-12-12 18:16:27.304869,Right,99.46970073428383,109.80756723033119,113.14592630232073,106.82169133709976,-54.23736651165382,99.34672432216757,106.14191353820934,115.60953619489737
2025-12-12 18:16:27.307876,Right,10.913073452225944,19.821833254354715,25.29204526533431,21.847678634469048,265.2005687595556,12.515367053361842,14.954878545635438,29.698161933098163
2025-12-12 18:16:27.311875,Right,61.15683410875863,88.74824058588274,88.47786226593598,69.77405558512692,157.9704609248838,66.11230316107685,80.75233186073456,92.87798908750119
2025-12-12 18:16:27.315880,Right,161.72909659807192,192.98131455204566,188.2385126157169,164.91613822462386,-173.68199997327247,164.78016785316868,184.73674696753005,193.1473291361035
2025-12-12 18:16:27.319898,Right,129.7297678692339,142.41295419418748,141.73647318721487,133.40619743864954,-110.23567881763302,129.2070536798965,137.03805563702917,148.80886301121063
2025-12-12 18:16:27.323860,Right,28.55233226927521,35.12567210614725,39.30855743736538,37.367947904287576,225.11038253701918,30.11214989709333,30.675476558604714,47.45181223184409
2025-12-12 18:16:27.327928,Right,48.02055101737642,73.0455397980877,74.85287855859133,57.90445560348962,199.42805237818538,54.947648415858566,66.84723351142384,81.99628648241196
2025-12-12 18:16:27.332927,Right,148.94835246028015,183.53850114493616,182.30248472854146,155.91562883601546,-143.00321548452303,156.93472979519447,178.1955439093217,189.66360535845342
2025-12-12 18:16:27.336904,Right,137.97134625176034,155.9037480324987,159.1856146270493,145.8240909311362,-163.13080580461065,143.0350213476563,155.11433580155244,169.30031393384343
2025-12-12 18:16:27.339960,Right,33.28684496623009,38.88065816497874,47.865289870721426,45.485177262071716,175.93392261190093,37.25797903118473,40.030925308143196,59.30421972210266
2025-12-12 18:16:27.343914,Right,35.222726803738624,54.33789667741894,60.64088049493486,46.73084425413981,238.74735021619654,39.12883749215416,51.442150682907595,69.2044102067266
2025-12-12 18:16:27.347984,Right,151.89774123159077,183.51980867694283,184.0268087373861,157.0879149175289,-93.81888564843348,151.07640987972263,175.73009452146835,188.80190874782966
2025-12-12 18:16:27.352005,Right,177.73463473569063,196.42749005740552,198.8795741469312,180.06868590727572,-201.09944255892356,169.16634423491632,187.63269422670783,202.69927975820247
2025-12-12 18:16:27.356027,Right,69.75400608310156,73.78543864690437,82.70256861621601,75.3590907517937,117.32039782608376,58.37433141401925,65.16658779661884,86.59533163279411
2025-12-12 18:16:27.360085,Right,24.75419775139744,39.689009157616965,48.617841808110825,31.84012507403895,268.13887244113357,16.219800787544955,28.911906915378495,50.32849492668902
2025-12-12 18:16:27.364023,Right,114.76730291490821,146.01185236834863,150.1599901165937,118.41039478204038,-24.644033245172977,107.11862116564225,133.46489934476995,149.12373978781397
2025-12-12 18:16:27.367028,Right,159.94746583574306,183.21390400547898,188.56758255894238,163.0002503713331,-204.71404458812412,149.39804360947164,172.9117860115839,188.1943451498155
2025-12-12 18:16:27.372068,Right,72.07045447623386,79.34537234537856,91.27678385852778,81.21454138810805,71.50863059464336,62.00756188459491,72.57890754235996,94.33830487205705
2025-12-12 18:16:27.376087,Right,21.03047996614623,35.363802537067386,48.33962707474711,34.55327691591083,288.3771229252452,16.851331955127534,28.85370102305751,53.49955655897793
2025-12-12 18:16:27.380090,Right,112.07692618953297,143.31613964052667,151.21119089668355,122.00592713522929,36.57946966401869,111.03485954458301,135.27378902780765,156.29553356887482
2025-12-12 18:16:27.384109,Right,183.35669620288536,208.4513438993963,216.21672870709153,188.66506659286097,-216.97262825833786,178.60720492136898,201.1722925396898,221.40599099576502
2025-12-12 18:16:27.389178,Right,106.93540757794108,112.59027630867786,127.29997845892649,114.18109624836507,-0.19980015479268332,99.15113111707615,106.9327195506412,132.4948619655479
2025-12-12 18:16:27.392123,Right,27.88015392314992,35.88915938916762,53.67819442495238,38.7784071506976,280.27557291979247,23.89900845901866,28.546022516668017,56.30834461629274
2025-12-12 18:16:27.395086,Right,92.9226564878918,120.3288527276236,133.35979116226372,102.1300813948692,98.34561594949992,94.47867926127947,109.64053462445008,132.1950929693412
2025-12-12 18:16:27.400143,Right,178.17680044064764,206.125884484587,216.4062278954516,184.86209243151825,-208.2171967381255,181.03688742753002,196.070921945,214.88332585924945
2025-12-12 18:16:27.404147,Right,123.7967678248242,132.75013419537572,147.25283565642894,134.43962913317955,-69.70326908123025,127.31084143191401,127.38847220242315,149.4223071237211
2025-12-12 18:16:27.408114,Right,34.113561144520645,39.535763343868894,56.280881043334375,50.59535913300351,250.59536975113951,42.20414013591653,37.0855428178329,61.2683745433751
2025-12-12 18:16:27.412179,Right,81.28483220881026,103.64905954427377,115.20778333264752,96.56330288239405,150.10986698143097,93.40985289681703,100.29559204122052,119.27855654068117
2025-12-12 18:16:27.416164,Right,180.0044588836754,205.87009049049811,213.88785115643987,190.05849741358543,-185.12992768140248,190.41880174035032,202.06198482382752,216.29364795789297
2025-12-12 18:16:27.420217,Right,144.03171860423754,151.1835973240377,164.46652973507298,154.33600002832827,-128.87215909331644,151.73256820940878,149.27705034738756,167.1571799186786
2025-12-12 18:16:27.425222,Right,34.72739025208284,33.9862287225842,53.095408765249886,49.29456165913143,212.9696066890574,45.163858218467794,32.609624701944995,55.96934674891236
2025-12-12 18:16:27.428226,Right,50.09469760979118,65.1251999399974,81.73492069647182,63.36015808879165,200.01965475778343,64.33797925477847,61.185916792048374,82.69226629135665
2025-12-12 18:16:27.432225,Right,158.81597286570468,181.57487717553158,193.7191448618105,165.43693369395623,-144.6434062161752,169.91772797363228,175.8985204025521,192.93746320669015
2025-12-12 18:16:27.436234,Right,160.01860692270566,165.41951164348575,180.49711731285788,164.44745157084253,-178.03214491298422,164.09678275576152,161.19786801069858,180.30510277717258
2025-12-12 18:16:27.440246,Right,56.677492883682135,49.34600270318333,69.73627067790949,64.89619480581314,159.0171822438715,59.327800225655665,46.27309077352402,70.24586638624896
2025-12-12 18:16:27.444269,Right,46.74295246489055,52.44323539728066,70.86936557843,55.721283832899644,231.07781352250458,53.571510754103656,47.687232112759375,69.95143789092253
2025-12-12 18:16:27.447258,Right,151.39790465818078,169.03998264321126,182.21876236994285,155.6624147683615,-101.02131539732363,159.6269489688566,163.10538891103351,180.0914146960422
2025-12-12 18:16:27.451287,Right,177.15433279844,181.08377669518813,195.84286255987536,179.67804147853167,-217.03430724340433,182.1375145304337,177.01098348465166,195.43966506300785
2025-12-12 18:16:27.455292,Right,80.15054078209505,68.35685567373002,88.68300128582632,87.0037183687964,103.19341531912505,83.57266627599893,65.4658085735864,90.76294507776038
2025-12-12 18:16:27.460270,Right,47.05305029620649,45.09537258045748,64.42624745731882,56.00651686635683,267.27011637851683,52.027552777013625,39.28084213005786,66.4123921035789
2025-12-12 18:16:27.464322,Right,141.62323451062548,155.08384836469486,168.3081401866075,146.3578266252298,-21.81856189611426,145.18887222267222,145.78095539673814,169.17932892250246
2025-12-12 18:16:27.468328,Right,182.2507178830565,186.7497890835075,199.46823360667622,184.52028396021342,-210.12456922524143,180.46460732653213,178.33767108498432,202.0111496631871
2025-12-12 18:16:27.472329,Right,82.57332782124286,69.98619186267024,87.71140380245924,89.51101819620817,70.83572730585729,78.97109011410794,65.06756318898988,94.15158689260716
2025-12-12 18:16:27.475344,Right,18.081444744413602,12.379735468843137,29.90242482596659,29.3060872584756,314.11278266600857,19.08214234696061,8.659353914918029,38.785190627677366
2025-12-12 18:16:27.479370,Right,103.74389265100763,116.56320836341183,127.49056610005209,111.90718342324544,83.22031869995408,108.63578999471792,112.28144619520754,137.1250372005161
2025-12-12 18:16:27.483362,Right,181.74755542397907,190.68736813864962,199.35648677876452,185.38681472159806,-176.27863509222516,185.24288239622547,187.9253844545019,210.94896322319983
2025-12-12 18:16:27.487342,Right,115.05095519796305,105.47047099351767,118.82100482954411,120.17239008999604,24.588875314133475,117.3662897318718,105.31542739576253,133.45554661238566
2025-12-12 18:16:27.492402,Right,38.42836689746764,30.802633408646216,45.34945128811523,46.734537896481925,302.6600084071615,44.20202515226265,30.27716755590518,60.97617005193024
2025-12-12 18:16:27.496412,Right,99.25227977376198,111.02325122609909,119.4255861780839,105.5718991747417,124.67584821501805,107.85618685540976,108.23242986798869,134.01403991211555
2025-12-12 18:16:27.499425,Right,176.039714994753,189.10304394486593,194.14904418878723,179.1555391307338,-187.21284528789693,181.82925098021224,186.9117227242241,209.22166924277553
2025-12-12 18:16:27.503444,Right,105.01681659922178,99.42959587216319,109.17772912542569,110.4515585587651,-52.404765057232,107.0881260187889,100.14836696173006,126.7518887987535
2025-12-12 18:16:27.507382,Right,-8.132169649936259,-17.17258185186074,-4.184855798055651,0.9698982108675409,283.54376813332783,-4.74757114694512,-16.545099225608283,14.047943935001967
2025-12-12 18:16:27.511452,Right,23.180897534184624,32.409184475720394,40.49698908306891,29.424893130591954,206.0348026444408,29.414901602911414,29.57383077815757,56.123648533568485
2025-12-12 18:16:27.515460,Right,126.27455708479101,141.61186679362436,145.09693042494473,126.51018209005997,-124.72711993376288,130.75162177578022,137.37412735592807,158.3716719377844
2025-12-12 18:16:27.520491,Right,108.01375553743856,106.68124070216436,113.51488650293322,108.15856610804622,-80.75563097905251,108.81954717735061,104.62091834281455,126.80039410828613
2025-12-12 18:16:27.524491,Right,10.507587906759,1.993472472357098,12.808487452421105,14.954407215875108,255.64754999979777,12.004426264189533,1.0154167163273087,25.799743021052564
2025-12-12 18:16:27.527480,Right,23.440396031335695,31.5821931027167,38.613396130735055,27.56716341311403,249.1808081566487,27.721840936676017,28.729796833416913,49.16602323128609
2025-12-12 18:16:27.531444,Right,124.15630057369708,142.27712494216394,144.0554925170727,123.62493784572871,-94.10045478160464,126.47890916424512,138.69358703351463,152.76764401918626
2025-12-12 18:16:27.535509,Right,121.82371917193814,125.1460932365153,129.3644551327452,121.0653554922319,-135.42595779956173,118.91540434747003,123.71056118905835,138.93695355657837
2025-12-12 18:16:27.539530,Right,20.34474785643397,12.344712334917858,21.581223654327914,24.206250605697278,199.70597191803972,16.304911434766836,11.536678283693618,31.7916369678278
2025-12-12 18:16:27.543543,Right,13.822530494027887,19.46404319978319,26.63020991976373,17.986647718702443,279.0396309074422,12.608360019599786,15.309951963019557,34.2911545370589
2025-12-12 18:16:27.547555,Right,119.89595788200677,138.443041570863,140.49201111114235,118.19693267259572,-54.10662082594354,118.43686161185906,131.3072287675459,144.77886316465447
2025-12-12 18:16:27.552573,Right,141.94127807642508,148.18643154762685,152.17350294438074,137.2957481885678,-186.064959080657,136.71809682097228,142.0162316315982,155.72001931114937
2025-12-12 18:16:27.555572,Right,35.61382218945073,27.608838875370566,37.43944323717733,34.573104465860524,120.73658351090126,30.21238370615174,23.124712986827944,41.45631088563823
2025-12-12 18:16:27.559579,Right,-5.460340182078653,-1.6583802808308974,6.870765014318749,-4.220486534279189,284.0497250437911,-6.305389918401488,-7.56888168657315,9.330216518894304
2025-12-12 18:16:27.563595,Right,92.6083983399003,114.57536909446935,116.0553721312317,90.45962056145072,-9.177923043702322,93.43303771522187,106.36499458368053,115.89375466768979
2025-12-12 18:16:27.567602,Right,147.77188900188776,163.06316330685513,163.14444214556715,143.57756327874085,-217.84371155488043,144.51712726989354,155.2092672221188,162.3786402316182
2025-12-12 18:16:27.571615,Right,60.31439516060345,58.92974420072278,63.87164146124269,60.088107419462176,41.12519272647478,54.23255843782681,52.12941716799105,63.862216687906766
2025-12-12 18:16:27.575620,Right,-4.721660352253821,-0.14675777903175913,5.064379239920527,-1.7258963159838459,277.6259410436469,-8.29487741443154,-8.483527052449062,4.387466876214603
2025-12-12 18:16:27.580652,Right,71.04151036366238,93.6857963949733,92.6997034092783,71.15008196336566,46.668977633271425,69.57748151442502,83.78251223322877,90.82511522655841
2025-12-12 18:16:27.583656,Right,138.09823884918296,157.40733387958608,154.24239419659716,135.75240807929367,-219.97174942623678,134.2379841516813,150.19647881122364,153.71803432091838
2025-12-12 18:16:27.587664,Right,61.39222346879251,62.68123174610082,64.44795773329679,63.42883174393501,-24.026480995366,55.86965760108433,59.9088484478998,66.79403736861423
2025-12-12 18:16:27.591644,Right,-23.4953874067578,-20.26880942855496,-16.470730407861993,-16.36776108269987,265.59823740890715,-25.821253485089983,-22.79208683152683,-13.8450176960323
2025-12-12 18:16:27.595678,Right,38.02907529672666,60.7173061632202,59.535055149230175,42.98434916343831,103.79330067565024,38.38860673867748,54.98575114028063,59.739286462950986
2025-12-12 18:16:27.599708,Right,129.77689621677564,154.1261945082515,150.57560981091228,129.84615513731842,-209.45027037068212,127.4109365593904,147.68814330841997,149.82628602918703
2025-12-12 18:16:27.603716,Right,81.1532158722548,87.13612499955343,88.93850150544313,82.17841103495448,-91.37084672172932,75.80134352088498,83.18247299162613,89.87175533466507
2025-12-12 18:16:27.608723,Right,-14.252204978329246,-11.45653239346575,-6.044305859337328,-9.440094027639134,229.6825768945564,-16.973247859699768,-14.945225707240752,-4.36913023822126
2025-12-12 18:16:27.611728,Right,24.460051766975084,46.193552217882825,46.6611787903239,27.561375541074085,140.04567005870194,25.55977893859381,39.94713942479575,46.64973401936004
2025-12-12 18:16:27.614748,Right,124.37590931834711,152.85248605642118,148.10202225385,122.63168191919976,-207.4223632543726,123.81888604033156,145.4091876860184,147.24222454239498
2025-12-12 18:16:27.619751,Right,93.36737457828713,104.71460628742352,102.32944255066104,92.28166269211215,-172.81694757321384,88.90075492336473,99.1606152823224,103.06747111110599
2025-12-12 18:16:27.623708,Right,-20.425921669826494,-17.67739125879598,-17.053469293445232,-16.782861229396076,178.66587798209366,-24.114419800855103,-22.70555818626599,-15.493984395550797
2025-12-12 18:16:27.627773,Right,-16.39972806307196,2.0556773931602947,-1.8512880856578704,-12.888588795613032,199.52866809592524,-16.590174633980496,-5.45770462937071,-2.1258811284205876
2025-12-12 18:16:27.631797,Right,87.00532008658047,115.45750351979223,105.9345234179491,85.75972259027185,-132.77303518723784,86.20426094629511,106.86583424598211,104.3472118813952
2025-12-12 18:16:27.635825,Right,89.37950296080089,102.97004381031729,96.11131012116675,87.73700505057059,-180.43004657945858,85.09105894842651,96.94898364128312,96.25949960373691
2025-12-12 18:16:27.639832,Right,-17.30124003662786,-15.526241075931466,-16.71546834295441,-13.947722451790469,156.59225443290052,-20.734171912205056,-19.299453097424703,-14.3604778831359
2025-12-12 18:16:27.642848,Right,-35.775738089636434,-19.990092611697037,-22.894616895762738,-30.8213595541456,252.73883875113097,-34.285547376362956,-24.66421600349713,-20.88891859665455
2025-12-12 18:16:27.648858,Right,65.96040489419829,96.30931219288323,87.8531761149934,66.8510715852899,-70.8627024238449,68.77245788324217,90.7898857852997,88.41446730245661
2025-12-12 18:16:27.651869,Right,94.71196119875822,113.73359740653541,106.53233922594518,94.10399755304388,-209.75925395968807,94.0201899986132,110.10819863266079,107.03332560273702
2025-12-12 18:16:27.655884,Right,-4.9537507514614845,-1.5726824251178186,-2.898443869111361,-1.4867030956083909,93.77450770287396,-6.834844424010953,-4.029776294628391,-2.47075068448612
2025-12-12 18:16:27.659885,Right,-45.50456981368188,-33.03566381853307,-34.73427890619496,-40.46918160286441,268.5789416561165,-44.29509984026663,-38.405344697719556,-36.62919687193062
2025-12-12 18:16:27.663908,Right,52.60197035546298,81.04632486609626,73.4960061138845,52.74285571963992,-16.78755135297979,54.42445297197264,72.24828985451313,69.1439932804933
2025-12-12 18:16:27.667900,Right,111.18985968026391,131.4743832958775,123.47150738697383,108.11304394877516,-234.24259647850704,108.76105711927812,123.59026572623407,120.0757154081075
2025-12-12 18:16:27.670932,Right,26.169247898695176,28.41934190610482,25.977272469564923,27.172116228117375,15.598370820109267,21.50462609612441,23.63623934799398,25.607019255228806
2025-12-12 18:16:27.676937,Right,-40.37309626072238,-32.922814544290304,-34.47047511654091,-35.269312690594234,257.5363738114902,-41.92572857628693,-37.697720709984424,-34.12634252566204
2025-12-12 18:16:27.679926,Right,34.62366510703578,60.63436010439182,53.47274370744708,36.94502465352707,33.07593706112675,34.762275815955945,53.35560626727238,51.98597989846894
2025-12-12 18:16:27.683951,Right,105.18714492749132,128.67330128708272,119.92441957944538,103.7383014967927,-240.7991401099207,101.12494720499672,120.95940694169258,117.89755959468312
2025-12-12 18:16:27.687961,Right,30.85511203686474,35.87063386110822,32.76949501047784,32.17223824298708,-52.36701300400455,23.281485463958234,29.95151115168119,32.570106478451635
2025-12-12 18:16:27.694024,Right,-59.20185583755665,-53.83039885619655,-54.24447141867131,-53.12337633498828,246.824473206354,-63.24387635278981,-59.14914903015597,-53.04420521677821
2025-12-12 18:16:27.697000,Right,-7.042695124036982,16.652454117866,11.374542451216257,-1.9350830406910973,99.93632121462724,-5.318669249783852,11.265961698096362,12.681278145304532
2025-12-12 18:16:27.700065,Right,78.91008987448004,104.0174311150331,95.92998383136,80.69128459431522,-213.2557238033114,81.70878570018976,101.29632174310973,98.29311368220078
2025-12-12 18:16:27.703003,Right,27.08066899080586,33.252953369155875,30.231286263471702,30.695432159802294,-100.84903886514076,28.96008904230257,34.318469641613774,34.52622462202271
2025-12-12 18:16:27.708053,Right,-74.9250252123602,-73.3117128758895,-72.38880487963615,-67.39924160687951,232.2711648045588,-70.5004547094577,-72.93975881999359,-68.71673180097423
2025-12-12 18:16:27.712067,Right,-42.712263798719505,-23.145614406312234,-26.579890136810718,-37.27313470649824,167.1093551804588,-35.46147183023277,-27.955023291375255,-26.70219692592218
2025-12-12 18:16:27.716045,Right,59.604414143934264,86.17940579963033,78.12632583282539,59.696080079709645,-170.74481085579464,64.17426415163209,78.4219897131843,75.344266299624
2025-12-12 18:16:27.720059,Right,38.376703975285636,48.85328254783235,44.299622554244706,39.45323222994921,-145.60509394691326,38.314218236817396,43.44880867234315,42.60191056567419
2025-12-12 18:16:27.723073,Right,-67.20982915186323,-64.10817367576237,-63.733983844766044,-59.66268757659418,198.35100384069665,-66.20596377796028,-66.62717814758071,-63.651375991044915
2025-12-12 18:16:27.727014,Right,-58.39433940233721,-38.345480322794174,-40.58396048529539,-49.00988955554203,219.3368946549781,-52.27593790800893,-41.02394483225362,-41.01299906631175
2025-12-12 18:16:27.731091,Right,51.207130617432995,81.80337801254063,74.99854469165439,56.06270703912014,-120.95954990343671,58.3767196542758,78.85481024117325,73.60505922898301
2025-12-12 18:16:27.735097,Right,61.464715338392125,75.94731035376026,72.09295296632627,63.956101686359034,-186.098219333624,64.68499879345472,74.60019379584992,71.26539212906209
2025-12-12 18:16:27.740106,Right,-40.18715655806591,-40.42532970862521,-38.45162727078423,-35.42800108409574,143.18661877522027,-39.55520068025362,-42.009441352725844,-39.62602781188616
2025-12-12 18:16:27.744056,Right,-56.95121630479116,-45.89546180337493,-45.431243309009005,-52.50491744544706,245.26590576367016,-56.10376699747576,-51.45345169908251,-50.1207758532546
2025-12-12 18:16:27.747069,Right,46.76309541705996,71.26064097421477,66.19857619506365,46.50985223669704,-78.59308690193939,45.74893648760917,62.94667957536876,57.8189372808265
2025-12-12 18:16:27.751135,Right,76.77402929085656,89.90284182765754,85.9852127332415,75.63836659488152,-230.77945912810537,72.01212341759674,84.00295062443183,77.61767008471361
2025-12-12 18:16:27.755177,Right,-27.852145667558943,-30.244342046411475,-28.256784130993765,-22.94053501677263,65.63548887374054,-31.711845430530957,-32.461549980296695,-34.38232869587955
2025-12-12 18:16:27.759159,Right,-79.37862842138566,-72.12070147375925,-70.30622211559239,-70.03378664468619,248.68568554234298,-77.31378444098664,-74.35315613117564,-75.70913917392318
2025-12-12 18:16:27.763172,Right,9.946623587711656,34.52018015122303,30.71058399335743,16.77708942800382,-31.55812339431577,14.985324215165747,30.900677235338662,25.094556097275927
2025-12-12 18:16:27.768127,Right,67.11617143191688,84.55892520298949,80.61768257985386,71.37949349656992,-259.0554922663832,69.44193658841687,82.75765108467021,76.67530676868773
2025-12-12 18:16:27.772194,Right,-16.456177656684304,-17.494741942464316,-15.270803663406696,-9.11893106905336,-18.93553397535652,-15.519781513481576,-16.256268007033214,-17.076640331149974
2025-12-12 18:16:27.775148,Right,-83.92715961593058,-80.8707930671444,-76.99307263131777,-73.93967823477578,224.45981721821227,-79.293063969395,-80.2339563637288,-79.96373050063266
2025-12-12 18:16:27.780231,Right,-9.28896160594013,12.258790675434284,11.041226498906326,-2.932257883825514,-3.3553731727843115,-1.9364532582694665,10.06439106821199,4.52453289731784
2025-12-12 18:16:27.783228,Right,65.27252540629706,85.1922447537072,82.62854251763929,67.82569515173964,-294.7039230428709,70.10284110027715,83.39349911304453,74.83590780552186
2025-12-12 18:16:27.787233,Right,-4.802887644436851,-2.9786634965930716,0.40769462706521153,0.9544885331924888,-115.9723525504578,-2.472505896919756,-1.3903322801925242,-5.583755828454741
2025-12-12 18:16:27.791270,Right,-93.38984589696338,-91.68526350327738,-85.31021168204461,-82.65635373470286,196.70912470292205,-89.18460427153332,-89.25996627004497,-90.45960921276128
2025-12-12 18:16:27.795254,Right,-36.091545039867924,-16.392296501100645,-15.101363251291332,-26.967097416978504,64.37063528628823,-30.53349379887368,-16.618491834735323,-22.13116593038285
2025-12-12 18:16:27.800237,Right,62.85067536683346,83.8905913590279,81.5903735978427,67.38230249116896,-253.84295929372274,64.65162376449734,82.32763616824377,72.9504611582015
2025-12-12 18:16:27.803285,Right,22.963946456897247,24.319173498210148,26.441522267690743,28.45840968577977,-146.64374063151263,20.941154329015262,23.909854560304666,18.10303476453555
2025-12-12 18:16:27.807295,Right,-78.61726686916882,-83.10100377881463,-77.06592698485474,-69.03572055780387,203.93092172546312,-78.61294365511276,-84.16385159556376,-85.86813302453811
2025-12-12 18:16:27.811293,Right,-54.04326102604318,-41.08481827474316,-39.23554599934505,-45.96516333153704,160.57922705059173,-50.46044457238895,-45.56716973462608,-50.759023345977766
2025-12-12 18:16:27.815317,Right,44.41545816562211,64.56761791589815,61.515726031149825,46.64870116124439,-179.14406954884544,46.012769585384376,58.48598987742662,47.9002300004031
2025-12-12 18:16:27.819270,Right,25.852128773018194,28.877752909720584,28.58185135734675,26.522813806019258,-167.27002766476653,22.804655738731526,24.401728664761322,15.450660436701583
2025-12-12 18:16:27.823348,Right,-78.22359926420904,-85.42830141737795,-81.54825736172279,-75.15688444151965,181.28118663458372,-81.00995892880383,-89.71079937791728,-94.10205509350999
2025-12-12 18:16:27.828349,Right,-71.73528435438493,-64.43627186729645,-63.80025944600129,-70.71114147922344,217.59306308209852,-70.88873782039082,-71.71491485853767,-77.38574369690468
2025-12-12 18:16:27.832375,Right,37.34964473290529,55.20201773627923,50.65819466880566,31.920252089919813,-125.39359808074641,37.72857780164122,46.57865175880943,37.25772810899798
2025-12-12 18:16:27.836340,Right,48.78664365482473,52.16721042307108,50.27249140779168,41.84227534091042,-206.7167647108963,45.221712796075735,46.68409394735863,40.38034634470387
2025-12-12 18:16:27.839437,Right,-58.50528729349389,-68.384570327642,-64.11697399041077,-60.22856056781529,123.63645872697452,-62.060196088024895,-70.66611729005308,-70.37154546133752
2025-12-12 18:16:27.843421,Right,-88.5438896522719,-86.14286524639829,-82.92711646337739,-87.59532182889598,245.17110770368527,-88.18860655052595,-89.22071583196521,-89.0927436781858
2025-12-12 18:16:27.847418,Right,5.8077002491390886,22.450898529006736,19.872906032243918,3.0064626646817487,-70.60796384535843,6.181551986865088,17.571879931934745,11.99694174893557
2025-12-12 18:16:27.851425,Right,37.278030990142724,42.386589613674005,40.050439663245925,32.12258023654249,-231.69885865963988,32.929908484866246,38.60139971486933,32.31315276869282
2025-12-12 18:16:27.856439,Right,-60.911744785671544,-73.00845396062323,-70.16772107719225,-62.721669459304394,66.55143974862403,-66.75895127134572,-75.30826197934402,-76.92596622984638
2025-12-12 18:16:27.859455,Right,-105.76688128020942,-110.05830052530473,-107.72811548588516,-105.65513807848583,269.9213123870368,-107.7635164149051,-113.97618410035102,-115.8207172746761
2025-12-12 18:16:27.862478,Right,-6.202655031558606,6.504157961969213,2.8901649950878436,-10.012278167801014,-0.227514341916617,-6.4832146197313705,0.893489734119612,-7.59885919151111
2025-12-12 18:16:27.867417,Right,62.88744241520271,69.28162762999546,65.3743073682952,56.65527252105676,-241.06798982731038,58.972236116142085,66.05967828036364,54.93991208138186
2025-12-12 18:16:27.871479,Right,-18.096938880334164,-29.871840950550904,-27.128088868577834,-19.727517120305038,-9.813533762201587,-24.237067168534395,-29.494466603754972,-35.894038506317884
2025-12-12 18:16:27.875501,Right,-95.07747131842461,-103.51693999471149,-98.319707394734,-92.3258257421312,250.57887894814576,-98.11220131161485,-103.4862588297353,-107.38633769007663
2025-12-12 18:16:27.879524,Right,-30.68878199418168,-22.008612932871415,-21.81054118409247,-31.275345889779572,45.19463692910722,-31.68838370035793,-24.72356696737279,-32.77850051241194
2025-12-12 18:16:27.884522,Right,41.570211624475405,46.839630848332945,44.64947235125874,35.54086841946878,-243.5385518949006,36.63956565650665,44.106910856292416,33.74322277959254
2025-12-12 18:16:27.887467,Right,-26.09765323676976,-40.724739737355776,-38.60127488384387,-31.104206505497586,-72.68949091488776,-34.986820656689815,-41.28741980636187,-47.370807852182224
2025-12-12 18:16:27.890484,Right,-113.01535686002694,-128.24144302294008,-124.56429656584805,-113.91867982014355,240.71238946421636,-119.51875165511774,-129.05093628517352,-132.5397319234089
2025-12-12 18:16:27.894546,Right,-54.412870353793096,-49.957544051378136,-52.20057508509126,-56.14068953433889,108.769509452899,-56.21381941960408,-53.03265442403972,-61.12575856032345
2025-12-12 18:16:27.899566,Right,46.88685637933804,55.32763674269336,49.238511442756135,41.885935663595774,-228.81760034831677,46.035032996649534,52.72916465673916,41.08854025121218
2025-12-12 18:16:27.903580,Right,7.555588878494746,-2.014170893793562,-3.5026841091748793,4.503530111327564,-152.58352240445674,6.9814429158595885,-1.1995389550302207,-8.26952999403511
2025-12-12 18:16:27.907525,Right,-97.0915602701898,-112.05918942414428,-109.19440612066683,-95.20761836189922,179.9130860204241,-92.81159260969434,-109.604331429191,-111.43205642772591
2025-12-12 18:16:27.911591,Right,-73.6202815802917,-70.79115869362977,-71.67152860737042,-72.05728410867596,131.84976052679303,-64.13137512055255,-69.42552895679,-73.85196239655124
2025-12-12 18:16:27.915603,Right,31.515824815693122,42.111742640092416,36.60161683131446,28.87652079318468,-219.1788333331897,39.21873562320252,43.93391839551259,34.947078918754414
2025-12-12 18:16:27.918616,Right,22.166139585327983,15.574850228567811,13.096081946583581,20.14404430793911,-225.83417908211413,24.00099462529215,20.54451170282482,14.124956800136715
2025-12-12 18:16:27.922632,Right,-80.83036027200978,-98.38961128926167,-96.26685608639673,-77.76450480616768,117.1447459986648,-80.38854515436287,-92.20013704564917,-93.54847756984964
2025-12-12 18:16:27.927629,Right,-82.24807687689827,-85.64128253776653,-86.53582770775392,-78.74857898129085,163.03491904403563,-79.31127444818412,-82.1029855289089,-85.44696327540078
2025-12-12 18:16:27.931662,Right,18.462526551667906,25.829301644916995,19.348755627703213,16.68685300913421,-175.52064450762919,20.34602415034351,27.78310390290426,18.71373771031358
2025-12-12 18:16:27.935672,Right,25.997449652222713,18.490331712866464,13.708024955234578,22.28134381174459,-262.11186191269735,23.968920725594216,23.389200350178726,14.662246230192977
2025-12-12 18:16:27.939683,Right,-81.56075581992991,-103.58974557908732,-103.2650212577064,-81.49944278743715,71.68342654049047,-82.39067535939466,-95.43356688892163,-99.82380886279498
2025-12-12 18:16:27.942696,Right,-107.4204568255609,-117.93974286479352,-119.4446227303124,-106.5265884810251,209.05887413857272,-102.04730833999929,-110.88967198349565,-116.55555897088198
2025-12-12 18:16:27.946695,Right,-2.3433117704626056,1.937391143404966,-5.589927424283815,-7.178872778004006,-99.65740807051407,5.128312406970508,5.834113472046738,-5.18519459604795
2025-12-12 18:16:27.950713,Right,42.72032687552564,36.37853450213515,29.61517327897309,33.77568025605797,-271.01714952618204,45.70757952479835,39.193692747710884,28.97757622143763
2025-12-12 18:16:27.954711,Right,-47.94192337376444,-71.33178010734991,-71.69324376155419,-54.15328438765937,18.31028061338293,-48.10761851571806,-68.57118586521028,-72.28963411676887
2025-12-12 18:16:27.959664,Right,-95.2824231595041,-111.02101816589857,-110.55327903616853,-98.59804200507278,224.48811233203014,-93.57429076323024,-109.80843006330542,-112.33308400725946
2025-12-12 18:16:27.963745,Right,-2.304655555544741,-0.8217187748741708,-5.681125377072021,-8.3166284245126,-46.6399496705817,-0.22640126573605812,-0.6930926779969013,-8.897882739940542
2025-12-12 18:16:27.966746,Right,62.40215558185446,57.45887179318379,52.076487010897836,53.71343956160126,-299.5333487989992,59.81094077760281,59.86091582517474,49.83179407125135
2025-12-12 18:16:27.970781,Right,-22.238934817029076,-46.33065356922452,-45.34209085796465,-27.72554446776121,-71.1407775359985,-27.84962620355509,-40.93348402111587,-45.29738104264834
2025-12-12 18:16:27.974764,Right,-103.70172327463297,-124.82433649812447,-121.14237316589424,-105.62790420797319,207.1310305092702,-106.26479763511088,-120.40031865340279,-121.09968800341449
2025-12-12 18:16:27.978794,Right,-38.47180213790489,-40.87539105344331,-41.85634515036509,-43.54450921370153,17.526759793679958,-38.371535125879745,-39.930256716383155,-43.831754002887465
2025-12-12 18:16:27.982814,Right,43.98884734530293,40.16435932587774,36.6434211730666,33.48015850658339,-278.50982235838455,40.684815935113875,40.49480408428644,34.669799490970036
2025-12-12 18:16:27.987836,Right,-12.835658991742093,-37.04028027177992,-36.65658370380697,-23.485756076122925,-121.26746428377737,-20.371406296697387,-34.37388688988722,-35.82231189888262
2025-12-12 18:16:27.991832,Right,-99.3350908066459,-127.36180646080174,-125.52546890832309,-108.07423998241575,198.00930408539352,-105.78783775732882,-123.9709964195863,-122.79566622648417
2025-12-12 18:16:27.995819,Right,-48.13879122898288,-59.80193711943866,-63.65161096063093,-60.0354467102261,83.76246463975258,-52.30305353470612,-57.625244545793976,-61.27249441738968
2025-12-12 18:16:27.998855,Right,49.10894676564567,39.98493445749773,32.64481456734211,32.63452412346669,-247.9161457434675,42.54749466629073,43.23304875044414,35.746083214915416
2025-12-12 18:16:28.002848,Right,12.54135895329091,-14.786876310543448,-16.96997844328871,-1.4475007659566472,-175.1853905316675,3.0181365240168816,-7.87389685936796,-10.56538573850412
2025-12-12 18:16:28.006866,Right,-88.44333580018429,-121.22716239597503,-118.40483265047078,-95.58709765320964,163.62493583037212,-94.78586832509973,-112.79942028217192,-109.38291982663941
2025-12-12 18:16:28.010819,Right,-65.53463023378936,-80.3198599267489,-81.16094055767462,-71.42365723595867,129.52933367240257,-66.13346381240262,-73.79352408674458,-72.17741290182312
2025-12-12 18:16:28.015936,Right,34.51926293345241,28.228303837131534,21.78570125540864,24.390393747416965,-218.2277360717162,34.11256598709588,34.12822745540325,31.078889223368606
2025-12-12 18:16:28.019928,Right,16.549952743618633,-6.20528109530278,-11.271423987476737,5.976171134418109,-230.22019418390119,12.07055598012812,2.3959956533508375,0.970677131525008
2025-12-12 18:16:28.022928,Right,-96.43139996764148,-129.67638033002004,-131.73767744313227,-102.29636855363788,118.90560413469939,-101.43077535070188,-119.48577495629434,-116.79455646187853
2025-12-12 18:16:28.026934,Right,-101.65794653068224,-119.83066722461808,-126.1714588785544,-106.12386384450656,181.70532458671732,-103.24665653593547,-111.7527182000631,-111.65669594752399
2025-12-12 18:16:28.030877,Right,9.438498566098133,3.4747117458682624,-9.468518045978271,0.8310666524484986,-154.13470235606655,8.297318208002253,9.816886592045194,3.7737644238513894
2025-12-12 18:16:28.034941,Right,36.707584577728994,16.698299675103044,4.981991327702417,26.2480210136564,-259.70985508147714,32.25196892724489,24.732522587226413,19.086566450590908
2025-12-12 18:16:28.038945,Right,-57.62598571995113,-92.45894610085816,-98.51359006005077,-64.8301309763774,56.64993107207556,-62.56855664054456,-82.86700850007037,-83.28492198035383
2025-12-12 18:16:28.042966,Right,-83.57834183444356,-107.00623074940086,-113.69890755351662,-89.9982744002773,192.47606065971195,-85.28911078810779,-99.44253998438944,-100.06055876267055
2025-12-12 18:16:28.048045,Right,16.323905020373786,8.853801660654426,-3.1505043582219514,4.775166224084387,-117.8343760206335,14.649727130839892,13.830845093129028,7.9895128117495915
2025-12-12 18:16:28.050981,Right,57.170374365527096,40.47810689859034,28.89306420320645,42.35696065852244,-302.65719957230976,50.91870800263132,46.17691650288907,40.15030747056153
2025-12-12 18:16:28.055037,Right,-41.20863290928173,-74.65535504528088,-80.90410996392893,-52.48103050958889,-21.07384939959593,-49.270223276769684,-67.37614188990119,-68.19459361681947
2025-12-12 18:16:28.059029,Right,-101.72898572458871,-127.64350823526183,-134.27522016036528,-109.53246437034977,199.52014503512328,-106.11966303906229,-122.13975772330741,-122.75764585324214
2025-12-12 18:16:28.063052,Right,-18.755871072204172,-26.22032875628065,-39.13491476541094,-28.841715673574072,-50.62630253586394,-20.96814294107753,-23.933080629962205,-30.98629399739002
2025-12-12 18:16:28.067054,Right,47.23305438663374,35.97951045479567,22.0618993038006,35.11922336884891,-299.4776756685096,42.07629464427009,38.1735157196963,28.77447278310865
2025-12-12 18:16:28.070981,Right,-27.824122026700934,-55.92025647822447,-63.587528504744114,-35.8133139017591,-79.63150980935097,-34.87992464769195,-52.12137995410012,-55.84999333325686
2025-12-12 18:16:28.076042,Right,-99.07626504417203,-123.12493841500691,-128.24349303462077,-102.65232002639823,195.46930067602443,-103.10362270325277,-120.80860008188756,-120.33057236657623
2025-12-12 18:16:28.080068,Right,-26.417410309677507,-31.025698321012896,-40.91129186354374,-32.13153694864741,6.43373717823124,-28.194409597592312,-31.762027165117615,-33.88762829825282
2025-12-12 18:16:28.084074,Right,58.6480378413944,53.752220941700216,42.052171985124005,49.493910917917674,-296.9554214760319,54.06647204510227,54.25451905820955,50.510668260649254
2025-12-12 18:16:28.088092,Right,-3.9249784986604936,-27.74212065264146,-33.458336023497395,-10.031383703899337,-149.00384954571928,-10.997315838925715,-22.412799800520588,-21.462113294379378
2025-12-12 18:16:28.092043,Right,-102.45973834024699,-128.04892191199178,-129.60261996361805,-103.37874743795692,170.06973785833907,-106.54475785364775,-120.90126029589737,-116.57538750708773
2025-12-12 18:16:28.095051,Right,-58.97310694649059,-65.28854699272779,-70.63010390621639,-61.45348481823021,55.365855598443886,-59.26800062102848,-60.49003105828888,-60.160665609437274
2025-12-12 18:16:28.099136,Right,41.60898340301355,40.22618227396015,31.847934526485915,33.48580194781971,-286.25119155973516,39.929614472959656,44.16670109721599,40.68961521524761
2025-12-12 18:16:28.105077,Right,11.61440640820365,-8.005609912601358,-11.479610580674489,3.226954253776057,-212.34090714513877,7.296420710099483,-1.2708600539335748,-0.98317904787109
2025-12-12 18:16:28.108138,Right,-90.04477295865581,-117.0333243544228,-115.43510662634799,-93.68463303946919,160.57920778990592,-91.63320144607496,-108.27456750438432,-103.51112955463032
2025-12-12 18:16:28.111161,Right,-70.48125103618804,-80.60334288344166,-82.03915225094534,-72.78982994050602,172.71131521097595,-67.23517474982873,-72.94864897661319,-71.73258595289371
2025-12-12 18:16:28.115109,Right,35.48147806374618,34.599107532107155,28.589329274371266,30.605638560722582,-155.53166582359154,38.20910136843304,41.415603027824545,36.64274997587927
2025-12-12 18:16:28.119168,Right,30.936099124977773,14.579314725073345,11.605251597087772,27.153274593998503,-174.3783430769472,29.78777885636373,22.511749470861105,19.26024135577609
2025-12-12 18:16:28.123178,Right,-74.0103297300775,-100.98901569616282,-98.4041828716654,-72.84542590392084,173.50653548647279,-74.65109808433772,-93.50548750070448,-91.18059617832478
2025-12-12 18:16:28.127133,Right,-80.85088316940892,-93.24623594863078,-91.92005904809048,-79.10646846349118,248.61112089954804,-76.99025035569503,-89.06137476913136,-87.01866890006931
2025-12-12 18:16:28.131237,Right,25.84092364503158,25.677424748952035,23.136520417589054,22.737345516543428,-81.92418695994456,31.27680777022033,28.315533244327526,26.234793400064518
2025-12-12 18:16:28.135240,Right,50.1043570754955,35.54187100350828,36.242225120753574,45.36288210619023,-191.34142576520753,53.952398868048476,40.85882189179392,40.37055618375598
2025-12-12 18:16:28.138233,Right,-47.99887434706034,-79.22086148754897,-71.74267454735673,-48.59528168772886,132.811234814425,-42.71547862055377,-71.45636253381235,-66.16236742751789
2025-12-12 18:16:28.143243,Right,-78.12057545248172,-100.50300195738964,-93.5314175352978,-77.10404509399086,287.1936838495958,-68.75776275267708,-94.28445650907088,-89.11949091810675
2025-12-12 18:16:28.147261,Right,22.765686785733124,14.65678839526663,15.709659129628562,19.01295474829385,-19.715883499681695,31.29564296259923,18.518362728013017,18.127453862281982
2025-12-12 18:16:28.151266,Right,70.27746289196148,52.32892723316036,53.30193382645666,63.30130420032583,-218.53254451552402,72.3448962775692,57.02086477593548,56.2924798432432
2025-12-12 18:16:28.155289,Right,-24.359291405235126,-59.492578166180465,-52.67279700776999,-27.73992774900762,61.39827440004683,-25.771472201664437,-53.34731272228237,-47.87369296232646
2025-12-12 18:16:28.159283,Right,-87.8790637506172,-115.81373122720834,-108.08082157454191,-87.74423690414551,301.7982091433887,-86.53361460325686,-112.02702099017188,-104.04110493609915
2025-12-12 18:16:28.163243,Right,-6.179473865806358,-15.6767515243846,-13.531013904663268,-8.57257937576287,63.56695155598868,-3.124994270168827,-15.863672864434193,-11.958968782470038
2025-12-12 18:16:28.168316,Right,65.68899028603118,51.78597107552196,52.084123588661896,60.82143617529073,-197.04631189659858,65.31228405694856,51.494417713918665,53.91156641771522
2025-12-12 18:16:28.171312,Right,-4.843302639957983,-37.68349554057204,-32.94392874993355,-5.766025874414481,13.593502073198579,-7.579427619650232,-34.845371246417926,-27.734338213020237
2025-12-12 18:16:28.175341,Right,-80.66281249081294,-111.83576298113621,-106.248162156342,-77.10103040272224,303.3688487500857,-80.32244124324279,-107.77279982528853,-98.55974369047908
2025-12-12 18:16:28.180345,Right,-14.009657521419285,-26.47546360650449,-27.095362435662537,-13.074813315208303,131.01200620383412,-10.849462212332583,-23.46093657387246,-19.109358347552188
2025-12-12 18:16:28.184394,Right,74.38098675716537,62.32150501329306,58.29766843721882,70.23390303120323,-180.3900412705209,75.02372345345066,66.00597581791226,67.32854266696813
2025-12-12 18:16:28.187382,Right,20.74230754499149,-9.930299435371126,-9.649647355661727,17.545493509358494,-50.03562611790289,18.30915805049881,-4.150545776843501,1.9341737921204185
2025-12-12 18:16:28.190403,Right,-73.74107942659612,-106.5650268978352,-103.59448673611769,-72.76430114794493,272.3905609304936,-74.32737199758049,-101.55869782876107,-90.99367302382598
2025-12-12 18:16:28.194389,Right,-30.42559860549227,-43.48350797387684,-45.649989539910166,-30.063003055674926,174.95527393357725,-28.43231120915152,-41.57237794071989,-34.316627146872634
2025-12-12 18:16:28.198418,Right,73.79082145609209,67.61967007560452,61.067025503347395,70.84310058861229,-170.51890723541464,73.0208472877348,69.54009467261858,72.25772705857526
2025-12-12 18:16:28.203439,Right,49.87257909501568,27.42819220776437,24.75130097674264,48.869991553790896,-130.63089741045314,44.68667815602021,33.14043293726354,38.31248601585321
2025-12-12 18:16:28.207432,Right,-51.58105472245006,-80.4545581602797,-78.42108304589055,-47.034434492408764,204.25256809318898,-55.83387979385952,-72.68337817745487,-63.30448987195996
2025-12-12 18:16:28.211453,Right,-37.01952549831185,-48.19414369628066,-49.056525710824644,-31.835042647475348,191.38415337223614,-37.65041476265105,-41.97232214037285,-35.220554081093724
2025-12-12 18:16:28.214382,Right,66.75819161426261,66.40280294045078,61.18990473473241,68.28106943520106,-158.55191666057772,65.02056279781391,72.35279787380205,73.92722021900045
2025-12-12 18:16:28.218461,Right,63.99692673409663,49.758813848875434,47.596567691762175,66.26945987649378,-200.66357602579774,58.20602231478915,58.94557533854095,61.82868326544485
2025-12-12 18:16:28.222457,Right,-40.64329338178504,-64.41975771680518,-61.48158944261377,-32.994042691814684,135.73138115753954,-45.70414297379466,-53.37949420518635,-46.03123115706694
2025-12-12 18:16:28.226495,Right,-49.23318819203632,-56.759632661007345,-56.27563171676593,-40.908966647966736,213.39189890400803,-49.64202609580025,-48.46229522627982,-42.92459715429868
2025-12-12 18:16:28.231498,Right,57.40393692178259,65.1394742509874,59.936245451033756,59.859664201259875,-120.52050695922208,57.666588840060285,70.47280730759303,70.28444181264422
2025-12-12 18:16:28.235499,Right,80.30945380696721,76.92712918273173,73.28677067498575,79.70634625989624,-248.0862805795823,77.09369449617589,83.34460771654267,83.34965739791369
2025-12-12 18:16:28.239523,Right,-28.143734525692707,-45.724402311010635,-43.280133260108414,-25.071661926464003,63.71647776649752,-31.237750606760528,-37.26267004364854,-32.395838513413764
2025-12-12 18:16:28.242511,Right,-75.32157523191927,-81.63134159036053,-79.43122394863167,-69.74507202492532,228.32517417049348,-73.65537510753347,-74.52608634683565,-70.33624595447327
2025-12-12 18:16:28.247560,Right,14.64340582135992,25.900217442016583,22.64017119073833,16.99694130361968,-61.75317518286647,18.151098265832843,30.445518240452657,28.33105894178516
2025-12-12 18:16:28.250545,Right,64.21780577487152,68.71048520666591,65.57658619361246,64.6059488314877,-260.8844257964374,64.70316198613,73.58415235751818,69.923220651046
2025-12-12 18:16:28.254546,Right,-22.12873037803365,-33.581248281938315,-30.79520800991304,-17.70931544047926,4.705215560662509,-22.216205844561046,-27.310356527610566,-26.099525363537396
2025-12-12 18:16:28.258498,Right,-80.02925337577108,-84.47891969917328,-80.74832653591147,-72.54336247804895,233.48782187483994,-75.19076840924026,-79.58907573890247,-77.09025045685121
2025-12-12 18:16:28.263578,Right,3.803244280967192,18.044328947238682,16.15263683109879,7.787868875075219,-13.380541356142203,12.396258561795548,20.85338821467667,18.13272963109557
2025-12-12 18:16:28.267585,Right,76.6919517311253,88.02029064489761,84.44107343689757,77.48845961815277,-286.8800245501825,83.98339738183859,92.62744094418485,87.56325790674964
2025-12-12 18:16:28.270592,Right,5.010206482427748,-0.6746026440850983,0.8955957935650076,10.007045358677715,-85.16718474607387,11.785810045208564,7.839074519355563,7.043663566950272
2025-12-12 18:16:28.274589,Right,-75.33086955627004,-77.59743406134476,-74.07149924146142,-64.66302635588727,209.69754597530846,-64.10471138535104,-68.72259986024801,-67.8303829569777
2025-12-12 18:16:28.278559,Right,-13.262520558557299,4.979479364337749,3.2274621771393868,-3.7789400339097483,45.58953964576813,1.6564969873797963,11.204783887660597,6.170421255126712
2025-12-12 18:16:28.282616,Right,73.56768388865385,93.62412546447194,88.91246258588944,78.98009267758971,-268.56180093028433,86.07365013166054,100.14864369640782,90.26025188765198
2025-12-12 18:16:28.286630,Right,17.493474287835852,18.615575864183484,18.490083147702535,24.099173799895652,-141.56682286780597,26.539973345623366,29.157269969871777,22.054640483809635
2025-12-12 18:16:28.291660,Right,-85.1651927997591,-88.28514701104723,-85.10688496788316,-74.950816821849,194.54088029413742,-73.98586576722846,-75.61280082691883,-79.65401822512104
2025-12-12 18:16:28.295707,Right,-52.12584278371287,-37.53408979507185,-38.46140817565538,-43.8395932166095,119.38754767381397,-37.12424811773599,-26.78865668528306,-34.52686029015604
2025-12-12 18:16:28.298686,Right,46.63907730698702,67.2304342589814,63.1722217717961,49.81646626336624,-216.09976253743662,59.51253805980559,75.73987723503342,64.41938919059794
2025-12-12 18:16:28.302703,Right,21.89762149661692,25.677015254008438,26.84927099900233,25.328982424369315,-175.68150505764606,28.864172427020094,33.2086630542417,26.329447623487795
2025-12-12 18:16:28.306640,Right,-80.8481516356951,-84.55900854143329,-77.55690846972539,-73.05479505405128,167.40712459207498,-75.95685941833108,-79.71729128298739,-80.56292764717
2025-12-12 18:16:28.310722,Right,-67.98401920584547,-55.137377632852804,-50.99727507177704,-60.62406489319801,166.8042350308333,-61.918959530547,-54.85037669620306,-57.70555770827559
2025-12-12 18:16:28.314712,Right,39.15844044973528,62.081492028436514,60.23874371538477,41.286196132266014,-180.79343548878387,43.349037650754326,60.53084003154345,52.05819915161737
2025-12-12 18:16:28.318728,Right,44.88439552913769,53.20503683442712,51.91037981817226,46.08939459432986,-219.1559705949694,45.16462399416196,53.61532288473063,46.051746801769696
2025-12-12 18:16:28.323741,Right,-53.44462850828131,-55.372442798477095,-53.31553878003706,-47.32871540658107,143.84902963806599,-52.66532609701426,-54.74454372288346,-57.28070925583779
2025-12-12 18:16:28.326695,Right,-60.52329239179744,-46.133200023707104,-46.82881628551513,-52.46371953111884,257.9033993218327,-56.31640530007644,-50.35362565205969,-53.20645873455396
2025-12-12 18:16:28.330788,Right,48.69428101876838,79.07201890327087,73.14818894928612,52.839502267731405,-65.06572944682375,51.123831789422184,69.60591738137828,62.77071053926102
2025-12-12 18:16:28.335789,Right,78.0938435560056,97.13795428728203,93.03046731419226,80.42175509387653,-209.55506079658517,73.37133530026586,87.14509163199295,81.90815181419202
2025-12-12 18:16:28.338801,Right,-24.86091784266864,-22.14210969630119,-20.546164115900865,-18.912837980499717,90.18677816579293,-33.37131470836539,-30.308866414229215,-29.86876512033996
2025-12-12 18:16:28.342808,Right,-70.47834337828863,-59.4096293513835,-59.10172699661621,-63.36049355544537,261.72475537531864,-76.64210284381716,-68.09716233895804,-68.15102715934427
2025-12-12 18:16:28.346832,Right,20.315467541164253,46.70498842645975,40.048976488970425,21.932196154338726,-22.947613541327883,15.467719572228816,36.451274745764124,29.816303171735854
2025-12-12 18:16:28.352843,Right,71.54079819913295,89.48115305263354,81.49117305369714,68.88530123689497,-229.4224123568656,63.433619801031455,80.34289363807602,71.92777600896989
2025-12-12 18:16:28.355849,Right,-15.426958654303235,-15.274327633826033,-18.164372685621856,-15.180230611329534,34.93639326414632,-25.196268542697908,-22.13384500899224,-25.308498298225913
2025-12-12 18:16:28.358852,Right,-76.3525131002416,-70.76678566596911,-72.71387896525493,-72.55341691065064,279.84247767913985,-82.22295676749673,-77.70858265765764,-78.65337829399095
2025-12-12 18:16:28.362871,Right,8.254246201292517,32.00090126677151,24.912181937045716,9.683211105654436,44.983320422787074,6.376966524158888,24.420504753866226,19.137610420908914
2025-12-12 18:16:28.366859,Right,88.35687473454709,108.92436642153189,100.78033185437653,86.81282871572273,-240.62004419454024,86.25938515513099,103.97469748915864,96.93360975846235
2025-12-12 18:16:28.370835,Right,22.56133226232123,24.632946039153467,22.37221955874338,24.013861472101922,-60.44513735874352,20.63218513310767,23.473866771836583,21.700695591101294
2025-12-12 18:16:28.374902,Right,-60.58454340202661,-57.63869447237994,-57.18449573525231,-55.1893141038488,227.12122472880947,-58.07639635004398,-58.954487755780065,-56.9672547540452
2025-12-12 18:16:28.379920,Right,-5.82046647536572,15.523801193199688,11.209511214527083,-2.9678936057364353,65.21149573904768,0.37249961510269713,11.056124881653886,9.832212360168342
2025-12-12 18:16:28.382950,Right,77.84053576330007,99.909911294415,92.70120083014262,75.69081973986249,-255.33655201111833,82.07980276534545,94.57983064714699,90.85738386229468
2025-12-12 18:16:28.385932,Right,23.382458402027623,25.833068426032696,22.89971282440638,21.72012955344053,-139.72049992495886,24.56724369860285,21.911883557664623,22.514606440493935
2025-12-12 18:16:28.390915,Right,-77.67917285906469,-79.81449013742713,-80.06690486792468,-76.1780946579238,195.73081991324216,-74.74936538060956,-85.16722425530679,-80.64873938552228
2025-12-12 18:16:28.394947,Right,-42.43532968722366,-26.10289805658067,-31.543287212833093,-42.93305548601984,125.42601379816188,-36.60595838879294,-36.22468641355226,-35.27982931421502
2025-12-12 18:16:28.399173,Right,63.5261040433752,87.54711148649221,77.41681164092552,58.27342458437761,-217.90648859483917,66.68848112246087,74.78624396223313,71.28888062162059
2025-12-12 18:16:28.403032,Right,48.54239953641218,56.90836678089727,50.442199813325715,44.26507831562276,-193.86859692089274,46.072134160941914,45.442732755869656,44.9088757717127
2025-12-12 18:16:28.407032,Right,-49.18582320157725,-48.49546892705985,-50.05877163164041,-48.341777261947755,147.56928060200516,-52.90446451564162,-59.66206996076289,-55.205902511320346
2025-12-12 18:16:28.411033,Right,-36.86483242520353,-20.332043406786397,-24.700474027016753,-36.109687151672006,162.9274606712097,-38.62507619514287,-34.846121151731495,-32.35959885379907
2025-12-12 18:16:28.414048,Right,69.43550680783528,95.53422336274889,86.202229765011,64.80605855867998,-177.31700484426983,65.86280212002927,78.11845430455651,75.60212889694867
2025-12-12 18:16:28.419045,Right,74.9669004418426,85.38470768318803,78.16162234370495,69.13412042887649,-233.47845450372552,66.5513659936903,68.50136079065305,66.87925953467402
2025-12-12 18:16:28.422976,Right,-27.425192545835085,-29.779529185936553,-32.397079714508436,-28.355439200523506,103.97750704018108,-36.4331400394982,-45.89993173808216,-43.924049920658945
2025-12-12 18:16:28.427040,Right,-42.7169191832636,-31.75684915684178,-36.927287660910224,-41.285101964105706,208.28403977161724,-47.79959577876389,-49.46696476209945,-50.3433706900978
2025-12-12 18:16:28.431012,Right,61.06387805930012,86.41540686125518,75.31457974230943,59.3889066702086,-110.03761905212377,57.33978161825098,68.06143183897984,60.747131745518345
2025-12-12 18:16:28.434068,Right,91.67353501228604,105.93159215317064,96.0866673378805,89.26187067305182,-247.96842001237383,85.59094776367851,90.72340346832243,83.96235136567702
2025-12-12 18:16:28.438081,Right,-8.567602132591446,-9.565619676945062,-13.277094600456621,-6.1351501174904115,60.81585700886353,-14.290176683392474,-21.31983717714138,-21.508199033718483
2025-12-12 18:16:28.442083,Right,-54.466542293912426,-45.75931350145402,-49.53885353903752,-49.64846752807989,246.14076198664407,-55.981127076739085,-57.67979343321349,-56.29596622567624
2025-12-12 18:16:28.446124,Right,37.16363677092431,62.95214834897706,53.457118641956185,37.472846781629414,-33.012313579307374,36.9282268744596,50.00394650357339,46.6173838450286
2025-12-12 18:16:28.453122,Right,94.0791510747813,113.05098777571766,103.20466118015611,90.77840437833947,-251.92245531981098,90.51510174751138,102.85675130563686,98.2993120785195
2025-12-12 18:16:28.457070,Right,11.658337040964852,13.512029375611746,9.719207857171568,11.763248788276542,-3.045809972612915,7.505414685153937,8.148225002943946,8.205762467243403
2025-12-12 18:16:28.460134,Right,-52.95606686275505,-45.63686957877144,-47.58859716241932,-48.84393578376876,242.59572652907445,-51.910217989634475,-48.97695267267409,-48.058123921722654
2025-12-12 18:16:28.463159,Right,22.40396695517711,48.17805228574798,41.48773044380869,24.25926039471051,20.055564577491168,27.010989110471655,44.39289114208441,39.43608072801726
2025-12-12 18:16:28.466159,Right,94.26440853866416,117.1848780941582,109.28130462245099,92.60650922316745,-256.3761571401956,95.8141743549404,114.28745407849055,106.3203167464344
2025-12-12 18:16:28.470158,Right,21.81562855081802,25.795908781426988,23.59566730563529,22.095996046466098,-67.21127450352287,19.8521511731351,24.33096193081292,20.793997590675644
2025-12-12 18:16:28.474111,Right,-68.60593727512014,-64.39340397845808,-63.84718925884954,-65.64390935116717,239.66861974777567,-68.7306641387031,-68.11726350067329,-68.55126175946498
2025-12-12 18:16:28.478180,Right,-19.223252716886236,4.010966148656735,-0.365574367242516,-20.009896002331516,99.29843854537467,-17.02563346840725,-4.686552366380056,-9.064436216129252
2025-12-12 18:16:28.483186,Right,65.03127724581236,90.7609815444921,83.20614202338038,58.71273111243863,-213.86507760973473,64.36877909936084,80.42052212770432,72.76539496130499
2025-12-12 18:16:28.487146,Right,15.337027870801649,22.537106232535734,19.723801816278865,10.384584849598468,-100.77283598145732,11.014082394498473,15.047610183690267,11.204125880733045
2025-12-12 18:16:28.491228,Right,-81.67016694373478,-79.62153542588203,-78.18492553924443,-81.67659954381452,239.56352819570748,-84.80187624988412,-85.60461598025358,-85.41449001387082
2025-12-12 18:16:28.494202,Right,-43.09494105956492,-23.906054151902936,-25.92054245239342,-44.14446418385887,180.47984563628415,-44.239971615777904,-32.49765670553461,-35.17863225780275
2025-12-12 18:16:28.498239,Right,68.03055283672029,93.83112154633636,88.00721028817134,61.64322201611685,-162.0192258745883,64.04669156572163,83.19706702345138,76.80912393670769
2025-12-12 18:16:28.502243,Right,57.160819299792365,66.54657350129128,64.49351277489404,51.223745543466066,-147.93030367283063,49.75813027577806,57.76377887267881,54.75280820545959
2025-12-12 18:16:28.506255,Right,-43.19344690586786,-41.869162996983505,-39.04994165109747,-42.461343223094445,190.25506565169053,-48.013609754595564,-48.391604722408374,-46.18780109216823
2025-12-12 18:16:28.511267,Right,-39.26861903381541,-21.727444085750903,-21.766316277295118,-35.10698327746468,212.73674065511295,-39.35146534600426,-28.569465896023758,-28.266913538540393
2025-12-12 18:16:28.515230,Right,59.79565376084338,87.65128156289211,82.37911625117704,62.05673857154943,-125.38215749079245,58.247811968731185,80.6318735295572,75.97794521397373
2025-12-12 18:16:28.518231,Right,61.82260885590222,73.89743763605293,70.56759010427777,64.62224187913671,-188.21873393454007,54.08998367126878,68.56712095118928,65.92984074022752
2025-12-12 18:16:28.522285,Right,-43.62969709569279,-45.44372799739358,-43.756292516984104,-36.133213153627366,148.71542318284628,-53.614483610738716,-50.79285984170565,-46.81237761817101
2025-12-12 18:16:28.526321,Right,-60.69170838687478,-49.74608031725438,-49.94366747610911,-52.11713686249277,261.13208857639984,-67.51906035229149,-58.05838932274128,-53.708044275943394
2025-12-12 18:16:28.530340,Right,48.2706113350896,74.57397212338765,68.62839814928884,52.48198938800124,-59.66225256409962,43.6365076790762,65.79345946066314,64.2590809551184
2025-12-12 18:16:28.534338,Right,89.3276566051245,105.70980686134862,100.72778847813606,92.41080698847145,-217.64513464386255,84.3131942938926,102.13069459542021,98.65556042117532
2025-12-12 18:16:28.539339,Right,-6.261815526974715,-5.336514321305003,-4.229667507010163,2.4391785259704193,74.25340919305017,-9.050362039412903,-3.447004412591923,-3.5007889234111644
2025-12-12 18:16:28.543355,Right,-59.14716943631174,-49.72530074061797,-48.21835674345493,-46.64748551066805,261.23347149610345,-56.883042026786825,-47.79545511291872,-48.04967867539017
2025-12-12 18:16:28.546377,Right,21.167881432003924,46.598038866988645,42.76307282707421,29.984636737572146,-10.417468007581192,24.02829845208089,45.65297259425279,40.33102047569628
2025-12-12 18:16:28.550376,Right,72.23649199873944,89.77306229589885,85.2959397803279,76.70352428443948,-229.6979639282872,69.1420448047893,88.15256114707518,82.15035936533968
2025-12-12 18:16:28.554396,Right,-8.37649480390337,-9.682427982446825,-8.899536819124478,-2.599955234916706,19.768951233185362,-15.973926518127882,-10.787095987649082,-11.360517574030382
2025-12-12 18:16:28.558433,Right,-65.54505308787793,-63.024360218933,-61.263537868027925,-58.053313085982154,275.0425288785118,-71.01194561944612,-66.2201931886957,-65.12127540044457
2025-12-12 18:16:28.562414,Right,20.46750529275596,41.15144873945974,37.39867486127332,24.236050257910392,56.813060511158255,17.812169082611035,34.61387323987947,30.54054930496568
2025-12-12 18:16:28.566431,Right,99.66022047122624,118.22437728482691,112.64679842592886,99.6789642088952,-232.0365141470611,94.60189656919738,111.40457591841187,105.13209326488868
2025-12-12 18:16:28.571444,Right,23.188692424751935,23.220668616741023,23.04743506102386,26.150134692756183,-55.214792963830405,14.96337814285198,18.530263193053543,17.60416976203487
2025-12-12 18:16:28.574446,Right,-79.17306285855557,-79.23682304592876,-76.77526417379704,-71.91524960376046,257.7148697370794,-85.94899477122999,-83.91851714595032,-81.2623788601959
2025-12-12 18:16:28.578468,Right,-33.47140371371006,-15.194462887378904,-18.028456107873353,-29.263599394305857,128.34129282680078,-38.89785253119953,-22.19050329233869,-23.845124281775497
2025-12-12 18:16:28.582462,Right,64.67329620207693,84.37890492248334,77.50359948843106,61.99034845437018,-192.28952123896306,54.493739389494294,77.01068036853394,71.31222273183084
2025-12-12 18:16:28.586425,Right,35.09751005173803,34.67938747126027,31.405019937934412,31.248858639904938,-99.11140184606484,18.774791655817353,29.29036364952117,27.12597264188662
2025-12-12 18:16:28.590571,Right,-54.1514653872955,-61.2041279148325,-61.45019830945239,-54.57456765642928,232.15600322566752,-70.55544770993492,-66.6785423467445,-64.41655230287506
2025-12-12 18:16:28.594504,Right,-23.625585080617384,-14.06782675310751,-19.05715174677607,-24.569933072440108,175.97861632306012,-36.809197676624535,-22.15807201640564,-22.565023154333176
2025-12-12 18:16:28.599539,Right,75.8823548044129,92.05743333592545,82.24338993030688,71.01162883668621,-168.35424063281243,62.3528501343726,84.22970569909376,79.44947847089861
2025-12-12 18:16:28.602471,Right,58.733020808691435,57.61374977386731,51.56300106803246,54.64097110337934,-159.51112899639702,43.56690412721218,54.687665865603776,52.3123528018441
2025-12-12 18:16:28.605541,Right,-44.45224125820096,-55.4570512439459,-55.45760185243125,-43.444624979252694,186.55515240727982,-55.48907447931197,-54.32138760770977,-51.83996859364561
2025-12-12 18:16:28.610497,Right,-40.92119972875116,-36.433081572886294,-37.744049059649114,-38.93416727693511,225.38683939017938,-43.99842511730094,-35.16071733753415,-34.32655016408535
2025-12-12 18:16:28.614574,Right,63.51638405196445,80.01312010561014,74.51314190684207,62.0391435329384,-111.87082759992336,63.943406743504966,81.95430789565216,78.01514594470427
2025-12-12 18:16:28.618569,Right,73.01637189401754,76.35053236919703,73.2645176734004,72.28684772338238,-191.60350221994304,72.20432303122107,82.37234836566859,80.06065536705137
2025-12-12 18:16:28.622611,Right,-33.42099596805838,-42.692646649084054,-40.51987889334123,-28.040175661510148,135.06175967332092,-32.85530901721722,-33.827096292628994,-30.347641623080563
2025-12-12 18:16:28.627599,Right,-61.63818204794006,-58.60985364624139,-58.29013777215005,-54.00865223963774,253.19647773921315,-56.081084635099614,-51.82566710370156,-48.41039109628764
2025-12-12 18:16:28.630609,Right,37.12293517435728,54.16931317926719,48.3330696050034,40.02143986734518,-64.59909997357317,44.32789631866581,58.019699575390405,56.20212163188262
2025-12-12 18:16:28.633624,Right,76.50846883907161,81.82287738928426,76.18342123648472,76.28307213081644,-231.06759730388876,80.56946491178314,86.4604791110105,83.97140712287364
2025-12-12 18:16:28.638615,Right,-16.71427806724705,-28.75971472787205,-29.101173214679875,-13.716902646943709,58.60104501281603,-13.599013662436846,-22.27012554476096,-20.666067781738093
2025-12-12 18:16:28.642624,Right,-66.08463726971513,-70.25072441750308,-70.91628301345918,-60.6949330334719,257.33196931279963,-59.45535637309331,-65.13418268338137,-64.40259452793907
2025-12-12 18:16:28.646647,Right,23.503686053472848,36.90580097744896,30.336084740141814,25.385738598875832,-9.408047408753191,31.580367484215458,39.63545380987125,33.65877504784294
2025-12-12 18:16:28.650659,Right,85.9985836224455,93.88060002832935,86.8102671305387,85.10946421618246,-241.64298065508046,90.9379393011659,97.40538700271645,89.59271136232928
2025-12-12 18:16:28.654718,Right,3.8040798999095387,-5.9534621712591616,-6.526679988775868,6.416711948239026,-0.006678000536339823,7.692295097367605,-0.6395680072455434,-2.2223618693460594
2025-12-12 18:16:28.658692,Right,-72.78490870751375,-78.68879104822918,-76.48928671402246,-66.81392811223668,272.0119788707452,-64.39240889637222,-75.18992104425342,-72.58614831934756
2025-12-12 18:16:28.663733,Right,-6.9876901096167785,5.427723565448105,3.414230718961335,-4.410577038397605,78.05216439694777,4.810935987599805,5.441465174892073,5.004382028680993
2025-12-12 18:16:28.666685,Right,70.78062430667933,81.44975523671201,77.95608783266653,68.76591054334494,-203.47473355075635,79.68663698146338,81.73526117816436,79.23443651850903
2025-12-12 18:16:28.671724,Right,10.659246061012254,2.2996924434191897,3.9858166872581933,10.254134611095651,-30.95636699156603,15.669736160074535,5.838758307421813,7.498130639331066
2025-12-12 18:16:28.674670,Right,-74.94053351861498,-84.46975964568628,-80.45355358151573,-72.04571856599796,283.1725127452155,-69.0149330969507,-80.30370776463315,-75.8802518527882
2025-12-12 18:16:28.680749,Right,-24.744046821916072,-15.670264974865859,-17.132852807364543,-24.695781329650345,156.34581250142946,-17.089117390232786,-13.812972959896797,-13.651478439904167
2025-12-12 18:16:28.683705,Right,65.32484801382316,77.96154426068279,72.62611289606139,60.11274423981013,-170.82040862508438,69.9998931896298,79.80536849662349,76.25048012325351
2025-12-12 18:16:28.686849,Right,21.03778247973173,15.873295800662163,14.958408136895741,16.86392220574453,-81.10808208568051,21.845330378668223,20.574443337904086,20.830267443983757
2025-12-12 18:16:28.689725,Right,-80.74349012577954,-91.15334435461409,-87.55767892027507,-79.69535669740253,264.5662638562426,-78.51898436153715,-86.00436900377827,-81.13197145836239
2025-12-12 18:16:28.694698,Right,-51.91679072913121,-44.68918925931757,-44.0604947771717,-50.201302746409056,225.40288915085694,-46.051423418266495,-42.34821644460317,-40.21546894238418
