timestamp,label,FC3,C3,CP3,Cz,FCz,FC4,C4,CP4
2025-12-12 20:52:10.140807,Right,1971.8435984202056,2543.1521803758505,2545.169343932322,2087.1325530866043,1011.1433295991296,1871.5974492561486,2245.185127959793,2746.332065279375
2025-12-12 20:52:10.156876,Right,10619.605864128764,13699.347938826368,13709.72322882431,11240.586847488084,5434.35900656783,10081.57560598934,12094.09883309941,14794.074423966766
2025-12-12 20:52:10.160883,Right,24333.68779075235,31402.062850559872,31423.742191989397,25757.705128326445,12402.143113127539,23108.229687275263,27721.892167798058,33912.071518872224
2025-12-12 20:52:10.163902,Right,30430.081755513114,39299.55570937309,39320.72133082163,32220.109687039403,15383.749892989748,28916.216629473594,34692.699760113435,42441.770641245304
2025-12-12 20:52:10.167911,Right,20604.790240753566,26673.679035439636,26675.066505048715,21854.32546621617,10211.024188118849,19615.579887694774,23545.109993806036,28807.71107539913
2025-12-12 20:52:10.171902,Right,2328.681577203868,3141.2453944266017,3115.5749742725457,2569.9954336813244,859.7159857651932,2283.8806785805064,2769.5986735922343,3395.851190815476
2025-12-12 20:52:10.176926,Right,-11441.578085641173,-14602.345873728977,-14644.574470783467,-11957.267567771458,-6049.32424873003,-10785.11729685514,-12895.435602717422,-15762.930621896521
2025-12-12 20:52:10.179918,Right,-14904.191703796096,-19078.847408460046,-19120.541712635604,-15630.224228175299,-7733.12813380087,-14079.199793448148,-16848.18134653999,-20594.23050157237
2025-12-12 20:52:10.185953,Right,-10657.910934119893,-13628.876346478122,-13659.862875086721,-11182.808506767265,-5600.9095231087995,-10059.059644044726,-12036.45635742473,-14708.308467116323
2025-12-12 20:52:10.188956,Right,-4617.6342154283775,-5860.1051924171625,-5881.2033788425615,-4816.890898152022,-2548.988164860173,-4335.241832338332,-5175.910849139909,-6320.170305999229
2025-12-12 20:52:10.191965,Right,-1351.57687298354,-1654.0111106461845,-1671.3693689288339,-1352.5388465177966,-827.0802363587718,-1240.9346060464159,-1460.662091529346,-1778.7028994917637
2025-12-12 20:52:10.195919,Right,-2038.8066391778411,-2541.011371957953,-2559.242228635121,-2077.430165160564,-1138.9015200208523,-1895.061984080472,-2243.599721376202,-2736.999932372826
2025-12-12 20:52:10.199981,Right,-4744.319199524238,-6037.585843055975,-6057.859454184771,-4960.47131768649,-2569.6125719307456,-4464.794582841685,-5331.314179199049,-6515.336390244309
2025-12-12 20:52:10.204001,Right,-6473.5953286947915,-8278.807449482381,-8300.13932027691,-6801.423943682457,-3482.0307535766624,-6111.250118807075,-7309.905101103126,-8938.80616130412
2025-12-12 20:52:10.208010,Right,-5783.053467127378,-7394.496753710206,-7414.754437339143,-6060.295528013376,-3053.3730646504555,-5462.524848413537,-6528.699068616494,-7984.292708406574
2025-12-12 20:52:10.211038,Right,-3823.3889844211517,-4870.717243153136,-4887.874926599907,-3987.8825590353226,-1981.9060797494021,-3606.6376205337,-4300.932597765117,-5256.765876244521
2025-12-12 20:52:10.215034,Right,-2775.6952699256362,-3526.5633814956527,-3540.912595457514,-2905.296673021163,-1490.6779326097458,-2613.1687528346665,-3114.4387570256367,-3804.1164717747597
2025-12-12 20:52:10.219062,Right,-3373.327644495177,-4304.747081151581,-4318.899436959182,-3551.334247709601,-1854.1017334524076,-3181.282328508678,-3799.585400050506,-4644.9216120278
2025-12-12 20:52:10.223083,Right,-4316.6063379353145,-5523.693457479472,-5538.969379990245,-4531.3751069805585,-2278.422683300625,-4079.220409415895,-4872.515947612468,-5960.222528187791
2025-12-12 20:52:10.228081,Right,-4130.562288691639,-5286.877326844144,-5301.296152777271,-4323.690272917622,-2094.0870395975653,-3906.0699141423684,-4661.382882607169,-5701.92860410898
2025-12-12 20:52:10.232088,Right,-3019.1371995286318,-3865.867168592289,-3877.5364272329025,-3173.589470596169,-1554.6459335512482,-2854.9095709990943,-3406.4949066221016,-4167.530522786314
2025-12-12 20:52:10.236114,Right,-2394.2518613286084,-3076.1063460374717,-3086.7314731597435,-2540.390328010544,-1321.6169494951027,-2266.7231731229695,-2709.1809945375426,-3318.925695814658
2025-12-12 20:52:10.239114,Right,-2873.933507660404,-3701.884994270513,-3714.310341570759,-3039.775803088327,-1547.351024292002,-2727.3274705521762,-3261.6214509874117,-3998.7981295774225
2025-12-12 20:52:10.244073,Right,-3505.7569465725683,-4515.394882418448,-4528.982419620268,-3689.397850209032,-1773.148270119389,-3330.061149317189,-3981.0325996913016,-4878.033157102065
2025-12-12 20:52:10.248103,Right,-3179.5152504560538,-4096.652344828239,-4108.139900942566,-3355.7981995277805,-1595.0184554705047,-3020.883586523705,-3613.4986018874915,-4425.634652102366
2025-12-12 20:52:10.251156,Right,-2175.225237149629,-2809.0483337785117,-2817.409940504469,-2318.0752452444285,-1154.9276023829007,-2068.8292612632504,-2477.9529180829413,-3036.718126575928
2025-12-12 20:52:10.256175,Right,-1712.1263507362455,-2215.513057971373,-2222.7855499708094,-1825.2779747993918,-919.1920192682883,-1632.9575612230692,-1953.7879016594961,-2396.7401626098435
2025-12-12 20:52:10.260158,Right,-2221.4051379063167,-2870.412283145357,-2877.6579486643896,-2346.072146555409,-1089.4860904454254,-2120.2863908373984,-2532.0682044925634,-3101.5528115730267
2025-12-12 20:52:10.264162,Right,-2788.7055725827813,-3604.816286728019,-3610.4540920027066,-2955.4511517321225,-1349.7322942412575,-2661.0307313927915,-3181.62775028497,-3891.3305001221597
2025-12-12 20:52:10.267127,Right,-2470.5241671921685,-3204.58726217784,-3207.492671369575,-2647.7536071148934,-1256.048659810389,-2361.0356951919384,-2829.294107816182,-3458.7218754112255
2025-12-12 20:52:10.271227,Right,-1574.4882072797045,-2054.835805626586,-2056.396770641324,-1703.66526311927,-823.5219518144731,-1513.33194971981,-1814.1732515512267,-2218.4787810619455
2025-12-12 20:52:10.278206,Right,-1164.8986197812483,-1522.4318944013212,-1524.3177474261029,-1248.4460707388353,-541.5798848014092,-1126.4028044731822,-1344.1119908766123,-1643.6581331323832
2025-12-12 20:52:10.281205,Right,-1586.7216276794206,-2063.1214429275133,-2065.0603514708346,-1690.0117182077374,-718.2010000013397,-1526.9493236731505,-1822.417917516199,-2227.5684630728792
2025-12-12 20:52:10.285222,Right,-2062.601111404365,-2683.1707226040307,-2684.233267887379,-2213.4377168918727,-1022.8618856156245,-1979.7412234342191,-2370.7453269013204,-2899.8463857769966
2025-12-12 20:52:10.288227,Right,-1810.1389400409535,-2365.987249804195,-2366.3514385634335,-1953.074159800075,-932.4241931828437,-1743.8211266986327,-2090.3344429851277,-2560.725540319807
2025-12-12 20:52:10.292253,Right,-1069.8861414527055,-1412.9592495925026,-1413.034645874286,-1154.6802201938117,-490.9142687347485,-1044.7965717167826,-1247.645401552436,-1531.2400126182474
2025-12-12 20:52:10.295267,Right,-704.2364542237483,-941.8029336527688,-941.1355463649379,-767.4479313053889,-253.67175654537277,-698.2744629208464,-830.2538987169974,-1018.846770482487
2025-12-12 20:52:10.299322,Right,-1022.4916842223611,-1359.4348587453132,-1357.861820033635,-1129.1587062758626,-468.9803072787472,-999.646902217879,-1197.1805250722682,-1467.573768597329
2025-12-12 20:52:10.303332,Right,-1426.2051162899006,-1888.8121594870463,-1887.287848648266,-1568.5208475943655,-724.4962271380355,-1384.405250284006,-1662.4842123475391,-2039.7358481835108
2025-12-12 20:52:10.307330,Right,-1259.233503884403,-1674.711333014071,-1673.669837804162,-1374.998809069395,-582.3289792203868,-1228.876211323426,-1472.791136034415,-1809.1875626863912
2025-12-12 20:52:10.311326,Right,-661.8492414127104,-901.2844540314982,-899.6607035935158,-732.9957012559753,-212.11886106905877,-662.5036528750788,-791.9448642682983,-974.2097482510144
2025-12-12 20:52:10.316312,Right,-326.10291217442136,-469.5072130294284,-466.79534120019525,-395.27814986312296,-85.10659147921251,-342.15861522074556,-413.9462785292417,-510.17143790621776
2025-12-12 20:52:10.320347,Right,-553.9323101938353,-766.7016047145007,-764.319775777054,-647.4498851745157,-270.1647091995401,-557.8620666174102,-678.1561271771789,-835.0715416709427
2025-12-12 20:52:10.324356,Right,-892.4404957403895,-1201.5926041521598,-1200.2905555905309,-985.8473561260616,-402.73484659960377,-880.2293868976994,-1061.7846432944061,-1306.3013296179706
2025-12-12 20:52:10.327358,Right,-782.9825571492547,-1056.9770128834061,-1054.4043298889883,-851.9031653520651,-264.1407828266383,-775.8653456811444,-932.5379922970897,-1147.7561451470247
2025-12-12 20:52:10.331320,Right,-303.54546501027653,-442.20195737772156,-435.4850723373238,-359.0463774218224,-38.385112520249095,-318.02201434521703,-387.5412175268866,-481.16692402237095
2025-12-12 20:52:10.335399,Right,-16.805349061149172,-80.11044808977749,-69.84148031729273,-75.21929569845088,32.99301120167365,-43.814403443422634,-65.42493214062415,-90.1632430771133
2025-12-12 20:52:10.341348,Right,-186.06658122653607,-299.3496812846861,-288.40139956446365,-244.17346853396157,-34.036614831202314,-204.46728558238829,-258.04026288865134,-328.12454210291617
2025-12-12 20:52:10.345417,Right,-452.0531287807971,-636.6392572030891,-625.5778221078799,-507.69168468011776,-81.85283564638667,-456.4582321982016,-557.9345994126052,-693.0219440951478
2025-12-12 20:52:10.349427,Right,-369.2338405919145,-527.9833793325233,-514.3805580500048,-430.8983421715093,-38.11706037064141,-375.5953323310823,-465.89713577658404,-577.0267571207951
2025-12-12 20:52:10.352438,Right,-5.1814134242304135,-62.14897155133076,-44.24412230117014,-66.77960341854487,66.17382369869301,-28.57734249305213,-57.18251093913568,-76.11779281601775
2025-12-12 20:52:10.356468,Right,210.90701024298323,217.0511906890315,238.93115546385525,170.3051114275586,166.80007865473272,175.3161524439929,189.21117466688156,225.77230024617165
2025-12-12 20:52:10.359395,Right,100.63817792356713,81.83651180536253,107.7804260161065,78.03884240912157,191.88580003381685,68.87666962039657,70.4477984016703,84.25443737045862
2025-12-12 20:52:10.363486,Right,-70.39472938196559,-135.15173497473006,-103.78370921578608,-105.23080146918073,128.4051245272458,-93.51600110527943,-121.22220460150857,-145.2788255151827
2025-12-12 20:52:10.367490,Right,-11.344285119572305,-63.09756535393535,-26.424854573851917,-65.1608334587072,86.8713411366698,-37.04811905277893,-57.59917999114259,-66.46556780629908
2025-12-12 20:52:10.371502,Right,219.7306451034383,232.16118555600406,271.29106748182676,179.8600316302036,178.83791276498232,181.5568782323826,204.05220554760308,250.9922543844441
2025-12-12 20:52:10.376503,Right,365.60906943658847,424.9092294764705,463.5364204816724,357.3090987135365,327.3037650237675,319.6164669340724,375.0739315797691,458.83246605683235
2025-12-12 20:52:10.379510,Right,335.34867794195,390.0389244658072,427.04119728118894,328.34839615708916,351.53257187007694,292.2819009671093,344.0334882752795,421.3877548321325
2025-12-12 20:52:10.383464,Right,266.14463120467553,297.3505478810141,331.9356024497938,232.5302533373383,251.0844139259425,228.08426859790052,261.97839333581624,319.506716549251
2025-12-12 20:52:10.387523,Right,291.7546110928961,326.0319330043858,356.4228058378503,252.58788892227312,220.62598221906228,252.56529903764022,288.1268527336433,347.8296471473295
2025-12-12 20:52:10.391547,Right,397.264761364524,464.6145426643343,489.741041194211,383.60886949970154,338.90092682430986,353.9714327682741,411.0065455552394,496.8598437656037
2025-12-12 20:52:10.395561,Right,496.075364349992,595.5374680749228,616.5209066334355,494.81728846514306,444.657404147787,452.65672753921535,525.3050643524039,638.572637807898
2025-12-12 20:52:10.399582,Right,540.1931958208443,648.1784313918615,666.6279693332035,520.4173017077264,410.0195091071946,500.75208358632517,569.682703128783,693.3648401368991
2025-12-12 20:52:10.404577,Right,535.0862812458945,633.7865008079971,650.0076563262555,503.82115605214494,340.2534763801086,498.90737693334813,555.7679202346771,674.0759315094037
2025-12-12 20:52:10.407579,Right,517.8312239405641,609.0098937327566,623.5570534259314,504.0213363211369,370.8949178030307,482.04684628613177,532.8900288461009,645.8084792979644
2025-12-12 20:52:10.412602,Right,540.5252635348588,638.5804693988175,654.0856755160494,541.2192762690538,442.5159953366674,503.41305659594946,556.715136641782,679.0273195512127
2025-12-12 20:52:10.416627,Right,624.4738189628115,742.3570104647661,761.5010441791383,614.2670943835401,440.8384319531033,585.0722170657245,645.9233693176648,791.8722604316426
2025-12-12 20:52:10.420650,Right,717.1501140344772,855.5749359639594,878.0158533951035,699.5594890841749,411.92511565674795,675.6830151120084,745.7480578418472,913.5778107942315
2025-12-12 20:52:10.424603,Right,739.5369319376769,884.8908905777498,908.272955032473,740.3539391686209,452.08551177650224,699.7817662301823,773.490620268858,946.5460949777626
2025-12-12 20:52:10.429684,Right,689.1540129095665,824.5435182643705,847.8034328291542,704.081858201127,505.3235993127455,656.4719111085287,721.6211352894898,885.705593692488
2025-12-12 20:52:10.433709,Right,653.7872793393326,777.5905729799415,801.0095937011065,651.959538930736,471.820244929404,628.3223987179226,680.4630826164503,838.7919798104558
2025-12-12 20:52:10.436697,Right,704.1930121670011,835.74341619201,858.4527279067552,685.0544216826092,421.12914322543656,679.0519895958714,732.5876058271388,902.3025715943659
2025-12-12 20:52:10.440753,Right,805.6681387177669,964.4920114809647,984.7391335465945,803.4620149419643,480.67144371330505,774.649774797901,848.1726207050378,1041.2443418267649
2025-12-12 20:52:10.443746,Right,860.3486105882912,1038.9159044931876,1056.7536410272587,883.9741149521433,582.6619412088185,825.0389968852978,915.5854597422294,1122.8726865649223
2025-12-12 20:52:10.447775,Right,823.117031316564,991.2737387198722,1008.4280323087005,839.5046489969245,555.6569448318915,789.2975147384568,874.2008463727543,1071.8518822899787
2025-12-12 20:52:10.451779,Right,755.2513285088353,899.015847460134,916.0025241314434,747.8791891877772,431.1526094417204,724.442029734957,793.2708128426457,969.9456368790707
2025-12-12 20:52:10.458791,Right,757.5839254946914,903.0463915569708,918.8739404372172,755.5831958451308,412.2653076108545,725.9867349464912,797.6476800817763,972.4784688355867
2025-12-12 20:52:10.462786,Right,850.277605103096,1033.6980206561275,1048.576253762585,876.6319790781708,531.7148477911251,815.5744223659858,913.1513306883862,1115.8322705774335
2025-12-12 20:52:10.466802,Right,932.1081774471095,1150.2244510523742,1166.0303644274827,965.102314646705,590.9433853123337,897.6786319341045,1015.3744849181967,1246.1783018340357
2025-12-12 20:52:10.469870,Right,893.2289799116552,1103.3235342841363,1120.8672397884075,908.4427833722439,492.91476963472087,863.8272351934575,974.0771241296316,1198.3159367961343
2025-12-12 20:52:10.472833,Right,771.6742550830822,947.5885804808931,965.7398909504991,785.0764693514211,397.63739722711034,746.3142404098762,838.0410770613234,1031.3821769080823
2025-12-12 20:52:10.476841,Right,733.9759132476756,902.9508437494515,921.1568336011842,769.1475492590107,447.47083811089396,705.1183188147843,799.6085997794289,985.2146361218765
2025-12-12 20:52:10.479852,Right,856.2329437992303,1061.9953546167817,1081.3158369619632,899.6558437820058,546.5806209942675,816.6536405500956,939.1025550175691,1158.4259986319812
2025-12-12 20:52:10.487869,Right,993.0213762361091,1233.329537313315,1253.929708736483,1018.943846364622,545.7654684885056,943.2787420172244,1088.7969519704347,1341.1341977558332
2025-12-12 20:52:10.491820,Right,958.6606042196508,1185.7244662761223,1205.6424443646101,973.8290198008763,476.5076192789129,906.8566168922698,1046.228466160479,1285.0944809697103
2025-12-12 20:52:10.494911,Right,798.0817008473678,984.2337042578729,1002.1898828761186,824.3019358132733,454.45834962063236,750.856598884915,868.1584711481119,1065.3188501952682
2025-12-12 20:52:10.497911,Right,741.7236888548359,919.2469119444722,936.8391789057059,774.5981566035189,482.92529812449357,696.468516222667,809.4032925456995,996.0199630660936
2025-12-12 20:52:10.501871,Right,876.7101923914161,1094.7828575762687,1114.173270455096,900.0697866190458,496.9557301227469,825.9854528006399,962.3832421989646,1185.7700620198157
2025-12-12 20:52:10.504937,Right,1011.514481504797,1269.0201419437071,1289.894813357154,1035.372408557916,496.54700846452033,954.9429995624814,1115.579604501836,1372.3165784536395
2025-12-12 20:52:10.508900,Right,949.9674812430749,1197.2022816783283,1217.8975680682342,993.9636074716691,502.87216395523865,896.3259276796598,1053.1745545651065,1293.9840926695615
2025-12-12 20:52:10.512983,Right,777.1379466153448,983.6207588393008,1004.0791672941996,830.0977139059687,478.8148672579555,731.85390502261,865.7202169584343,1063.588154783938
2025-12-12 20:52:10.515953,Right,733.3642307493137,927.7359843755839,949.185043817386,770.8589937791694,417.8427111117053,688.9562300053658,816.8341446790146,1001.3673417677637
2025-12-12 20:52:10.518931,Right,867.248242669506,1095.5798131732736,1118.1354863722809,898.4594867049018,410.4098664033809,812.1600339566357,965.2360969447764,1178.6292852903716
2025-12-12 20:52:10.522993,Right,976.6548636163352,1238.4424667158164,1261.3510352619924,1029.7798333254177,491.744847265305,911.5785446234513,1091.2502136020921,1331.390430965228
2025-12-12 20:52:10.527010,Right,904.2107591704698,1153.5559556751978,1177.2410244734492,972.2108560757479,533.6746301333187,842.4094138428336,1015.5278713736916,1242.7919171147514
2025-12-12 20:52:10.531026,Right,747.4146282108268,955.6913021139335,981.1858982974663,795.5242620467907,440.5737932170159,697.5617614593357,840.692668564734,1033.0041411702987
2025-12-12 20:52:10.536042,Right,705.7244247443741,899.5768954851665,926.1423986935988,732.3522338783368,342.2977887757588,661.3859481281834,793.4266264211619,973.5798932719044
2025-12-12 20:52:10.540039,Right,811.6292404379928,1035.9774948649574,1061.473823316861,852.3762102273759,403.9350054967217,761.5675304281758,917.5291212430457,1120.736854782328
2025-12-12 20:52:10.543044,Right,909.8805105410283,1167.2686873942148,1190.78499558568,973.652248796192,537.198852465197,852.8662816755241,1035.243881894392,1262.9556970377453
2025-12-12 20:52:10.547091,Right,872.500806392869,1120.4071301994845,1142.4405128539074,923.6012127063004,527.0130526663852,815.9585204052273,992.6950181892607,1211.530617868295
2025-12-12 20:52:10.551076,Right,749.1679098415188,957.5826389840804,977.7614733481314,769.3759089400992,388.45209337276174,696.8169482863741,847.2201155005023,1032.3964431711938
2025-12-12 20:52:10.555082,Right,687.0411864364287,877.8500073673204,894.7784771018196,707.7924784788629,344.2390452270629,634.8128159384942,776.7525790071813,944.0896294033155
2025-12-12 20:52:10.559042,Right,746.051156084286,961.7549369246699,975.3621310091112,794.1831520793494,452.674541875429,689.871249887743,851.7321893015178,1036.8949504608754
2025-12-12 20:52:10.564073,Right,830.376758384984,1076.1494536262471,1088.1174523020163,885.3232699218206,520.3544776629424,772.8028938772622,953.2844460877823,1164.3324008374475
2025-12-12 20:52:10.568112,Right,810.2662743588444,1048.3891598884948,1059.8721973840147,846.3886727981735,435.8608254350838,757.765555988648,929.3852544499096,1135.5464413543232
2025-12-12 20:52:10.572071,Right,690.6192747569876,892.9414843472186,903.9065938168205,723.7232957052765,341.224800977041,646.4560788535746,793.3758155474206,966.8880938708317
2025-12-12 20:52:10.576129,Right,612.4154176812153,797.5230076448061,808.8965455512516,667.5449669078225,370.95681237831013,573.5479277460836,709.8758126862813,864.4780466072261
2025-12-12 20:52:10.579092,Right,666.3844547374174,871.8947635919321,885.9974803386722,730.8173223313643,439.1193017322221,626.8050709078088,774.7336809990229,946.4032415954862
2025-12-12 20:52:10.583158,Right,761.4964982547099,992.3645405333955,1009.8191844262183,809.0848565603374,420.58997606195044,718.2477516033687,879.7854278809391,1076.1399861748796
2025-12-12 20:52:10.587162,Right,745.5510863706004,969.713818707969,987.9135776725598,783.1394806818571,362.51385754405055,701.4697451657848,859.3854782272829,1049.9025686711539
2025-12-12 20:52:10.593193,Right,621.059915504884,814.9114923970774,831.274489789037,670.7297767722048,363.31583786400734,580.9964055877645,722.6039193820907,882.8669251699466
2025-12-12 20:52:10.597217,Right,543.0053296600236,721.4375422988087,736.3359364883509,597.7518149670213,388.45072588318726,507.2919487862382,639.1670610716101,783.8666717407759
2025-12-12 20:52:10.601217,Right,595.1913299008738,787.5515084150247,802.2395440726541,633.4066198350629,363.815876658482,558.80120938248,696.706948612351,855.2400010763668
2025-12-12 20:52:10.605199,Right,673.9418223218527,883.8405531365424,897.5263695605099,703.2485193423927,331.2765993278008,633.5360813074512,782.2195860267384,956.4761016173288
2025-12-12 20:52:10.608219,Right,648.6357801234117,852.5117127953563,863.6856742489617,692.8496327456087,353.72574681643164,607.6784107886488,755.3375208001817,920.8274542791769
2025-12-12 20:52:10.611229,Right,548.4820600912208,729.4671742578503,738.4243528591469,601.5483648936497,371.05684094212484,512.0573577985633,645.9112487208331,788.4529058609623
2025-12-12 20:52:10.615232,Right,498.7554182613967,667.1294329848606,674.7484831979964,536.0384609726025,310.8756471758825,465.99906264210586,589.1156774844276,720.8817701113876
2025-12-12 20:52:10.619292,Right,529.8411215444794,706.380834774347,711.5785924457014,558.6410791535163,246.31096260715276,496.1246765126707,623.2677574057598,760.9448362856638
2025-12-12 20:52:10.623243,Right,555.8139354888117,744.9640496151987,745.8509929317515,607.694564146339,275.0234339008457,520.6043128621532,658.2892845754977,801.2252657075878
2025-12-12 20:52:10.626254,Right,520.8677844904596,708.125344759901,705.0415790840052,594.4618587609148,328.02630619093543,488.21395042561926,626.2491197498748,762.5739522550721
2025-12-12 20:52:10.631313,Right,466.75933182425797,638.5773270927602,633.6189993401058,525.9016298018396,281.4952719180146,438.1694423572626,564.3900862283772,688.4498415864073
2025-12-12 20:52:10.635331,Right,446.1574819518719,604.4580138281453,598.442787322565,480.36720320244785,186.47171875921777,417.86139640270267,534.6667781480355,651.0689188633114
2025-12-12 20:52:10.639315,Right,451.1209939203691,607.2113030272303,599.5547005870612,490.72655486897565,187.42243945924565,419.7615086907754,539.0554758559447,654.8858324603643
2025-12-12 20:52:10.643264,Right,451.62667893304024,611.2614226365695,602.5048654617276,511.72899560269434,261.65554665465606,418.85122689488344,544.4429424155969,662.9487366878893
2025-12-12 20:52:10.647332,Right,441.26311567099765,599.317129955627,591.0042872843333,497.85448854858987,254.74037376546767,410.6426255797269,534.2551677789306,653.0508871383499
2025-12-12 20:52:10.651331,Right,419.31670632841997,567.6429919463117,559.5026175011881,458.57342933653854,155.6846904681879,391.6843237031717,505.8667528758524,618.2184733147733
2025-12-12 20:52:10.656340,Right,379.478352609789,516.712347603403,506.54278125963174,424.9514565775171,114.2107452484779,353.7782272909535,460.3507520952262,561.3107686379226
2025-12-12 20:52:10.659324,Right,338.0987263271818,470.2071525835199,457.12824711820576,404.7086097508436,171.27089084871113,314.42210734367836,418.0930819744244,510.9945239374647
2025-12-12 20:52:10.664366,Right,328.2603838839568,460.6892038999358,446.27596474427264,390.98767567705363,194.41637721087318,307.10493079712614,408.1652601310052,501.00812146649696
2025-12-12 20:52:10.668390,Right,345.8155301369261,477.5043427578639,462.95816174149513,383.26100637333,126.2247894227039,326.15808693354484,423.09096739208326,517.2854565082816
2025-12-12 20:52:10.672430,Right,343.8202423794428,469.48811789182946,453.83849089965224,376.0492638305295,81.80866144207539,324.75738799991086,418.2458353281254,506.2053370977519
2025-12-12 20:52:10.677395,Right,301.7111345543526,418.03778662590776,400.196188343456,352.04939016280696,123.93124442838598,284.4009664558107,374.818001118605,450.8960594990058
2025-12-12 20:52:10.680412,Right,258.0526950013591,366.19920267676935,346.7057067407295,310.0100056420779,144.8395567307889,243.2952950532781,328.75020144169684,397.0060007160064
2025-12-12 20:52:10.683437,Right,249.48533357772976,352.9648329708725,332.31235558050685,278.7157951918198,74.3663088643516,234.7981105260551,315.4993073618971,383.2307818712434
2025-12-12 20:52:10.686415,Right,257.0235047780443,358.5905047405977,335.75478550291155,278.19221333030146,16.967895566747757,238.9896031395765,319.40668994246516,387.9960133503191
2025-12-12 20:52:10.691445,Right,244.48376378789544,343.77584132400807,318.0338265595492,284.8872682119254,55.27470250803162,222.9824383201776,305.2633726769127,371.2918296530843
2025-12-12 20:52:10.695414,Right,215.60115635581315,308.4134090398438,280.9637363697402,264.2499528218759,89.46916559079546,192.81978448585141,271.7344775433885,332.6368068541633
2025-12-12 20:52:10.700481,Right,196.120891550323,277.90117684577126,249.99365970562212,223.84118913894054,21.201186022080947,172.24974446784472,242.11126805259846,296.73695727589075
2025-12-12 20:52:10.704512,Right,188.09115293470677,260.35392709076405,231.1768730635522,202.06615081301425,-56.61040990927722,161.28536889731186,225.3129213717766,273.1680634380318
2025-12-12 20:52:10.707516,Right,179.04829909693217,250.10691597720142,218.23118447081652,210.25376937852707,-24.06271214596927,149.6246308190748,215.9818241589237,259.9385091647273
2025-12-12 20:52:10.710497,Right,170.21698995801853,245.79380195285194,211.53572091157548,216.7074075633427,43.81345623516245,141.8883768756059,211.18951734376606,256.28350849461276
2025-12-12 20:52:10.714529,Right,160.8961624931544,235.58674281055573,200.07090831629466,191.88056157634128,8.670148161967518,137.1345934139099,200.5712811955018,245.6962720968295
2025-12-12 20:52:10.720562,Right,133.20758909382857,196.61684612138197,159.52297108329367,145.72571454080753,-82.59660676744534,114.49439717875794,165.65900952916127,202.20228201861028
2025-12-12 20:52:10.723571,Right,88.91448163194582,140.29999580455478,100.72772215190344,111.91410761681618,-84.72632737563981,73.92722451186273,116.92319223005325,141.6503111148486
2025-12-12 20:52:10.727577,Right,69.00989279343048,119.27910142473411,78.10235401755199,108.40906263660872,-15.169026112969732,56.359173764591105,99.64443290705094,122.50898599182256
2025-12-12 20:52:10.731597,Right,91.61709074769169,147.7880088997772,106.83280770404963,119.10201148915803,-15.71676596745965,80.07717251137365,126.11935302306665,156.334909842466
2025-12-12 20:52:10.735619,Right,104.66739541984862,158.67329435027204,118.04946017917246,110.40725730586564,-95.47205445439613,93.90875511185732,137.9646712957183,167.69257237855345
2025-12-12 20:52:10.739634,Right,58.07682430848945,97.70574732590467,56.26020307431463,69.15380022063619,-126.0950240038801,49.70719374460168,86.97960339789279,100.9650414386997
2025-12-12 20:52:10.744655,Right,-7.1517280476982705,20.04428217682289,-21.842930184677243,24.343961003702134,-81.20023898068757,-11.258514302084222,20.157637294731103,19.25665358302649
2025-12-12 20:52:10.747662,Right,-13.405583282117732,15.829002456914168,-24.721932635933626,17.01303263020236,-70.94449191846797,-14.219235521450173,16.77774450549623,17.990080333082005
2025-12-12 20:52:10.751659,Right,27.60983603162458,65.6939928890788,26.540826263197232,42.49856782850111,-125.13006072604185,27.186770211555995,61.268436904472765,72.59480823553167
2025-12-12 20:52:10.756619,Right,26.851037023763638,63.12899083143566,23.102040627331007,46.14218854269711,-144.7734849654953,26.55925176414894,59.851360257540364,68.8000907083042
2025-12-12 20:52:10.760736,Right,-40.41578552802093,-19.44898622611072,-61.931101436319295,-3.281544750148896,-103.90091223799755,-37.77514918491943,-13.801131860585883,-20.700183896929957
2025-12-12 20:52:10.764716,Right,-92.3353631759528,-84.81823591218563,-129.11284596420592,-60.62274777085986,-102.99401263339496,-86.5223773389589,-74.83468559331959,-92.28132250899216
2025-12-12 20:52:10.767725,Right,-68.7538313861005,-60.60840048373211,-105.83864090347197,-62.03576996875927,-168.17199506868064,-64.37851446229615,-57.291781579726376,-70.00791191105964
2025-12-12 20:52:10.770733,Right,-23.032171171391383,-7.007217102102004,-53.32517645927146,-20.442330245277844,-188.90349668214913,-23.171819583832985,-11.683012607507408,-15.955696019809693
2025-12-12 20:52:10.774732,Right,-35.595366031018784,-20.09306949673919,-67.02468042384135,-12.924569603579585,-127.99524874352937,-35.89732524618739,-22.567542870063335,-29.245919297798537
2025-12-12 20:52:10.778734,Right,-95.74024040525546,-92.69841423939215,-138.37645799579332,-68.97598013130482,-105.43550531086294,-88.92562699198606,-84.84326095320284,-103.55189397593495
2025-12-12 20:52:10.783709,Right,-131.45824135752628,-140.29841596609913,-183.87181129615055,-125.77796687203227,-179.55190738081728,-116.41228673842852,-124.52293708387879,-153.15263069898356
2025-12-12 20:52:10.787734,Right,-119.46004308367264,-127.95750620847684,-171.15024520491716,-121.01960666981176,-227.9948991974088,-101.76729486323893,-111.50471731030848,-141.50226757937344
2025-12-12 20:52:10.790777,Right,-102.17384300124831,-102.42469276141492,-147.07336882923846,-83.01311530492967,-165.70807299804437,-86.39674214602564,-88.92344502478954,-115.49228025457705
2025-12-12 20:52:10.794733,Right,-112.99905305712309,-111.70331578774494,-157.15650729474146,-83.86863476104918,-107.84216905444919,-99.09718245998374,-99.93078292696737,-126.0645138270047
2025-12-12 20:52:10.798816,Right,-140.1254833014391,-150.02423025565804,-194.63452402316034,-133.08545325280284,-167.89511805526854,-127.55158866275451,-137.04827366417157,-169.89652562062838
2025-12-12 20:52:10.802807,Right,-159.4563580533868,-182.71623661820195,-226.37733494275017,-171.1703633795987,-249.8225170136866,-149.5640176658635,-166.64024472693563,-209.28459531618864
2025-12-12 20:52:10.806841,Right,-161.75005377735943,-186.93074813953717,-230.1579716888955,-161.20242119002796,-216.48270807148947,-154.41484926753037,-168.77446534129558,-214.99076674468233
2025-12-12 20:52:10.811850,Right,-150.58793350187625,-167.82358316812315,-209.7678635285847,-136.45864279515808,-134.22969332399953,-142.2846723095572,-150.56987675056735,-191.4298309108708
2025-12-12 20:52:10.815866,Right,-144.362721269983,-158.8985000497778,-198.5220920569045,-146.28238673919986,-152.11465930432314,-131.6316495862484,-142.31003270627116,-179.24808181040862
2025-12-12 20:52:10.818877,Right,-168.70115124672702,-193.9858503134019,-232.08454448491466,-191.36920342119993,-237.31336549678235,-151.4352134300716,-172.51059324400558,-217.41081012383802
2025-12-12 20:52:10.822886,Right,-216.8532254278996,-256.13001164473826,-293.91935244682145,-231.42505086124947,-243.27344506949885,-197.18941326797358,-226.1792524578923,-284.4096688941718
2025-12-12 20:52:10.827844,Right,-239.68001761733467,-281.8811843199146,-318.39430250619625,-237.09801565166526,-174.7322826103191,-219.65767265584145,-248.56794520661788,-309.1157942185491
2025-12-12 20:52:10.831902,Right,-212.4795591406073,-248.39713547063275,-281.61793716120883,-218.36746991303517,-165.71696529188193,-193.8515574624107,-219.14709899719264,-269.289352377843
2025-12-12 20:52:10.836941,Right,-184.30122724997636,-219.6454558307305,-249.80404738387006,-209.05331445379124,-227.69920769851888,-168.46746259149222,-192.9415563751154,-236.99410980080938
2025-12-12 20:52:10.839917,Right,-211.47292547444522,-257.9179268115113,-287.2767413655092,-230.23869928224303,-238.38663707490196,-197.6001199051243,-225.36180953975418,-278.1358793138861
2025-12-12 20:52:10.842924,Right,-266.75704027412576,-324.5077585104009,-353.90405823031324,-266.0024738145803,-177.44609495971235,-251.54416323960322,-283.94474301151786,-348.4586855959642
2025-12-12 20:52:10.847084,Right,-277.75818772065395,-335.1574752053566,-363.2383930961514,-279.885412636344,-160.45447816472733,-258.91313792101573,-294.15285515725554,-358.42007227419526
2025-12-12 20:52:10.850963,Right,-242.63147761784785,-292.2924144490389,-318.5344000340847,-262.7054751556134,-216.10193384400918,-220.77863247097412,-256.1152551665873,-312.98114429274574
2025-12-12 20:52:10.855916,Right,-233.51631278275454,-281.010563969161,-306.88988790262374,-250.72406147063884,-234.60480292123975,-209.14187442569528,-244.35764741558523,-301.98686734562216
2025-12-12 20:52:10.858986,Right,-278.7935985777003,-333.1724668076786,-359.5210817675106,-277.40211427633767,-181.61645344202407,-250.292440370642,-288.76649937205366,-356.61930427124025
2025-12-12 20:52:10.862990,Right,-318.9172041032871,-380.68527478325996,-406.33656619815156,-321.2631298614724,-165.32471560040722,-286.03467412681493,-330.34709102785564,-405.21812147970195
2025-12-12 20:52:10.868029,Right,-306.10195851293975,-368.6651724249241,-392.786972008209,-333.41042767840554,-226.23190941329813,-272.21655505290255,-319.46404667774914,-392.72909836267354
2025-12-12 20:52:10.871002,Right,-276.6239581227128,-336.2427561112272,-359.72002601705026,-309.524616457551,-252.07492839658516,-244.75451898976462,-289.7097275744309,-360.59772816338227
2025-12-12 20:52:10.874016,Right,-281.71463778286125,-341.51389259527787,-364.76683306414634,-294.95282384441816,-188.3418267411471,-250.8335348102264,-293.69409206410637,-367.163834044768
2025-12-12 20:52:10.879044,Right,-306.90916528282105,-371.79595272042206,-393.4526522102242,-314.7609829622961,-149.41129936336074,-275.0576621268119,-321.7620285334706,-398.6345206318074
2025-12-12 20:52:10.883030,Right,-311.16092078443035,-382.02346806263085,-401.294844923832,-339.6045051565452,-210.93349113196018,-279.8726369427459,-333.31715434309444,-410.37351553473854
2025-12-12 20:52:10.887003,Right,-298.584879944945,-372.05054107811884,-390.4065056948457,-336.3773024188704,-265.1407226175943,-270.7276185900264,-326.144772548083,-402.49304762046086
2025-12-12 20:52:10.891077,Right,-297.40101410471834,-369.93560313945636,-388.68526786757866,-317.04013961934834,-215.16805701618432,-272.14840728978743,-324.32868412611424,-401.1669638903113
2025-12-12 20:52:10.895077,Right,-303.77842208603397,-375.5041246783803,-393.42162469861796,-312.5321526521002,-153.486085549579,-277.5584611938393,-328.4028249720868,-405.2907851448981
2025-12-12 20:52:10.900041,Right,-299.40181429794757,-373.6449199147755,-388.85409995896043,-324.47467783489265,-191.5176079144294,-271.2516980394139,-325.3945573994424,-402.23800106777344
2025-12-12 20:52:10.903098,Right,-296.3108552368358,-375.0938211430912,-387.9010709086433,-331.99098849028815,-253.45747187986854,-268.7389373348269,-325.24311015586136,-405.014100332628
2025-12-12 20:52:10.908107,Right,-313.2648628533934,-394.2491968567483,-406.14850933256093,-330.1399745703675,-216.53997164632892,-287.9397076809837,-342.42944875115063,-426.3758037693333
2025-12-12 20:52:10.912126,Right,-331.1752086886554,-410.4707471547299,-421.5047042061924,-331.7721102118958,-138.34136874671094,-306.9795547568647,-360.09157187875826,-443.14809801470255
2025-12-12 20:52:10.915142,Right,-322.21182838850655,-399.6451360541396,-408.8374119364307,-339.2814194720704,-150.813189003733,-297.71126561181154,-355.10240817599697,-432.1159658347606
2025-12-12 20:52:10.919167,Right,-303.18897572834976,-382.72210196207743,-390.2880784998415,-342.280964507896,-218.997122623201,-277.9747564988793,-342.149723070208,-416.2114651717129
2025-12-12 20:52:10.923164,Right,-308.7504133210168,-393.3116467708023,-400.3102903413237,-340.19365876627853,-210.20535478781676,-281.9021038610372,-349.6459594875341,-427.6455922050518
2025-12-12 20:52:10.927125,Right,-327.840063333686,-415.95421621989226,-422.1069260450313,-341.8424415013287,-140.53767099347897,-298.1865182793699,-366.5936267070356,-448.3419043037575
2025-12-12 20:52:10.930190,Right,-321.88843191147316,-410.57125944353174,-414.4683873273316,-344.3313660566346,-140.09524688409874,-290.74688297795365,-360.45178201340605,-439.61857719317777
2025-12-12 20:52:10.934205,Right,-296.07125367666595,-384.8442790664849,-386.41454948839964,-337.3617527340539,-207.17460729466984,-266.87985037238104,-338.24188872234663,-413.2715499724145
2025-12-12 20:52:10.939236,Right,-293.2629139982164,-383.3470857422799,-384.1863073806162,-327.52815275243483,-213.22217822336825,-267.4505281562451,-338.72813087463146,-414.71053838846274
2025-12-12 20:52:10.943255,Right,-318.52602822857443,-409.8511101313634,-410.830535284651,-332.19321276037954,-146.47384265629807,-294.45189067482715,-365.4093409741181,-444.5419466866297
2025-12-12 20:52:10.947314,Right,-330.7798388695228,-422.2583734834334,-422.874263864418,-348.44649786019,-134.2530070595676,-307.6932300395565,-380.2752014863654,-458.6097315454972
2025-12-12 20:52:10.951256,Right,-316.20497365493793,-407.8463389255339,-408.31839572865283,-354.31091408774955,-201.00534586445428,-296.2008202338475,-369.697192512569,-445.1803679962177
2025-12-12 20:52:10.954327,Right,-308.5618770070141,-400.8289658431895,-402.53715459426166,-343.69605177943595,-218.01334736216813,-292.9062496391707,-362.83033712400356,-438.9272397896857
2025-12-12 20:52:10.958292,Right,-323.2493521144497,-415.0890148972394,-418.1575668475125,-335.41554591135355,-143.09549792931648,-309.28173642157344,-373.63426355825504,-452.2290048401337
2025-12-12 20:52:10.962307,Right,-330.96464079624275,-421.1242544619017,-423.66130074561806,-341.7876567939529,-102.61622419540072,-314.9962325169472,-377.9593900376931,-455.80896257667337
2025-12-12 20:52:10.966315,Right,-316.4676390590612,-406.2634931963985,-406.8943115911097,-350.7328726784326,-159.32849789015017,-298.0617767966469,-364.3630769511801,-440.00971969997045
2025-12-12 20:52:10.971263,Right,-307.7744675578433,-399.5625321608968,-398.7624142691493,-348.7652709745453,-196.5497240097029,-288.67398338369094,-357.47092300315853,-434.55916905694176
2025-12-12 20:52:10.975331,Right,-321.4351528424304,-414.4174311402021,-412.3839887068607,-341.8813079878455,-134.61724493495421,-301.69364325673087,-369.597810256877,-449.00860126758926
2025-12-12 20:52:10.979341,Right,-330.16199937305646,-421.0444433153607,-416.37778577010613,-340.45477604074404,-78.09378866065526,-308.1708694861154,-375.3465609444538,-451.17412190302275
2025-12-12 20:52:10.983368,Right,-316.2072718712734,-404.66849112452473,-396.5295262384461,-341.17438486468745,-121.8684639884159,-291.67114410561044,-360.6802226661239,-429.5066338060424
2025-12-12 20:52:10.987388,Right,-308.8102242103778,-398.78345817886293,-388.34639093547594,-338.6604597925325,-177.72093636309728,-282.8378039050149,-353.63482992351055,-421.1965840825578
2025-12-12 20:52:10.992400,Right,-329.7645598843228,-423.62533293524757,-411.679997857078,-338.0362925208756,-140.77296764741186,-302.53259586700005,-372.85510832752334,-445.0816324966727
2025-12-12 20:52:10.995425,Right,-346.01144325034693,-440.87397897278424,-425.6404506410472,-340.67138565692585,-81.39018092112383,-317.2053875060519,-386.5262062312104,-459.7136777478736
2025-12-12 20:52:11.000432,Right,-324.081043378741,-416.59409598703496,-395.8170700748451,-335.1421341942623,-105.92524229886476,-295.1773656568839,-364.69819848495536,-432.0016082188813
2025-12-12 20:52:11.003435,Right,-293.0797055224539,-385.1432209738996,-359.23946317413356,-318.94607337220805,-151.6751832391601,-266.24812717421446,-336.0878409756697,-399.3135380623862
2025-12-12 20:52:11.008397,Right,-297.9476168251713,-394.0430233803345,-365.38768682954833,-310.36904702085303,-101.51715933164814,-272.99649639445124,-342.44596769841155,-408.9671517808456
2025-12-12 20:52:11.012468,Right,-321.39853416691767,-421.7963668400189,-392.0153602390783,-319.4213361198781,-1.20535233913688,-296.60719061939744,-366.1579643616569,-436.8362416215241
2025-12-12 20:52:11.015468,Right,-314.12875560019165,-414.42306194861885,-384.6095645579044,-325.9416045988328,29.381886003306136,-289.740609910863,-359.9243219392374,-429.0717461955501
2025-12-12 20:52:11.018422,Right,-280.77316495851846,-377.73332927841693,-350.40559387614485,-310.3875282793888,21.479988467297517,-258.3581265466055,-327.84499014762696,-394.3035567214247
2025-12-12 20:52:11.022445,Right,-270.14074486884056,-365.01123155932873,-343.0504366346868,-289.6151502234279,90.98790333722718,-248.24562895065174,-316.859126616444,-386.2281265812926
2025-12-12 20:52:11.026533,Right,-290.1839594732155,-385.9129685726948,-369.5160783221945,-292.51631373743294,203.65624163113534,-264.20308897603536,-336.6581964418874,-411.5295389390085
2025-12-12 20:52:11.031527,Right,-298.0981436918373,-395.55190352967475,-382.42134020791855,-311.3401178124477,220.10732112708502,-265.78646606591064,-347.50017723534256,-423.29124168201815
2025-12-12 20:52:11.035540,Right,-276.5945325793582,-374.23629730415996,-362.8866401774576,-311.8316902316874,147.25179624999873,-240.58024073281558,-330.1591083294479,-402.53922540461645
2025-12-12 20:52:11.038573,Right,-258.0685554998927,-354.0863926652819,-344.782267974806,-288.0368042541668,127.66571781883249,-221.03551007411443,-312.2920355682727,-381.9969199380139
2025-12-12 20:52:11.042555,Right,-262.18332175392425,-356.41931887588,-348.59228650992736,-270.5768024351564,180.3269456444541,-222.49741760944016,-314.1123516783118,-382.4468391526025
2025-12-12 20:52:11.046584,Right,-266.9247264103615,-361.20111123553943,-352.56003240682185,-276.67793341056677,172.1135953940684,-221.3930926656467,-318.83806777454447,-384.7804192190524
2025-12-12 20:52:11.050600,Right,-257.5466875153943,-353.7395274883602,-342.87404784269165,-285.9925136602833,73.15416600287426,-206.03202513349243,-312.6381550496444,-376.3776007111883
2025-12-12 20:52:11.054598,Right,-251.53913367714267,-348.7791013728129,-336.38185124413576,-276.9837136634742,19.918901772995014,-196.305804130272,-308.10077537910547,-371.2719298215816
2025-12-12 20:52:11.059549,Right,-256.80310124950483,-351.7342429762939,-338.40123174875043,-259.37904634454753,66.58726262429263,-199.1262791196932,-311.3385485057952,-371.8513323322404
2025-12-12 20:52:11.063611,Right,-253.45963081723312,-344.6354624419473,-329.7070560468128,-253.80131540208822,85.97609781165374,-193.34666924545309,-307.21941365196835,-360.26522575563285
2025-12-12 20:52:11.066612,Right,-237.12552950624377,-327.5842110561207,-311.2700164419366,-259.73918797064107,4.735380074416753,-175.13219603494508,-294.22148631548043,-340.6632931897184
2025-12-12 20:52:11.070643,Right,-234.01916179258842,-326.88653054565657,-311.43846356868744,-262.4804171571159,-62.425252815010026,-170.96970826684264,-294.13831038202625,-341.08492623246275
2025-12-12 20:52:11.074652,Right,-249.8818891600822,-342.75272573460825,-329.8882295386866,-256.6145687504322,-26.207450079498813,-185.57969000173034,-308.2049657522002,-358.13610731926747
2025-12-12 20:52:11.079659,Right,-250.27548761898652,-337.7306596474955,-326.49683142616414,-245.38282531616278,13.659079772187397,-184.63887928589247,-304.57270346349105,-351.09510516608134
2025-12-12 20:52:11.084669,Right,-220.78811103111366,-302.05309482081793,-290.9093327134615,-229.88400191348046,-44.64987075695535,-155.44013437588,-273.4567110844655,-312.30329037236515
2025-12-12 20:52:11.087686,Right,-200.17746625217842,-279.965165797621,-269.4334390433505,-214.0932524416712,-118.80993959488114,-136.51929000584641,-252.38970320404042,-289.3663503964199
2025-12-12 20:52:11.090633,Right,-216.63019630807685,-297.5898373477394,-289.0519585784059,-207.80091896204976,-100.53700273740105,-152.96875440859003,-265.2196061532013,-307.02734117023647
2025-12-12 20:52:11.094696,Right,-236.18762792320922,-314.73593741934747,-308.0848582200706,-210.79827343585202,-57.09818524803268,-169.4994205252733,-278.1828868741868,-321.72312011313625
2025-12-12 20:52:11.098694,Right,-219.73618136293953,-291.5672603660496,-285.9815689653624,-207.31875737180235,-100.09075704828138,-150.32295150996652,-256.4036894980818,-294.8869165823562
2025-12-12 20:52:11.102765,Right,-190.5510099955136,-256.958070140332,-252.7332585544791,-190.17181315011112,-172.85001727205236,-122.34390698984498,-225.01215018844232,-260.0410652087303
2025-12-12 20:52:11.106744,Right,-191.76678887422895,-257.4148836702807,-255.0853772457922,-175.59131088881986,-157.58470093575306,-127.71110934240278,-225.63027428422356,-264.7009391770698
2025-12-12 20:52:11.110693,Right,-208.37298887228826,-274.9051902771462,-273.55277823016513,-175.98619442037307,-99.29749791417271,-148.39172911533387,-242.80251470953226,-287.3834159778198
2025-12-12 20:52:11.114757,Right,-192.80354590376373,-257.97923112055287,-256.29543912922964,-174.3181150063756,-123.40546187170548,-136.86487505031982,-229.76414396747714,-274.42706127802376
2025-12-12 20:52:11.118765,Right,-149.95678248786135,-212.05698688770644,-210.3291994347237,-151.42163685103878,-200.32145176938502,-99.75887007510755,-189.54206577898003,-231.89219386060722
2025-12-12 20:52:11.121800,Right,-130.86081936070696,-190.6754908747971,-189.85309794952627,-123.88085523957852,-199.75449143443257,-87.35337868792703,-170.25350448238896,-213.16311219660565
2025-12-12 20:52:11.125816,Right,-146.89903744956246,-205.36667400901206,-204.75463445612695,-122.2451662652893,-134.77514794137096,-109.17454256169731,-184.74731031357078,-228.37020748492796
2025-12-12 20:52:11.130826,Right,-156.76353832462337,-213.1220688156318,-211.09012746292865,-141.6889678868465,-138.0264272177592,-124.55706988397287,-195.31174446776276,-235.16450157458894
2025-12-12 20:52:11.134822,Right,-142.53942270792322,-195.1985669817077,-192.0044173951028,-149.10972851724364,-213.30872322549112,-117.13948853779584,-182.65302297699964,-217.3690955339698
2025-12-12 20:52:11.138845,Right,-133.43214962922502,-181.30032895866316,-179.0350017484161,-134.8850700064795,-227.9722994597978,-114.71967380103888,-171.3301377548487,-205.01678813016042
2025-12-12 20:52:11.142862,Right,-142.56808416568674,-185.7424255888327,-185.24006605823524,-122.84489481721539,-161.744797083491,-127.46379160054494,-175.05469994683517,-209.84155933454167
2025-12-12 20:52:11.146879,Right,-142.80373168870574,-183.02880359924166,-182.9504479925381,-126.9997741553816,-146.27266346802935,-128.33254992577713,-172.2747195015545,-205.3559396638302
2025-12-12 20:52:11.151832,Right,-123.89871198975015,-163.56039852107642,-162.87686557980487,-132.113886823121,-219.63391380623216,-109.78413796878885,-153.8653815520811,-184.1636576502351
2025-12-12 20:52:11.154835,Right,-115.58756551286206,-154.82873544085305,-153.89903377759038,-125.49808550067246,-253.95876639289781,-102.1556317145587,-143.9632744481787,-174.80206628411543
2025-12-12 20:52:11.157919,Right,-129.8848602149519,-165.45094661181793,-163.96860494848806,-117.32296201906865,-192.75414454570273,-115.53582060546614,-151.40351029246813,-183.67637109360658
2025-12-12 20:52:11.162953,Right,-134.99898194719572,-163.7455278453417,-159.9840867187013,-117.01466810121201,-156.14733056537807,-117.9435355392634,-148.476288098027,-177.90582220850047
2025-12-12 20:52:11.166934,Right,-114.61125299654668,-137.79152063064976,-131.17257058690302,-116.15424209547928,-217.43750770424958,-95.64671852381434,-123.25820440374082,-148.1172772986465
2025-12-12 20:52:11.170955,Right,-100.85622179997154,-122.85270593391033,-115.38312196085462,-108.79349815496244,-267.00928809144534,-82.1858107172884,-106.63021894620033,-131.78517759748502
2025-12-12 20:52:11.174902,Right,-116.08733396366006,-138.97321927553276,-132.78703989263158,-106.02922623621998,-216.5179960039095,-98.33805140614277,-118.44042367377551,-147.15696457080776
2025-12-12 20:52:11.177980,Right,-130.51932894141646,-152.39008005714277,-147.56424808484735,-114.63134881254518,-162.02101636485895,-113.19915061548818,-130.371593536227,-158.0928714517504
2025-12-12 20:52:11.181919,Right,-114.8820262060035,-133.82233043084852,-130.02678278944222,-120.10450406506425,-203.31559272005688,-98.87923459056765,-114.82167338015279,-136.70106953958748
2025-12-12 20:52:11.187987,Right,-92.38519671402173,-109.0996675962233,-107.69193271937547,-109.32637247280218,-258.66595995571697,-78.98831508366857,-92.00516304600751,-111.35684963373933
2025-12-12 20:52:11.191001,Right,-95.39843456191011,-110.93600615812466,-113.49953684053617,-93.69639060186455,-219.98944826895604,-83.16886633774266,-91.06930181628559,-113.88693177053938
2025-12-12 20:52:11.194948,Right,-106.71968959388323,-120.50297837302787,-126.44873423763784,-89.07959686330287,-155.68301145767327,-92.8110098799225,-97.55651755299186,-123.08305299893254
2025-12-12 20:52:11.202032,Right,-93.28213541052537,-105.074856990017,-112.55904362915317,-88.0349084281479,-180.69315311475657,-78.19675115088467,-83.12941276183119,-107.01088428637013
2025-12-12 20:52:11.205034,Right,-68.28935333009576,-79.65435782296117,-87.84044588368852,-74.90874625690049,-238.60888457292458,-55.86525570828235,-60.05020142963622,-83.16915457468713
2025-12-12 20:52:11.209067,Right,-65.34678719786461,-77.25461651844671,-85.6999146110029,-55.31638561328873,-206.09501416003332,-57.69931221753359,-57.726308697951026,-83.84960712428438
2025-12-12 20:52:11.212070,Right,-74.32476083259098,-85.4781150338822,-92.29297919175588,-46.15292308997596,-125.28515066823456,-70.53805709356675,-66.55616955045843,-93.63832878373796
2025-12-12 20:52:11.215086,Right,-60.67342433024896,-69.9756275586551,-73.01975764730014,-45.814533038355876,-128.28118754632305,-60.5783185204491,-55.78928894060664,-78.01469942001859
2025-12-12 20:52:11.219092,Right,-32.61597839335445,-41.217458182014525,-40.87646783806849,-39.83900109666865,-193.02080787951127,-37.5916888123611,-32.53608000429813,-49.83899640117306
2025-12-12 20:52:11.223039,Right,-29.24326420063153,-38.21500212902902,-36.865505274094176,-30.016162181273103,-185.69429124039016,-38.629453241534065,-30.66629391827155,-48.055874941521324
2025-12-12 20:52:11.227113,Right,-49.132647977327,-56.966800285561476,-55.67113981139846,-30.8058577318443,-110.18379475819529,-59.8225412737811,-48.20189086702885,-66.04706773010548
2025-12-12 20:52:11.231129,Right,-51.69146006461233,-56.48342311475426,-54.28493251110194,-39.65136180981062,-99.01683851151029,-62.70851010805927,-49.44521853973856,-62.827819722064305
2025-12-12 20:52:11.235148,Right,-29.27942450233968,-31.94395618303679,-28.617683921474963,-38.2545012034243,-164.32642974914052,-43.46321035613073,-28.53807463007979,-36.95607084449148
2025-12-12 20:52:11.239148,Right,-17.08239886420779,-19.78716658806661,-16.923417941026855,-23.98233413946582,-175.33888304739958,-36.41047809724114,-16.932617281912826,-26.152015926723834
2025-12-12 20:52:11.244187,Right,-25.89212722738739,-28.442103514855262,-27.097093912307173,-14.40132389147766,-103.25932251062477,-48.0618999840226,-23.701806634431705,-35.993507352424785
2025-12-12 20:52:11.247239,Right,-25.686590048164362,-26.215304953919258,-25.764765995903872,-17.33810477697989,-73.652625950519,-47.39621241774876,-22.256574089929927,-32.845152944501024
2025-12-12 20:52:11.251196,Right,-7.965171642106725,-6.55503995437175,-6.840569400170352,-20.679099666362163,-128.58858656542725,-28.932384420215385,-6.0732794320210814,-12.179840264725499
2025-12-12 20:52:11.256274,Right,-4.981989433232229,-3.8396219544811174,-6.291856021620333,-17.50015326673747,-145.753169919044,-26.443004926637514,-4.433274582610466,-10.226007700548507
2025-12-12 20:52:11.260333,Right,-26.663042113825213,-26.734627725731116,-32.203590007149614,-16.887462351412978,-67.8302268119005,-48.36871711839922,-25.410252032772405,-34.00678883783985
2025-12-12 20:52:11.263317,Right,-33.99450297610019,-33.97459197550779,-41.425470522022806,-20.441019664838677,-13.473710650432622,-55.71036677254597,-33.15360355126904,-40.71137304790318
2025-12-12 20:52:11.266298,Right,-4.140714526962256,-3.2104054308729246,-11.832681839267025,-12.76356025482528,-60.61430196443689,-28.196848739578854,-7.060065583093092,-9.895561861223541
2025-12-12 20:52:11.270276,Right,27.48787796337274,28.41918445142801,17.7722475421906,10.151827849244,-104.47419107655878,-1.08030450635124,20.89312314183917,19.33751459728228
2025-12-12 20:52:11.274307,Right,25.947163634147728,26.478976601618342,13.449853466212517,26.59826250432525,-53.916186820715666,-5.093401196150808,19.28580755245639,14.27868406160269
2025-12-12 20:52:11.279309,Right,13.076596242113737,14.475264437816804,0.961983692861395,21.55218619131483,1.1585746118507814,-16.72449103737017,7.831080596311949,1.0521061827021185
2025-12-12 20:52:11.283339,Right,23.73361422138987,26.871819507854525,14.860086516826414,12.281613262952305,-37.43942397326464,-4.985760146140819,18.140407666825922,13.564825099601876
2025-12-12 20:52:11.286342,Right,45.279934450867586,49.396506243763724,38.499075774569064,20.955570543650538,-89.4141948208271,14.437193148885854,39.288935935474,35.793466270377394
2025-12-12 20:52:11.290363,Right,47.04689783594222,51.515639768505935,40.4931205601315,39.610179549403256,-45.92757424197043,13.208472538040951,43.56532943691127,38.149803313601296
2025-12-12 20:52:11.294360,Right,38.01724488585023,43.712572658463614,33.09760661656037,45.94616633793339,25.378253454895457,3.266761045670137,37.95236793367076,32.8577839974314
2025-12-12 20:52:11.298306,Right,45.427960156754125,53.53368571057217,44.66216332252952,40.27405882260064,5.664805471227737,10.63471192526049,46.179240137396846,45.84679486727691
2025-12-12 20:52:11.302400,Right,59.62900815409375,70.6781738079153,63.25588896285626,39.983667706750566,-52.93035256539588,23.804070380108897,60.41854393578251,63.76076296612155
2025-12-12 20:52:11.307386,Right,52.80178467379301,67.64815729646944,60.58902041731926,46.83017871782067,-24.828697225340875,16.839363265782595,57.00108552214806,59.6928275358805
2025-12-12 20:52:11.310358,Right,35.79157641271013,55.681133003818104,49.623247936106054,48.105892537831096,52.30723381652206,3.068949061911553,45.59569247093168,48.29815247983788
2025-12-12 20:52:11.314387,Right,41.520265176019166,65.95383087126538,62.61875024532492,44.717090808349894,44.814932870911434,13.955022042704513,54.49635946415947,61.555468960577855
2025-12-12 20:52:11.319418,Right,63.11682143426151,89.37352365878178,88.69859211833682,50.07374436939426,-28.528526527559734,39.59512781686499,76.78458564696484,87.8211477084842
2025-12-12 20:52:11.322434,Right,64.35094019811368,90.89385330249206,91.06653053114132,62.63784688472515,-29.33856438708608,43.875019540428184,80.51339997904142,90.94959220450255
2025-12-12 20:52:11.326445,Right,46.03985345172987,74.78489726639236,75.19855807659042,66.57817055757914,46.19855824505794,29.355115710190148,67.17235336346494,76.91431915928842
2025-12-12 20:52:11.332451,Right,44.61111237369187,77.49793593042705,79.30859878576302,60.571964022135944,63.563270537983044,31.0711482156039,68.77520327590173,82.28739974739437
2025-12-12 20:52:11.336482,Right,63.90871099970536,98.79383871910977,102.22374962193135,59.83529824594734,1.142962583588087,49.521524563853745,87.11836936142936,103.98738313557988
2025-12-12 20:52:11.339488,Right,68.96038328279974,101.95712585863657,105.65331129769766,68.54520419503388,-12.899194530167733,49.95288343275024,90.5062087654951,104.34353817046212
2025-12-12 20:52:11.342489,Right,54.44136946767685,85.29044303280534,89.05420872596005,75.22187397400558,56.095871516750776,31.013130140840076,75.99736478581326,84.97450780763756
2025-12-12 20:52:11.346504,Right,57.1030514119484,88.97489556243818,94.59327789559757,76.86997185423388,83.44836065465643,31.764369768221513,78.51602015379467,88.85804504167754
2025-12-12 20:52:11.350535,Right,86.24739150560345,120.69255669711856,129.162137339139,83.57456840357918,19.246834358818887,60.29140331596136,106.40050927152333,122.16955492977286
2025-12-12 20:52:11.354557,Right,101.63861771393567,136.9057165158447,147.11180482669988,94.56566581898369,-17.24700193762692,75.43338830699213,122.04821132325742,139.18732536917378
2025-12-12 20:52:11.358560,Right,83.01558004002436,117.54348382324679,128.63081677478476,94.04667287560733,40.11299931273243,57.91548488367698,106.14754458591051,120.7410364508396
2025-12-12 20:52:11.362573,Right,66.83605106124014,101.46437475273706,114.42179981247227,80.34426966289175,81.8175389053431,43.71377979684621,91.44012089719035,106.56341460141994
2025-12-12 20:52:11.366579,Right,82.44019436498638,118.25036040104169,134.00820285921327,74.51904406359972,29.381657803969574,59.30525469125132,104.81850643021608,123.98751658287074
2025-12-12 20:52:11.369648,Right,102.33870632528851,138.88165540147747,156.6803528014534,87.05015451190411,-16.736835132614942,76.56739166728948,122.10038265503681,142.23815284618468
2025-12-12 20:52:11.373603,Right,95.47633158113604,132.50505564781633,151.50378095462293,100.20471035235823,33.826227366404055,67.88791686338664,115.71871836698847,132.6551266806855
2025-12-12 20:52:11.378614,Right,82.85332040858339,121.42089119292359,142.2794172293361,98.17322714639158,90.10275772120076,56.41449551437108,104.41278553293887,120.3155808239535
2025-12-12 20:52:11.382629,Right,94.44383769698834,134.68833568853006,157.96703879264533,91.98477002362415,48.928871296819125,69.32428613220691,114.58850327238542,133.54062261398576
2025-12-12 20:52:11.386648,Right,111.66918065220307,151.6984425096125,176.21698552517046,96.75186951673459,-11.485957939979016,85.05206641530094,129.40582533884117,149.73894802567702
2025-12-12 20:52:11.390608,Right,102.92146362787025,141.49463227530623,166.2419656926868,104.03300643502735,23.337071773601792,73.61663580822642,120.88620585358058,138.82959227735682
2025-12-12 20:52:11.393616,Right,83.84190239209056,122.24306375809329,148.76249475360964,99.08572549038945,90.69290357980753,53.495874626481964,103.3641502463438,121.08830292787206
2025-12-12 20:52:11.399682,Right,88.91953089340677,128.67534035401331,159.46747318303096,89.82050553791578,67.93431474134923,58.328694163014006,107.86598542184038,130.48347694930635
2025-12-12 20:52:11.403642,Right,108.1792640678027,148.71729378119198,183.926053442774,93.35523896759014,1.8018827067317034,75.66664552495058,125.63642596066529,152.35939085004065
2025-12-12 20:52:11.407698,Right,107.95466649564719,148.18724576358,185.68926771983388,105.44054348717509,21.159764945467032,72.24365497274994,126.39934754665592,152.13264074533436
2025-12-12 20:52:11.411745,Right,95.2160902162559,135.88119042869948,174.12446226211614,108.94546402200467,95.81340564250786,57.55651844163549,115.77086244465318,140.1222975816163
2025-12-12 20:52:11.414725,Right,102.900348142457,145.3964598169332,184.22172744806448,104.43471372693966,92.11280193649873,65.50221948771832,122.85204243389308,149.94580561712792
2025-12-12 20:52:11.420696,Right,124.43567319201611,168.5345159563076,207.58089404144266,106.70567872576794,21.60274038543139,88.83105793852792,142.14493274275446,172.09290084066743
2025-12-12 20:52:11.423704,Right,122.96770372468745,167.8539629824154,206.5345536138775,115.95538546457101,18.618056213541422,90.88997034582363,141.58097828661266,170.0829308005341
2025-12-12 20:52:11.426765,Right,100.05356408328953,146.55235487950267,185.81963271697168,118.1442556600341,89.86504095989221,73.43620573971384,123.27449438483745,150.08696962519025
2025-12-12 20:52:11.429784,Right,95.1239630367927,144.1196492762101,185.9467437472049,112.6416927885075,104.12758116130863,73.20351591710096,121.9885075964703,151.86890382724232
2025-12-12 20:52:11.433731,Right,115.19688178288925,164.48829896542156,209.0586809990491,114.14240511672688,39.29912583467376,93.71269460012081,142.33259871273185,176.19684564661293
2025-12-12 20:52:11.438789,Right,123.6596808245522,169.38540556866792,214.80990684157587,124.39218467431056,23.42881714354735,99.20227703261116,150.42554373660096,183.20016566259437
2025-12-12 20:52:11.442823,Right,107.44842109218007,148.48855509640998,193.77094664616743,126.68956119492941,93.83889804592764,80.8166594152899,134.91808023198973,164.47656263876706
2025-12-12 20:52:11.446862,Right,98.626017156319,137.1065290656552,183.27215946969227,115.33203176755342,125.879630105861,72.02495612023631,125.45880488440162,156.3959017336747
2025-12-12 20:52:11.449831,Right,112.19286553036363,150.03440724028042,197.58859278971795,106.38609227179404,65.13569515477866,85.53765570748874,136.20951485731348,171.42691038004705
2025-12-12 20:52:11.453894,Right,117.49436128616071,154.99481022174587,202.4715671801241,109.37575766689406,29.335342855541967,89.85275356834609,140.1869501501642,175.58160572881752
2025-12-12 20:52:11.457853,Right,97.44815450033639,135.1127129719098,181.4389186911576,112.18432045749068,89.37853830863605,69.92219332425884,122.26547315412608,154.15579618052288
2025-12-12 20:52:11.461867,Right,83.92285921670555,123.06176906487963,169.42345440137433,106.20051762554795,138.44668252665724,58.385984430176904,110.86918194625468,142.44038285950955
2025-12-12 20:52:11.467865,Right,100.79649546468863,141.49475156958215,189.23098695429508,103.08829166718351,92.98681635591493,76.9577117305671,127.10839329882583,162.10538009164156
2025-12-12 20:52:11.470902,Right,120.13629738090094,160.63701014169783,208.87876633365522,111.82237844917108,48.27663840880268,96.0824710097877,145.45407147874357,181.0763829733769
2025-12-12 20:52:11.474843,Right,112.94247087169788,152.13364776175877,199.26221870575682,119.66662086934957,97.46810206773807,87.94303313807177,139.209481707323,171.4624477026373
2025-12-12 20:52:11.477929,Right,98.77656214570743,137.47493524530728,183.44174489579746,112.46408467354195,154.81224049844604,73.50837959015189,125.268982044523,156.49388288716727
2025-12-12 20:52:11.482924,Right,104.21418676173198,143.0074488511891,188.32317089370918,98.21995586015692,115.78197448012361,78.53713941416208,127.4017506710079,161.77261969920073
2025-12-12 20:52:11.487961,Right,112.21633273853513,150.13931775696983,194.04271443761536,93.13764987383911,54.40555893657438,85.05217093513056,131.35152313459548,166.97638170051505
2025-12-12 20:52:11.490971,Right,97.50186278810725,134.1210284600238,175.90061392475036,95.86587050984963,87.27701728555257,69.17836655702558,115.90525156163494,148.5479728365317
2025-12-12 20:52:11.495966,Right,80.30441843293374,117.16427873920475,158.0834847460501,96.04948723873531,156.70759425574215,52.690306288102875,99.80767153135093,131.27407756415778
2025-12-12 20:52:11.498985,Right,94.35441702854587,132.7049178481684,174.46645916448324,98.20503296577954,137.39794197920128,68.27902494327282,113.03142272845434,148.23216834763298
2025-12-12 20:52:11.503019,Right,123.09686371247517,161.67244456698245,203.8433082824631,111.72578874681494,68.09293615134084,98.22876219663885,140.34981882366992,178.13793557218742
2025-12-12 20:52:11.506014,Right,123.90219375757442,160.80270229032612,201.77342985151336,126.06675611578976,77.03804356450564,101.5976973889774,143.11896293029713,177.94384876292315
2025-12-12 20:52:11.510023,Right,101.1291670017672,136.72830528690247,176.57594176504062,123.12283644569106,142.02206622442463,84.41286954886164,124.69019121672318,156.26545043260558
2025-12-12 20:52:11.514027,Right,95.2927570596803,131.30329786476796,171.57884050239227,107.93139842353412,133.8013638567645,85.09529339174333,121.15263541463355,154.45308526229928
2025-12-12 20:52:11.518079,Right,109.22512485223706,145.90288457574206,186.82864714384777,101.26494319082121,60.37272880983073,103.14626656955807,135.2972985216329,171.13218369768583
2025-12-12 20:52:11.522001,Right,107.09460670879344,143.60789738493622,183.58435093043954,105.68933693539293,53.784562396554975,102.82651950717263,135.08777309731522,168.8706377525814
2025-12-12 20:52:11.526075,Right,84.53017911940697,121.22898368907045,159.16611178434687,104.76636999157199,123.99685689076432,82.09275493743189,116.06089232042723,146.75115837733028
2025-12-12 20:52:11.531093,Right,77.5654398255574,115.17224290443119,151.29103795808624,95.10219909969601,140.90342376634362,76.82143947244913,109.76719285105355,141.83229724917328
2025-12-12 20:52:11.534103,Right,94.9365152886894,131.89637485868298,165.99281630583573,91.89094928556005,78.16960066775209,93.41390532680089,123.8339781833347,158.45943020866252
2025-12-12 20:52:11.538119,Right,100.9302370439691,134.3006404946791,165.33576415257994,98.55951980997634,61.85176051419694,96.32920337263204,126.72013347799657,158.95633989642374
2025-12-12 20:52:11.542072,Right,81.2259929076099,110.13141519678175,138.23106143812765,98.603686890885,132.18307332525728,74.20283111721801,106.1072167311795,133.66314466993208
2025-12-12 20:52:11.546160,Right,69.59766044464777,95.59710945287952,122.45398784909048,86.4024409349222,164.89751077978872,61.98015958383621,92.54460585155175,120.11002540920163
2025-12-12 20:52:11.550171,Right,85.30981500553025,109.70890938930097,135.88193947068066,79.19263059142395,101.41056239031604,77.41083851319854,103.81528805140988,134.8059405288368
2025-12-12 20:52:11.554188,Right,97.80128962452,120.85085587296635,144.45118519224343,86.59635917596461,59.31846591565409,89.53217233275063,113.26248146072612,144.0087868552946
2025-12-12 20:52:11.559216,Right,84.54606345790671,107.21230719386949,126.61158877497655,93.89927242971316,116.62524680813658,77.24759474789607,100.73727693464025,127.59834443306318
2025-12-12 20:52:11.562230,Right,72.51015997650393,96.64622910987237,112.80249310596264,89.29170183980023,171.09326672216412,67.1550503141334,89.47651644641883,115.49706344274455
2025-12-12 20:52:11.567298,Right,85.21854800557776,111.12548285734374,125.84749359067064,83.61601448549482,134.67101549514337,79.99669479441945,99.60943408170715,128.5116655450256
2025-12-12 20:52:11.570299,Right,96.6639168489055,122.48668511470896,136.17160073958803,87.50386354142393,96.89082304303884,88.93163476407062,107.83227227837779,136.9660570785345
2025-12-12 20:52:11.575299,Right,80.91503001603996,105.54150600612047,118.21840312556014,91.4985503952339,151.36009926439147,70.78151114011416,91.7676781131886,117.36135574651416
2025-12-12 20:52:11.579296,Right,64.42549305541615,88.75098856570548,101.72423797345255,86.41901022700767,212.78038029992604,53.74465611316555,75.67425254257978,100.29701955622295
2025-12-12 20:52:11.584298,Right,79.74854226653406,103.80659449376981,118.27157663198886,82.77520728427044,171.06337279907893,68.46254668124311,88.26447875390295,116.09667233063374
2025-12-12 20:52:11.587304,Right,104.27990670049621,125.74985437907162,140.82525639454252,90.52947439110721,97.06053912092466,91.0947004488844,108.73443324337131,137.38520333482302
2025-12-12 20:52:11.590284,Right,98.62321909386083,116.0838776314049,130.28477396650123,97.37343554900144,114.89608170217252,84.90039409430756,102.250110003195,126.85368475058931
2025-12-12 20:52:11.594312,Right,75.69790938626102,91.20393903998774,105.16538959863828,88.80612530722283,176.57932200998766,65.07050065617659,81.35653490709956,103.79276782099623
2025-12-12 20:52:11.598322,Right,75.4447362665378,91.77713502023835,107.45334860577714,75.65471846525907,156.12354990202584,69.06317916873377,82.00096335954731,108.05286399638862
2025-12-12 20:52:11.602335,Right,93.31569817646232,110.28944116755156,128.12974854462664,77.50574526292621,84.68902661427273,88.59827434060571,99.32032417913433,128.65392788572353
2025-12-12 20:52:11.606296,Right,92.47350941770128,108.00001254602103,127.19169610124663,89.2809554189298,88.46603057064931,87.21117987956677,99.51301823652466,126.65140176814748
2025-12-12 20:52:11.610372,Right,73.00216907585855,86.32169960133615,107.22417288130964,90.07433625041449,149.55987421853933,67.515293685894,82.31752249304554,106.4785718343046
2025-12-12 20:52:11.613321,Right,68.77782127988758,80.36864734484698,103.95553038720391,78.20517098138225,140.06276411452563,63.20529663421621,78.08865391064319,103.61866984961671
2025-12-12 20:52:11.617388,Right,81.36842312231602,90.92556010957924,115.74694516742602,70.9372721783875,64.88018387829652,74.26557411105023,88.55315651683486,115.53972794365836
2025-12-12 20:52:11.621394,Right,78.2786613455537,85.3439269370574,107.59340662762406,73.21062538765545,55.73754683230072,69.34694616557681,85.02140654722461,107.90916081282194
2025-12-12 20:52:11.626389,Right,59.149824210835504,64.95372376928572,82.03432962411898,74.05758487382263,125.06621094222646,50.43156278220704,67.26738654533983,84.15011814582977
2025-12-12 20:52:11.630427,Right,61.58534941905236,67.6827628967294,79.75452418776695,72.64324846744421,140.7365810102492,54.309631156822434,68.64165027352283,84.11315359623404
2025-12-12 20:52:11.634382,Right,90.31260109788855,95.81017202138901,103.70062693185173,79.31995417586586,71.05134183730115,83.15489299253386,92.84870182169834,109.49175890017068
2025-12-12 20:52:11.638463,Right,102.00556965050055,104.60643612249987,108.58485295038554,89.37279837667302,43.122520470118616,94.4022033259971,100.73567386166542,115.25432532036211
2025-12-12 20:52:11.641450,Right,79.02277103577217,78.52168369168066,79.8488836226461,83.89098818319326,105.64259131182916,73.73512712736556,76.52752523409436,87.44734220998362
2025-12-12 20:52:11.645623,Right,59.44686139540863,57.634166326984996,58.999733850127086,62.22812817708473,138.9165134479117,59.33083755073312,54.54799499240471,66.6376156201004
2025-12-12 20:52:11.651503,Right,70.02154792676447,67.08354464152944,70.09584470768459,48.29713371266553,79.18542683645501,74.10445120125951,59.09143585534184,75.88820782807306
2025-12-12 20:52:11.655533,Right,84.6211571021995,78.2902492483845,82.1081610203546,55.45045079640113,37.30845305643743,90.0461530242319,67.39383093616925,85.75532147660851
2025-12-12 20:52:11.659512,Right,78.20146941838902,66.98283855599584,70.58903621762875,67.37268650702026,90.61539362944313,84.72560619327123,57.67838778565056,74.54071371426107
2025-12-12 20:52:11.663536,Right,71.10133491554006,55.789559465047205,59.90822490918799,66.29331440490205,138.23703863628907,80.79795925223152,48.276589579851134,66.6778207415773
2025-12-12 20:52:11.667521,Right,84.06618257674563,65.47802257203148,70.74135974692763,59.181031649161014,90.68226966721704,97.54366585578828,57.56347490813641,80.34231803825242
2025-12-12 20:52:11.671584,Right,93.53329614152608,71.53401303707506,76.40345910881297,59.02069571292668,38.50328364351299,109.72951940538769,64.56817746182787,87.62597864921554
2025-12-12 20:52:11.674574,Right,74.40372993436176,50.29398936001235,52.78410667076241,59.90437530602503,83.67213129228912,93.744347424843,47.14790940989042,65.38421726803062
2025-12-12 20:52:11.678647,Right,50.46050607979123,27.651725854288088,27.873894464661134,51.95895142914378,148.3061415848788,74.73212149755273,26.492004683241248,41.892086057545384
2025-12-12 20:52:11.681591,Right,54.90448554587783,35.38880818008329,34.39282021558029,44.22101906075841,118.40583432582207,83.62633679706778,31.692670939926757,48.8710406839964
2025-12-12 20:52:11.685627,Right,71.70926869893447,53.701140240591485,50.98647894046735,49.509204291694914,54.29546859214315,101.80849951476557,47.686680026657996,65.35201847265125
2025-12-12 20:52:11.690575,Right,66.23913839699526,46.882590569060994,41.30094397251378,59.222874695653445,75.51249968848424,95.84079206187744,42.904050640398054,56.9676785999327
2025-12-12 20:52:11.694648,Right,48.05155075478251,26.738992185913958,18.914562631747685,56.65435295406496,137.10624793780153,77.41711148965987,25.5547027549037,37.64893540504272
2025-12-12 20:52:11.697586,Right,49.96038339132792,27.532569829083513,18.936807125646737,45.96132434128958,115.76091013345285,78.1413020757318,25.277719372155843,40.348219295730814
2025-12-12 20:52:11.701639,Right,64.35532032817719,41.042524169388344,31.27862235205248,43.657015581498854,42.8141495846794,88.572300306143,36.33521016938903,53.53065809892723
2025-12-12 20:52:11.705673,Right,57.05531380759203,33.37390232933103,20.812862530437997,48.39020446385257,46.86551843539928,76.69030004538945,29.19163987430511,43.098186080285814
2025-12-12 20:52:11.709693,Right,33.12569977881503,11.235399827448418,-4.033446904068114,45.243145373577136,113.4282254698337,50.981349824447534,8.341171739288257,18.533994914439972
2025-12-12 20:52:11.713684,Right,30.594753406374366,12.25676863110857,-3.919764411242795,35.948720868473174,112.13336676184554,48.60601507915999,6.972340457388782,18.3888446126075
2025-12-12 20:52:11.718689,Right,51.48505525181827,35.55007318353455,19.1431929092505,36.88304263925238,41.22359479314764,68.22488084304496,26.459228918494773,40.0910921204777
2025-12-12 20:52:11.722717,Right,57.78207090255455,41.85892460128525,24.13893632258987,47.480479275473044,31.513812216900988,71.90370828726736,32.98097458666598,44.049337768155965
2025-12-12 20:52:11.725706,Right,40.53985548361379,24.491873105129343,5.01938013068866,49.04731676679512,101.30894203012576,53.82979919774516,18.71616989247559,25.296613646874903
2025-12-12 20:52:11.730729,Right,33.66210771794431,19.436984369443962,-0.7541092177125392,37.42186162296275,120.57724885555217,48.57022611622233,13.957666188813164,19.804173712080228
2025-12-12 20:52:11.734740,Right,48.11271794138884,36.68238577248121,16.03692522206984,29.61697544544586,52.45124790255795,64.41105462113046,28.3942096382234,34.99511879165948
2025-12-12 20:52:11.737762,Right,51.48508385245805,42.19380394210748,19.7417644875095,33.13643245289859,21.50237932242453,67.5481038542348,32.87219348689541,36.131730180874
2025-12-12 20:52:11.741767,Right,30.505857672033017,23.227233438388794,-1.5296354779129615,34.43330852569488,81.64754028315656,46.05868461130012,15.361595869253506,13.498007827089168
2025-12-12 20:52:11.745787,Right,17.491093692631694,13.053207672317512,-12.42752558340726,25.942912625570898,117.2969746417075,32.719943015661556,4.769651067297673,2.5318487995537
2025-12-12 20:52:11.749791,Right,30.231814026090433,28.470293525082525,3.4532106998667587,20.164665292744758,61.17463440247229,44.056809594185324,17.360326004331,18.200030645748484
2025-12-12 20:52:11.753813,Right,38.424119719988084,38.089951122397906,12.659440495888703,25.343855670071207,20.076224948919844,50.592374952699174,26.687279590041726,27.140874957389315
2025-12-12 20:52:11.757822,Right,20.879241131668095,21.96777966018999,-4.578212236912805,29.650224816039554,73.09188896807609,34.220717558593606,14.177309496823,10.812017042277148
2025-12-12 20:52:11.762839,Right,6.348317680385662,10.251812569840695,-15.996265059729922,23.40730407225783,120.85186324318056,23.804193253803533,5.070097784177051,1.0007152942271205
2025-12-12 20:52:11.765852,Right,19.91275488928659,26.58537741609325,2.069727026624605,16.795989637757884,69.48624942163588,40.62049634332652,20.979230308745173,19.786601040090318
2025-12-12 20:52:11.769844,Right,33.975253541517304,41.20946738158818,17.519511854014127,19.305195514374645,5.890160372655373,55.29539813782321,37.04225535420119,35.45902255133842
2025-12-12 20:52:11.773864,Right,16.42593339763698,22.686088719623513,-1.8203343742643483,19.744640823671944,36.0377781711868,38.23710892215604,24.629639460486942,17.799405702084186
2025-12-12 20:52:11.777875,Right,-10.87872861440701,-5.098985628414084,-30.284556953476567,6.282798338055727,88.49602057097945,12.768595444766106,2.7231416720169364,-7.449883411536575
2025-12-12 20:52:11.781846,Right,-10.701108584398753,-5.012148138601333,-29.947929902147735,-9.19870199439174,50.56622512821923,13.639342546390253,4.171699980885023,-4.443275510449894
2025-12-12 20:52:11.785924,Right,4.414713044985547,9.204725964504178,-16.026194391168247,-9.258424676161667,-18.447961111494806,26.45358203831711,18.560181841312442,10.763342541613383
2025-12-12 20:52:11.789925,Right,-0.6471227888105204,3.3913523477094714,-23.45326365634537,-0.16457334972801618,2.862340745748952,18.29042257432593,15.539557595460792,4.598436142507126
2025-12-12 20:52:11.794942,Right,-16.80175787094049,-11.401548795562121,-39.84529620040121,1.0473729795121471,69.79502449202118,0.8044147786276881,2.9070297917787684,-10.005826494510984
2025-12-12 20:52:11.798952,Right,-10.162551391098532,-2.0663393994182115,-31.27026866727101,-3.26986319894786,52.55389005522011,7.087968734034803,9.749681895838876,-0.6988074011169374
2025-12-12 20:52:11.801979,Right,10.19781222846359,19.51515639074205,-10.739136642027006,0.2734318532238831,-23.395329213439254,26.520650576261687,27.496774428960634,18.58281620647176
2025-12-12 20:52:11.806983,Right,6.034990130756341,14.561573750557727,-17.439271447219653,7.388887043853174,-25.70548915027757,22.077312312670983,22.51238609370921,10.057628479233244
2025-12-12 20:52:11.812004,Right,-19.455842449649936,-11.538236967833654,-43.91828414652264,2.2542257486857125,38.653019769029925,-1.384664530036389,-1.8165066582951113,-17.69536596708349
2025-12-12 20:52:11.814992,Right,-26.637394119636156,-18.116527152305935,-47.96550518289223,-12.62872331316612,38.72834058885928,-6.013491853555024,-9.996145507037,-23.794489015825093
2025-12-12 20:52:11.819970,Right,-10.815741806996812,-1.9879100621474208,-28.10386608222325,-18.557187695419998,-34.00301807775395,9.715831066401734,2.265064683400851,-8.080818373193324
2025-12-12 20:52:11.822971,Right,-8.167228489735862,-0.32165263458591653,-23.93855223917126,-12.272343390184687,-49.5666607881285,9.932585784852563,2.9044112236515502,-8.48473535883386
2025-12-12 20:52:11.827040,Right,-26.908579684386496,-20.058543316255964,-42.12985745880724,-10.08744597130135,16.955903531925287,-10.7766546228886,-15.306048786216707,-29.06068879643135
2025-12-12 20:52:11.829988,Right,-32.09860860171466,-25.29632715976186,-45.384612114346965,-17.233984289887303,38.52257531970099,-17.335108888983086,-21.07658087550226,-32.65913574293518
2025-12-12 20:52:11.834057,Right,-12.134212535653205,-5.775157603842672,-24.32613030754692,-19.470255587883003,-26.380871053421288,-0.6379200140945613,-3.758740151875827,-11.563070054478885
2025-12-12 20:52:11.838054,Right,-2.3835447724413825,2.110384502695524,-17.14768291249493,-11.924776566025685,-56.55757189085125,3.964737495254667,5.297774223290617,-3.803488715995627
2025-12-12 20:52:11.842104,Right,-20.480550907748693,-17.452719017790514,-38.762678784182754,-9.399766794624156,4.290013941048528,-17.881275064399233,-9.842722855501052,-23.330973022537364
2025-12-12 20:52:11.846133,Right,-33.779740435638814,-29.77038630147581,-52.05486083894675,-18.217857360930793,41.54496415647736,-31.99208369934786,-20.589103576283378,-34.20392132487177
2025-12-12 20:52:11.850073,Right,-19.962490062353027,-13.553900824204902,-35.92967569167399,-23.420798114868376,-16.12937776761828,-17.992316251642478,-7.503752547905606,-17.50173395067395
2025-12-12 20:52:11.853120,Right,-7.621993202963495,0.4392389424974681,-23.432689118603776,-16.227742681625386,-63.460334591247374,-5.622566598955018,3.9521176308007853,-6.00240770653545
2025-12-12 20:52:11.857117,Right,-22.314450676509296,-13.215868112311,-40.03392710419757,-11.144260646182374,-15.66370343026938,-18.723713920247974,-8.391378502703446,-22.719722399484453
2025-12-12 20:52:11.862213,Right,-39.7218153861686,-28.991503381359507,-57.801506843596144,-20.747365963459742,32.887012572420645,-32.47303062007268,-22.396294681322615,-38.779471552585164
2025-12-12 20:52:11.866178,Right,-32.104673917696346,-19.869612271268124,-49.04931383369694,-33.58406418641607,-14.843445857783081,-22.299439000234997,-13.943091086403001,-28.2351815858965
2025-12-12 20:52:11.870205,Right,-19.849129995513067,-7.872452427389362,-37.61289379281152,-35.02098901309728,-76.79077217595477,-11.283446551726229,-2.705416152231919,-16.479972962137253
2025-12-12 20:52:11.874216,Right,-31.68177294591078,-21.185608598651015,-52.185399586891435,-32.202220681592735,-44.08976536832051,-26.627020553634793,-15.32009932956862,-31.853759236229962
2025-12-12 20:52:11.877145,Right,-48.896251131405734,-39.09720962219944,-70.39461722113629,-37.61217477733044,17.40283732865646,-46.633726431602554,-34.49937423726442,-51.30121614435848
2025-12-12 20:52:11.883237,Right,-39.22356300713,-29.509370549043524,-59.98264846311213,-43.661997788385634,-8.014047267584829,-38.67858018444531,-29.717123177993926,-42.45436782189245
2025-12-12 20:52:11.887248,Right,-17.19534932478564,-9.24535793605537,-40.098877615051606,-36.66818442818112,-69.89840599746094,-18.388235787253507,-12.65091783202297,-23.65540581967616
2025-12-12 20:52:11.890239,Right,-18.520817187691136,-14.278236786620255,-47.66066974798741,-24.423000393117036,-48.58326464318088,-20.64384037414493,-15.203831856419129,-30.387848764443333
2025-12-12 20:52:11.895300,Right,-36.562929872179666,-35.33364968991191,-71.33200662091258,-25.4445288364941,18.15352492412785,-37.29854658997283,-32.4126511316299,-51.451693242903275
2025-12-12 20:52:11.898291,Right,-36.9702994893014,-36.5681930162591,-73.8419408166883,-37.22568052311544,4.197694121859968,-35.50662496719815,-34.491150315324376,-51.725776130895156
2025-12-12 20:52:11.904275,Right,-21.70348579014899,-21.281122224445426,-59.95309620466287,-41.16025443212311,-68.78014408874151,-20.277290769683532,-23.282699992156267,-37.40932279726053
2025-12-12 20:52:11.907305,Right,-23.68649433855171,-23.503176032649208,-64.9947934710217,-35.7658830019559,-70.25417088364338,-24.508564484029193,-27.728083862998574,-42.63954224884469
2025-12-12 20:52:11.910305,Right,-42.25323138862586,-41.99362502794793,-86.20342027558945,-36.61881181703393,-3.1197167647333117,-45.14035649273319,-46.74617452953794,-62.7544179821507
2025-12-12 20:52:11.913305,Right,-41.92649257205994,-41.49104281445216,-86.45090435464954,-44.601252482506084,3.4312838197511155,-46.279013637691605,-48.224314093808715,-60.78652944610258
2025-12-12 20:52:11.918251,Right,-19.233218546938588,-20.236535334630844,-64.81881440207508,-43.781834856429214,-62.809095467564475,-25.738311867920856,-28.871686206507547,-37.36003471794902
2025-12-12 20:52:11.922318,Right,-11.972950580144243,-16.02217826232672,-60.87149379717448,-32.679599153158506,-73.48420074862952,-20.528465564830185,-22.69055961583763,-32.341504139565586
2025-12-12 20:52:11.926346,Right,-30.948147083156073,-36.84340260999397,-82.18942723071814,-28.62241393950444,-0.8450795121170813,-39.206217283361184,-39.55516355011696,-52.39299727031903
2025-12-12 20:52:11.929342,Right,-39.82140139302783,-44.81715181872232,-89.58985692202987,-35.725143657086846,27.748963629819627,-46.02667355457925,-46.87622178389756,-58.272836877999
2025-12-12 20:52:11.933353,Right,-21.537843414867893,-25.127274442407725,-69.1057667660134,-37.10224919758366,-34.6815830429623,-26.858286392353648,-29.330704821206382,-36.62320813217593
2025-12-12 20:52:11.937388,Right,-8.83941090594135,-12.911318053542345,-57.6568689416672,-26.749414047671962,-68.23434535384877,-14.735718679266483,-16.521113077456903,-23.8462932813527
2025-12-12 20:52:11.941379,Right,-22.657150638510956,-28.15011714508364,-74.5774336780014,-21.225801456001136,-9.703453006368363,-28.101848263235524,-27.84058068543709,-38.45854649751709
2025-12-12 20:52:11.945407,Right,-34.75510174230999,-40.79148197539325,-87.58333101732569,-29.800360058741717,31.503407471289393,-38.48193261658889,-38.689688662137996,-49.22130440577894
2025-12-12 20:52:11.950402,Right,-23.531981993930458,-29.979777007782104,-75.67802850462613,-38.706920128697675,-19.408146452675282,-27.189426782455484,-29.865501887230494,-36.934608361378196
2025-12-12 20:52:11.954429,Right,-15.03161882927543,-23.19404424809545,-68.06097700296232,-36.88281110090247,-61.66429546799918,-21.370810431089012,-24.00633301387643,-30.41197490700506
2025-12-12 20:52:11.957422,Right,-31.923908107640273,-41.85131697865654,-86.10306652193685,-34.668229752649495,-8.563620108277973,-40.6305154320853,-40.32273172691566,-49.07495042709343
2025-12-12 20:52:11.961450,Right,-49.03023355074038,-58.46576043988898,-100.44133249767037,-42.59113453998725,48.79214866309485,-56.75434888194104,-55.61529385672111,-63.43789721104258
2025-12-12 20:52:11.967479,Right,-40.173963764643304,-47.394439772699116,-85.48742330083041,-50.85589720419739,11.655523109671776,-44.46290328888972,-46.60767557250438,-49.72677057187684
2025-12-12 20:52:11.970451,Right,-27.808608981029465,-33.515662581747165,-68.58915059229184,-47.18363404791671,-41.244176331576455,-28.636871409702508,-33.864016435727535,-35.600891128626245
2025-12-12 20:52:11.975474,Right,-41.59883877982429,-46.72740717815759,-80.58479215983243,-39.560136899366626,-1.3827557048171002,-39.182147244981024,-44.24155743421943,-49.9529430313778
2025-12-12 20:52:11.979500,Right,-62.21393706070921,-65.89712596299069,-98.38665830438549,-41.071177408044605,64.40001705827672,-56.31139457457175,-60.71842294905218,-68.91209893498308
2025-12-12 20:52:11.983440,Right,-54.89004833332183,-56.12137586017707,-85.75759411990293,-44.38884568134745,35.51699154154994,-46.69114271615399,-52.468680786067125,-58.23536793067615
2025-12-12 20:52:11.987511,Right,-32.243000185839264,-31.869380610656663,-58.52518980867171,-34.84227255163569,-39.0947909511051,-24.00848491477518,-30.98596687551617,-35.30913828809571
2025-12-12 20:52:11.990486,Right,-31.32103468173591,-30.74204563121384,-55.59232915965549,-19.393021339299594,-31.70106131563807,-23.424003980770067,-29.730120074993465,-37.596064613542694
2025-12-12 20:52:11.993537,Right,-47.07471170170902,-46.22411583194116,-69.43191001613741,-16.49486420804169,28.739321899131028,-38.1409887303671,-44.5104899229118,-55.639031966500625
2025-12-12 20:52:11.997531,Right,-44.18202220523017,-42.498014195938595,-63.15894980810117,-23.853886202727153,14.76329985999655,-34.9407219277964,-43.624657455184206,-52.99846262806386
2025-12-12 20:52:12.001526,Right,-24.181679632896703,-22.559084159998747,-40.83246152996435,-23.799257801278145,-58.52705019044515,-18.188198272844602,-27.974351909186225,-34.7567913837629
2025-12-12 20:52:12.005547,Right,-22.741613534908538,-22.511667185171973,-39.4826548549172,-16.257303234160645,-61.4534962364105,-21.998463477688347,-28.91827975205524,-36.900835564840236
2025-12-12 20:52:12.010515,Right,-42.179018592622015,-42.71809823336662,-57.92482516427117,-17.417746481180075,6.034964195535849,-44.650676366945845,-47.74142419311829,-56.770703521156975
2025-12-12 20:52:12.013527,Right,-46.76148323266534,-46.22681943001953,-57.65794780332362,-27.913657288994727,12.696558375204177,-49.56988551449467,-51.81058628495521,-56.86270144582522
2025-12-12 20:52:12.017580,Right,-30.594262626720592,-28.765744061922305,-35.89843661239138,-31.636688300786773,-58.67926056716988,-33.439780951444845,-36.354441290866816,-36.52657734634704
2025-12-12 20:52:12.021605,Right,-29.02289886388462,-27.3027202094745,-32.0070574372221,-26.34389569394989,-78.44271918251252,-32.935174959722644,-34.42057263038441,-35.050360740824544
2025-12-12 20:52:12.025611,Right,-50.759623093748814,-49.60391197098943,-53.31810885161394,-27.44012615750762,-12.121646525596589,-55.470006929874216,-54.54201249904145,-58.11148894227517
2025-12-12 20:52:12.029616,Right,-58.805712104840495,-57.506932231663086,-59.632974437918165,-37.94324569991295,14.875734084971555,-63.53376777414451,-62.987178497693094,-65.43874632659572
2025-12-12 20:52:12.033592,Right,-37.79963362566923,-36.77808975267544,-36.68898095526674,-41.41450416648149,-49.30128151261124,-43.28678077143559,-44.937806789828755,-44.02118201037956
2025-12-12 20:52:12.038663,Right,-23.408872927280754,-24.22551834397018,-22.648448541134712,-32.3163830341,-87.2824448982592,-30.882854966577725,-31.89925863515964,-31.772954670581385
2025-12-12 20:52:12.041673,Right,-38.31508750034118,-41.0146277507738,-38.34393836969684,-27.692420200539345,-32.53683190765878,-47.340551721132215,-44.64772336315946,-48.17083787245792
2025-12-12 20:52:12.046716,Right,-52.43524512841395,-55.050162896179245,-50.283721863655956,-37.20803261514811,6.569876901150565,-61.7648960359038,-56.9408757500787,-60.205406777553435
2025-12-12 20:52:12.050675,Right,-40.17465151486613,-41.313663028784504,-33.86088344953896,-45.83134023558523,-49.800940997291036,-49.69912634404318,-45.813091046351474,-45.186058796040015
2025-12-12 20:52:12.054748,Right,-27.4902779240947,-27.392838911153376,-18.30731085887237,-40.99057916456513,-103.047537531962,-37.15852155623725,-33.66778056506155,-32.21906465096254
2025-12-12 20:52:12.059749,Right,-41.94571531302063,-40.61948539085279,-30.87852092414687,-34.601679826300824,-60.256856785530545,-49.881998913413554,-44.717822857768624,-46.160800981240754
2025-12-12 20:52:12.062778,Right,-59.97163764092693,-56.60542714680196,-45.64673332023085,-39.801975920454424,-7.974531495001429,-64.47619237858453,-58.54219671867031,-60.16869332117494
2025-12-12 20:52:12.067782,Right,-49.74272453222147,-44.84120623108174,-32.186794834793545,-45.832393114003935,-50.33242477590102,-52.49787464073597,-47.81908642494818,-45.762559361472086
2025-12-12 20:52:12.070800,Right,-29.75990539250779,-25.829656331639853,-12.817390812808299,-38.35411226197175,-113.90512632617538,-34.20987728466571,-29.82724025897187,-26.9547254238787
2025-12-12 20:52:12.074811,Right,-34.26934266098033,-33.20427274230315,-21.38988689769758,-27.520702467416413,-84.22297258473554,-41.327184262707306,-35.3153656627328,-36.96985469986248
2025-12-12 20:52:12.077811,Right,-49.96361560862351,-51.35055090209062,-40.283093512334744,-30.29892994878901,-18.731524759372405,-58.34562579645717,-51.98024339823314,-57.18985090779461
2025-12-12 20:52:12.081754,Right,-41.76355402348054,-44.80921910596953,-33.22948519884085,-39.253640291295596,-38.565068428608356,-52.12872583135322,-47.51076762714365,-51.68305738544586
2025-12-12 20:52:12.085818,Right,-19.28820304380133,-24.56449355289078,-12.87782413957757,-36.45974311941973,-102.63352335272066,-34.26722303803399,-29.37128705138457,-33.26467087036872
2025-12-12 20:52:12.089840,Right,-19.50505944448014,-27.224971387244295,-16.809693408722524,-26.66472474703187,-86.41538946021319,-39.11395593245106,-30.14768800620368,-38.370898658460646
2025-12-12 20:52:12.094788,Right,-38.045706980014074,-46.4363008467044,-37.228187203843845,-28.035562076031056,-16.58258322277834,-58.67202528192138,-46.678974630900484,-58.5528725559343
2025-12-12 20:52:12.097844,Right,-37.63740245844383,-45.314364489015134,-36.228725997701986,-38.50748269423639,-21.56534032447962,-56.69217689526704,-47.00698373272462,-56.92437092943874
2025-12-12 20:52:12.100848,Right,-17.526486136241147,-26.09444901139068,-17.347731988760643,-40.221661680749094,-90.74507922903285,-35.928510604171606,-30.936448386833945,-37.69063583323441
2025-12-12 20:52:12.105864,Right,-13.952130300185672,-25.70721316194249,-18.301309897797182,-32.39032694272464,-93.58716352390911,-32.805835335595475,-29.61383778252639,-37.49374626731151
2025-12-12 20:52:12.109865,Right,-31.415755537640507,-45.55768717736646,-38.537784151310916,-30.80804668899509,-23.64061399201455,-49.49333329942601,-45.26799954026501,-55.16515243455797
2025-12-12 20:52:12.113890,Right,-34.26886904060666,-47.95692656828032,-38.695357777993195,-36.28052598558861,-10.911657165779616,-50.48201633804274,-45.647376441571396,-52.935129061792395
2025-12-12 20:52:12.117889,Right,-14.219309849289857,-26.627678257238586,-14.23229818433174,-32.623741664137924,-78.89787965032883,-29.795863510022173,-24.756759144846,-27.749770530688693
2025-12-12 20:52:12.121848,Right,-6.757582893536892,-19.616616316707223,-5.830791774627869,-18.798857774927455,-100.41768587478873,-23.00845458314143,-16.194254743822967,-19.172459171742958
2025-12-12 20:52:12.125962,Right,-25.11643899686169,-39.631327433962724,-25.921931659497204,-14.25357531431655,-34.997874933003914,-41.28472963893,-32.53428945885389,-37.69153173828818
2025-12-12 20:52:12.130916,Right,-34.644944039890106,-50.21897494632867,-36.212322657505865,-24.997511794572347,-4.265424384640937,-50.07361649135419,-41.845666604051075,-45.401399056579976
2025-12-12 20:52:12.134960,Right,-16.362980064935982,-32.27913207955862,-17.715112085817964,-32.24537140659959,-64.74902259922965,-32.5138512002959,-25.369184906216105,-25.220017059342354
2025-12-12 20:52:12.138961,Right,-2.016249691914709,-18.12534797455737,-4.099049059921526,-25.31998972241854,-102.90636119727424,-19.533308606980427,-10.462680534859828,-10.928934042218316
2025-12-12 20:52:12.142968,Right,-14.985348053694906,-30.420937784176203,-17.590911161678378,-18.880495680015883,-48.02073943182768,-30.804746789479395,-18.643292474589543,-23.19520755357371
2025-12-12 20:52:12.146985,Right,-27.941618003365875,-41.29181133020029,-28.793305185128702,-24.72590174437937,-4.081064478305052,-38.645267462794436,-27.212015214077837,-32.65987381568266
2025-12-12 20:52:12.150003,Right,-16.278745718060236,-27.76066560704203,-15.253150499527692,-31.906999127131712,-54.083194407474366,-22.925347500640783,-15.676095531132887,-18.65376359318907
2025-12-12 20:52:12.154005,Right,-4.936907066832646,-16.422875601136184,-5.513774623468635,-29.405895301315468,-104.08807935110235,-11.35753874115835,-6.346370142826345,-9.860777306930686
2025-12-12 20:52:12.157017,Right,-20.086883422976825,-32.160720851345104,-24.12844875290466,-26.123150528539554,-59.70050015310699,-27.434842001970537,-21.201120641300804,-28.977238682869938
2025-12-12 20:52:12.161037,Right,-37.958787730909535,-49.0555980052377,-42.597127191234904,-31.72080981497129,-3.76681052310596,-44.17865741928108,-37.65611108210578,-47.02115279131249
2025-12-12 20:52:12.165078,Right,-27.46955950276606,-37.04452399533329,-30.169010517012794,-36.106625132859335,-41.31169747941021,-31.87877757678143,-28.040521283794078,-34.69101226190833
2025-12-12 20:52:12.173066,Right,-7.123122041732131,-17.643977735708177,-10.6065385033653,-27.445419459676486,-101.87359772307536,-12.516982819830446,-10.470360923165572,-16.08488983265852
2025-12-12 20:52:12.176090,Right,-10.584060178422078,-24.654639982451044,-19.033650609497272,-15.73482800128113,-70.14137705505709,-19.857176545738184,-16.381812821666244,-24.90599563338037
2025-12-12 20:52:12.179101,Right,-24.882599515363836,-41.732250467037375,-37.61260826406942,-16.055126185739937,-1.3828092382464092,-37.81009518942301,-33.25538245064672,-42.99380009579181
2025-12-12 20:52:12.183106,Right,-15.924742727172998,-32.53025849733967,-28.700395582629426,-20.872037854642258,-18.60764101922541,-30.497185291238566,-27.852169306883297,-34.42179243142891
2025-12-12 20:52:12.186147,Right,6.589211950067693,-8.055770569801098,-4.240236868230568,-13.883640545827802,-82.84135602816241,-8.050422854357748,-7.0829493561104755,-12.006806086290453
2025-12-12 20:52:12.189134,Right,6.74457596686625,-6.238557444936305,-2.846646119040088,-1.0354359272751026,-65.45405318769917,-6.533629684290645,-4.255181126303796,-12.801829373333021
2025-12-12 20:52:12.193146,Right,-10.227315012663894,-22.14744840737694,-18.130032272660173,-1.0608947060463834,12.21958541891945,-21.026344172751124,-17.8630904650272,-29.176032047012995
2025-12-12 20:52:12.198157,Right,-7.362739780335687,-18.7414766636648,-12.044206695209141,-12.070369984794524,18.68953387055808,-17.004021105647553,-16.830149971923674,-24.182939171143516
2025-12-12 20:52:12.202183,Right,14.747055895324593,2.8530333589878865,12.591279179236153,-15.027407891258918,-43.835198501437844,2.8386901324956852,-0.1706478988053277,-1.3342113283579238
2025-12-12 20:52:12.206180,Right,17.832030519712134,4.680618351449084,16.04377716057934,-7.499423531189677,-46.94522495911224,2.846332240576885,1.2406187322339974,1.528573015180882
2025-12-12 20:52:12.210207,Right,-3.7842601609900157,-17.533650232377113,-4.857005481651868,-5.72373527126183,20.763904048362747,-17.68752537389082,-16.557548401280656,-17.539269228378544
2025-12-12 20:52:12.214211,Right,-12.339114551659804,-25.683673012041254,-10.03909274587204,-12.561056355927576,31.09599226507271,-20.739202867138374,-21.796562427087338,-20.885158164564928
2025-12-12 20:52:12.218223,Right,4.070263877471007,-9.122421167230641,10.651014421229775,-12.530454592983006,-42.8083964571415,1.253714967831911,-5.3417813541746,-1.1762214394912007
2025-12-12 20:52:12.221277,Right,9.927853765791951,-3.7263453147315886,19.617763366411964,-3.199189243994624,-73.35702272917115,10.61359624016768,1.6717025053221732,4.8703925707086455
2025-12-12 20:52:12.227275,Right,-11.983848609119377,-25.08142303564091,1.373634156465414,-2.7219181766486145,-14.005522115250642,-8.349867287717643,-16.334147749839758,-15.507848977766116
2025-12-12 20:52:12.231282,Right,-29.213776569788024,-40.02068959544704,-10.101147425630188,-17.201090165737696,16.324671919363027,-22.896292133249517,-31.798154591277125,-27.70379017891537
2025-12-12 20:52:12.234296,Right,-19.18399457556734,-28.280656299262773,3.957235026762646,-27.494629197793984,-42.49536819867353,-12.875253862792306,-23.74511656287359,-13.940270235900243
2025-12-12 20:52:12.238242,Right,-7.428799454199179,-17.690293984604068,13.254789296108356,-20.557758038208704,-78.86530458177731,-4.2466943280087435,-12.27449767444341,-4.369545769914112
2025-12-12 20:52:12.241309,Right,-14.926718790980885,-27.85629839590547,-1.2875718447976396,-9.111230841801444,-19.46103778345423,-14.322012688482573,-15.76510724916443,-17.278612118730962
2025-12-12 20:52:12.245305,Right,-17.73448313582776,-31.764123621498584,-9.71709790975001,-6.64467221603627,31.138427104058792,-16.114983534504063,-15.198348888981855,-23.406002617099148
2025-12-12 20:52:12.249335,Right,3.4876847173600254,-9.711966063994623,8.582669071816781,-5.8957052133919206,-16.758819057242363,8.898766465126755,5.2277900285989745,-3.3856987760518678
2025-12-12 20:52:12.253339,Right,20.04187289386573,7.425755081581883,21.096527140070975,1.5715227811961086,-72.59914397526154,30.27078307899319,20.29997872676904,10.837154830580403
2025-12-12 20:52:12.258329,Right,3.70002610021038,-9.705984932479623,-1.639744335450814,4.922744582603627,-35.85641376658168,19.446445457308073,4.890868352413236,-8.761704872704286
2025-12-12 20:52:12.261311,Right,-20.009843318537605,-35.131601211294765,-31.155595791366068,-6.022099370857177,17.08121861818654,1.056057533591229,-19.00577160609828,-34.48475361992314
2025-12-12 20:52:12.265371,Right,-13.807189799778826,-31.906213514310366,-29.200039737988845,-17.790207756963355,-21.844804980777553,10.039533426677735,-18.088024207907438,-30.737536128261127
2025-12-12 20:52:12.269357,Right,7.305190137315549,-15.674016510027286,-12.941320131190878,-14.034097080133506,-87.78357373367908,31.049142857678817,-4.467216878423642,-15.432680302685185
2025-12-12 20:52:12.273369,Right,6.297944020839168,-21.768618282483658,-18.882512361058616,-3.825169091396674,-62.5376118649001,30.412037885416794,-10.013847519952833,-22.863209578281385
2025-12-12 20:52:12.277424,Right,-8.007414923291435,-38.508515336310666,-34.35954658097762,-4.857658008662838,5.137307016964769,19.463239268383404,-26.58368866820456,-38.6602794022474
2025-12-12 20:52:12.281450,Right,-0.7459220270757214,-31.037725384136138,-24.17126225085667,-11.928952333746565,-9.327606857048522,30.626575154339662,-23.182989092158095,-28.405396542504604
2025-12-12 20:52:12.286485,Right,22.347385337025116,-7.8776531551920925,1.1119772552483482,-6.875771195755078,-74.43396616514656,54.06799522120673,-4.948366327749682,-3.5002971898720716
2025-12-12 20:52:12.289439,Right,26.59762150657116,-4.8750401371507905,4.1446188872578205,8.736709782835533,-63.36427737865597,55.19390403484522,-2.8346143369271886,-0.22167239220289048
2025-12-12 20:52:12.294480,Right,13.08411720116419,-19.24216431340028,-10.884921835851856,16.486660132166435,7.561710508183751,39.01560771669301,-15.916420791883866,-13.42268502364459
2025-12-12 20:52:12.297495,Right,14.167757183502545,-17.66659063490806,-9.003116919040622,12.996989271956409,9.496344088060141,40.224869448758,-15.377414613954898,-9.450884958576353
2025-12-12 20:52:12.302542,Right,29.851175873495322,-1.4413288369687507,7.609906696343387,12.370891000378833,-57.0130450633078,57.58227477104356,-1.2406476808355364,7.802830933480436
2025-12-12 20:52:12.306512,Right,26.31554938853583,-4.647127144726255,3.5900635426005465,17.168245033111816,-62.244169011566555,55.943158954232786,-3.19043376206173,3.877070296508464
2025-12-12 20:52:12.311544,Right,1.0012598175890162,-27.858108688993525,-20.411832053658145,14.356023800042749,10.162681655237975,32.88702395293012,-22.722287632037478,-18.5364997029792
2025-12-12 20:52:12.314553,Right,-8.156369102019653,-32.77511265231078,-24.414496876510384,3.32698367584635,31.931603776647535,25.10218231412182,-26.38383559522117,-19.98258686682675
2025-12-12 20:52:12.317537,Right,10.440449278192034,-10.790614428220579,-0.9467676591484633,0.8764922668815416,-30.990284243926,41.65990099892679,-5.776647704762581,4.726384019217221
2025-12-12 20:52:12.321572,Right,21.725486470999385,1.0350496748542355,10.759798755803786,11.684448803485793,-55.79307238828187,48.21110486684756,6.2080378955215565,15.977838016679016
2025-12-12 20:52:12.327584,Right,8.238204667270793,-12.601446550957917,-4.080534435510344,19.537293504308764,6.6553442781514605,31.317441649164266,-5.688404781914869,0.29937170247285394
2025-12-12 20:52:12.331610,Right,0.08536879251255414,-18.83381000029476,-10.463754606371367,16.34341554086859,39.796278253765195,22.704869951178125,-13.096996616848628,-7.236696228250366
2025-12-12 20:52:12.334601,Right,16.308473536460724,0.5368856212262472,9.759726847401907,15.1766182520023,-19.643792800074152,38.81458214179975,1.7918871613983356,10.57613687662888
2025-12-12 20:52:12.337616,Right,28.44487877050642,14.560000453824614,23.681162827080698,23.684018587564424,-61.8332515363727,49.26996364671868,12.98751631183768,21.48648979372956
2025-12-12 20:52:12.341628,Right,14.051088613566662,0.7904169654320867,8.54696390240133,28.267346964135868,-7.968702793608827,33.387730859813246,-0.3034880037412222,4.596272494705772
2025-12-12 20:52:12.345646,Right,-0.5875235314824749,-12.801701621850953,-6.103660719909385,19.271849317548003,43.283451943563705,19.07227260747959,-14.240012111473334,-10.362809397487581
2025-12-12 20:52:12.348649,Right,10.882064762645768,0.25768323665397475,6.4194269408071705,10.33792198494939,0.5920693554799072,30.921164213250336,-4.124425088564749,1.9156069136442966
2025-12-12 20:52:12.352685,Right,25.462171313159615,16.33831824911249,21.034905503329355,14.983011076315961,-50.1723557873338,44.271103001368374,10.479931918711372,16.28225890849353
2025-12-12 20:52:12.357673,Right,13.453331114643788,6.912037598573079,9.365566501714056,22.62354041963681,-8.674738385903765,30.904563369708285,3.182118879385598,5.738684083964472
2025-12-12 20:52:12.361694,Right,-6.004142606493588,-7.666697903485328,-6.0791321371470985,17.965584673969715,49.66836809662345,10.893111956530333,-10.063802427677729,-7.515057626822454
2025-12-12 20:52:12.365714,Right,-0.1667203497772789,3.343685963685857,5.993390195850225,8.207963721008127,13.101601126196329,14.360691534096077,-1.9594545423533418,5.209058112612183
2025-12-12 20:52:12.369730,Right,16.984157636892633,22.602179954061285,26.286890499988658,8.569337309554612,-56.87467915488378,25.446901513171383,13.99441187856064,23.365162249563582
2025-12-12 20:52:12.373684,Right,11.511383092878532,16.016464229156554,19.865922580991537,14.04966377492201,-37.77540237127687,13.084721417051696,8.436151109721322,14.137207586860313
2025-12-12 20:52:12.378745,Right,-7.804677578908922,-4.782549815608945,0.08148507629448432,9.615041166772698,28.33627944012551,-10.093080602996451,-9.207122145568064,-6.837090979372078
2025-12-12 20:52:12.382791,Right,-7.8698504219828465,-5.101622833226429,2.528988799054787,-1.209207692849759,16.09569849489344,-11.204737562071386,-8.77907524627517,-4.624919660949672
2025-12-12 20:52:12.385785,Right,6.195217784040324,9.248442220099605,19.518671169567824,-2.3108744401793047,-48.57901354569185,2.3476581297059056,5.01409503585819,11.394743073473364
2025-12-12 20:52:12.389794,Right,2.7281753952702275,6.604745776272466,17.71822351280389,6.279590400736197,-39.373716622707434,-0.6211241334242459,3.864185394982087,8.205075774782017
2025-12-12 20:52:12.394808,Right,-14.222242093644127,-7.784238338103023,3.3440917521456868,9.848983651644176,31.168889425207453,-14.035280052029975,-8.705068873700839,-6.601454289814683
2025-12-12 20:52:12.398831,Right,-10.771020694635808,-0.7779023227467405,10.771261644893457,6.854031865205343,33.792432252124854,-5.671536549631355,-3.0857205511128996,1.3660346857759578
2025-12-12 20:52:12.401801,Right,12.321999792794486,23.912108574926606,35.28821411704848,10.076472982487076,-35.0883020709698,19.181062962252327,19.28556898034003,26.705043028308864
2025-12-12 20:52:12.405884,Right,16.887692456686636,27.179506462422978,36.66825834547126,18.514063258925034,-45.74274579929261,21.410963116523817,24.441339993692964,29.66755926384303
2025-12-12 20:52:12.408868,Right,-5.425233817222761,3.421187071788154,10.6893967770593,15.194114930410592,22.058320301453932,-3.9312038027010203,5.745986361110681,6.523558765022244
2025-12-12 20:52:12.414914,Right,-18.199534749639497,-8.504001051464911,-2.0271093364317494,-1.7062931614863057,39.863712136182585,-18.535777691708518,-3.9344737426522443,-3.668067034273008
2025-12-12 20:52:12.417918,Right,-6.156771748697793,5.59817571809981,11.78947868726027,-12.875524753404193,-30.546268497113488,-8.29582351502836,8.547914910013105,10.483110297161147
2025-12-12 20:52:12.421914,Right,-0.454943089533117,12.397563871355487,16.971244714231034,-10.034101937924902,-65.46474127462352,-4.233007599408211,14.761016390805935,14.717084720320372
2025-12-12 20:52:12.424880,Right,-16.929919510153923,-3.8657274940601383,-1.5281926598081554,-7.417675928981453,-8.341947578628606,-20.08056005067988,0.33863961613188565,-3.669407628456952
2025-12-12 20:52:12.428933,Right,-24.686134174340623,-11.284437654023122,-9.545255957800691,-12.96435795302682,27.73711634648498,-25.405318029937916,-7.1381603464820955,-10.742921184996163
2025-12-12 20:52:12.432946,Right,-4.541704839197337,8.75426614189962,11.77710289908373,-13.844585451726061,-26.32255726233052,-4.60668774839678,9.57074501049351,9.822131031300614
2025-12-12 20:52:12.436978,Right,13.548853765434615,25.63274934929035,30.161084052372644,-2.118227330552145,-66.92439115939123,11.041871256049035,24.259689514258753,25.257663547507036
2025-12-12 20:52:12.440997,Right,4.513020207878071,15.711534735223267,21.475623048653006,8.178080681582287,-13.885358682866354,-0.410722312069538,15.481725772281607,14.040489096026704
2025-12-12 20:52:12.446066,Right,-7.112781993251701,4.862394190739906,12.392385346169512,5.0213635747632,37.50221550110655,-12.165102711060626,5.571927035797671,4.652065692497672
2025-12-12 20:52:12.450019,Right,5.79087324916145,18.630227908602137,27.82116361788826,-0.33289684267629127,-5.805679943940049,0.3118219776656588,18.10822444592759,20.906767058528203
2025-12-12 20:52:12.453034,Right,21.89413973853334,33.538205529543575,42.39232104001212,5.341652659429201,-59.599340879241936,12.717588656084445,33.16083646964853,36.08990312837159
2025-12-12 20:52:12.458038,Right,12.09942281667827,21.381061309677534,27.991526191961384,13.019631319790278,-18.82524746690615,-2.5592114704513733,24.344766563986923,22.464012340075897
2025-12-12 20:52:12.461996,Right,-3.8156018763074826,4.0449471583078775,8.82356067264891,9.365663352315096,45.89429228346489,-23.00772205632029,8.981745737686651,4.511285808343018
2025-12-12 20:52:12.466045,Right,7.232245679759217,14.02750297860348,18.29779631194606,1.9930690976325423,19.199317597107438,-15.84364473888354,16.13151403822667,14.60051340598693
2025-12-12 20:52:12.469075,Right,29.167529301616014,33.29755585647854,36.69899353210849,4.644404892546845,-44.73199439624841,2.130610126332158,31.63412530307687,32.64251297494047
2025-12-12 20:52:12.491118,Right,25.495187099335453,26.257251838527736,27.469643024312973,11.30900950981686,-24.387693900531303,-3.3565034585549256,24.353662504865497,23.54725325228901
2025-12-12 20:52:12.495143,Right,6.221812568661335,6.112697547005155,5.365563186053805,8.169490663350189,42.23128762305532,-20.385579581585716,5.193467604174657,3.1344075882898323
2025-12-12 20:52:12.498157,Right,8.171988238280392,10.62027359262538,9.28383791221222,0.5221283924865929,30.378678001923618,-14.494317888539172,8.08015885875102,9.111653385447426
2025-12-12 20:52:12.501156,Right,25.756285787509114,31.885374335815868,29.916447758329014,3.1972620303313306,-36.089034260616245,5.453789209488605,27.383763802032263,30.732206093975037
2025-12-12 20:52:12.505178,Right,21.127404462857157,30.173407673821202,26.230451017283485,11.486247923526207,-28.412014921052105,2.379434662681888,27.402208879861064,27.703624573143316
2025-12-12 20:52:12.508182,Right,-4.6043101259783725,6.717143940028109,0.8379094066676771,8.338474894381761,45.235624784349056,-20.447452910575976,7.036652499687989,3.912290509635568
2025-12-12 20:52:12.512191,Right,-10.773586149271068,1.9311782720924384,-4.144377152848392,-3.0813782899258513,52.536122531908404,-24.012726707151387,1.650563132492607,0.7231813808375591
2025-12-12 20:52:12.515197,Right,10.699499773190837,22.54240409228987,17.051426829413685,-2.2757884764359915,-18.048704713361076,-3.3256934921830634,19.449992668211053,22.723618944568443
2025-12-12 20:52:12.518214,Right,22.68099262873875,31.755310561280567,25.788130895967697,13.391437096863228,-36.551691235104045,5.659251947717166,29.224523181714176,32.23173986796428
2025-12-12 20:52:12.522287,Right,11.601255723813665,18.70928890745563,11.545683078287766,24.495254804707656,27.16062032100035,-6.70805885959976,19.730690849515668,20.094919366070826
2025-12-12 20:52:12.525279,Right,8.658458475561929,16.10518702826812,8.325713402542533,22.75276044108432,50.627019310194555,-8.403754086958543,18.170262553301654,19.174466675505755
2025-12-12 20:52:12.528219,Right,26.195989709711284,34.75702467584415,26.399386177890847,21.24992451102662,-8.669349434775086,10.467266562520763,34.716181342528216,37.540703245274926
2025-12-12 20:52:12.532280,Right,32.286069556237635,41.269409894048295,31.109148152370835,26.611731592189244,-32.4631911044512,16.972932514024933,40.611432227366095,40.69451781168209
2025-12-12 20:52:12.535261,Right,12.417982145158021,22.26219809221584,9.922643536685428,27.482340560427474,35.341107904701005,-1.8116277539697876,23.00503152257079,18.048023199819
2025-12-12 20:52:12.538282,Right,0.8162099523542565,13.330088300754142,0.33889207639731467,19.816269710581764,80.01542443894664,-11.28256261802494,12.769496559607433,7.6099210310967464
2025-12-12 20:52:12.542288,Right,19.33958855367382,35.02318952298447,22.695344920139178,18.285593718745076,27.264754185126776,8.292757724977946,29.848454559367383,28.89733628229078
2025-12-12 20:52:12.545306,Right,36.07436614449398,53.21966340076324,41.05168197852072,29.440048013020714,-18.990332375805792,24.06203733304119,45.73088435384852,46.41722513509376
2025-12-12 20:52:12.549314,Right,22.182227652512665,39.216168300066784,26.583825512361727,36.917099979586055,30.01141436104035,8.83788138420573,33.86250555141305,32.51410254878283
2025-12-12 20:52:12.552322,Right,3.368319618548412,20.135929796906566,8.058085942979233,28.80014573632434,83.97963572638128,-10.997626437436793,16.34358941164828,15.241582380702312
2025-12-12 20:52:12.555353,Right,11.391504827999597,27.44788481542855,16.908397389310267,18.19882115697692,44.155373568779396,-5.1987771202871045,21.70440317640532,24.330911607430608
2025-12-12 20:52:12.559358,Right,26.44905592388386,40.32837222141461,30.02363936898655,19.3987567648619,-11.924778046090978,6.510534341497646,33.374113411635335,37.13776817115286
2025-12-12 20:52:12.562338,Right,16.564068288716953,28.08740022084021,15.924345628549418,23.26655593252508,23.23132078312119,-4.67184039963945,23.737429293130845,24.31295320229401
2025-12-12 20:52:12.566384,Right,-2.0957094636542024,9.34543582193146,-4.642097946478316,15.874838907686353,84.68917825999415,-20.51458013345848,7.2904333636579395,6.698985983130115
2025-12-12 20:52:12.569384,Right,2.956821546093124,16.357765973414644,2.125266619848844,4.532744333029768,56.018185641161836,-10.767299103936125,12.494976242734992,15.562548716272431
2025-12-12 20:52:12.572372,Right,18.189702707539254,33.07038286775423,19.083705853830907,3.6042565573116008,-12.846763586523593,7.664429302194549,26.706912438196014,32.265188136094366
2025-12-12 20:52:12.576404,Right,9.519658352350234,24.732207808108797,10.502678820468645,8.080277250652216,1.2014933600185032,0.6397639994246447,19.38364734827337,22.629394716354
2025-12-12 20:52:12.579413,Right,-12.155866109194903,4.000366859057976,-9.877221619699412,4.5757021472054475,64.58181620710093,-18.913653160503713,0.8060317452764139,2.3734087758493843
2025-12-12 20:52:12.582416,Right,-9.404461462829204,8.83020464348374,-3.4189811448050023,-1.718504024836875,50.84518412217949,-13.237805829144861,5.263328285513126,9.949468453749432
2025-12-12 20:52:12.586432,Right,12.510921601431619,32.287572626060864,21.338232299631272,4.112986464821006,-21.45447974635863,11.418289184843559,28.37345436393298,35.87913825955184
2025-12-12 20:52:12.589449,Right,14.61710228233278,34.700360976228694,23.44840244766965,17.52367029342895,-22.448078409577647,16.232191776116593,34.41804220357881,39.47300339847061
2025-12-12 20:52:12.593437,Right,-5.377577092953288,15.07188887621669,3.302202031505658,19.595067358406595,46.532679268693755,-0.774993585806925,19.56694708899886,21.117859086738463
2025-12-12 20:52:12.596476,Right,-11.668170881446713,9.472205484369624,-1.5658246724397031,8.495541239735758,55.07731720382799,-5.649663489701766,14.343821441729233,16.428054168740346
2025-12-12 20:52:12.600470,Right,1.895195760866045,22.12549941627367,11.797407735712113,0.9707651354583504,-13.741956109830426,5.577602864761047,23.98624879349518,26.808115123130847
2025-12-12 20:52:12.605475,Right,2.632090583760146,19.587148806538607,8.391637452376017,2.5197743184944557,-33.62546115278565,1.750251661806118,20.391775971533207,18.92352471990307
2025-12-12 20:52:12.609491,Right,-15.886923977370316,-2.282291665491357,-14.555880230289404,1.0991591682686703,27.407839409885128,-19.45127770954295,-0.2772664614567475,-6.944996030073526
2025-12-12 20:52:12.613488,Right,-18.637466682237573,-6.528392016531143,-18.040382262430285,-6.143923905025076,47.4128072666972,-21.70606716781964,-5.2863853849958105,-11.172540302472044
2025-12-12 20:52:12.617519,Right,5.2320298315280525,16.547350239547086,6.695673648699085,-5.516620124299152,-19.58269005061993,3.498168823090964,15.148182624721812,13.486896357819205
2025-12-12 20:52:12.621516,Right,17.98985310394346,27.819011599975056,18.19529129064358,5.948942560882642,-54.90348025740968,16.914361042529436,26.562902053497965,25.04259054943759
2025-12-12 20:52:12.626551,Right,-1.0492870946181938,7.733241263256787,-2.851379559515408,10.80505481605178,4.919143460439955,-1.5739061987081868,9.656227712988766,4.681416467516101
2025-12-12 20:52:12.630557,Right,-18.594873712750996,-9.378364989504917,-19.910598291420683,0.27179204825370107,49.635705357472034,-19.409998778789145,-6.681540099103586,-11.929891497078643
2025-12-12 20:52:12.634595,Right,-7.160889514743758,2.1481441598043602,-6.942725525042988,-10.034458000538507,-0.26851111146788753,-11.474593744307072,1.4196417317907617,-0.5181609994397149
2025-12-12 20:52:12.638530,Right,8.04668295906231,15.317935656446934,7.354134957808128,-7.024641552465255,-47.469241868890094,-2.489010066486685,11.787334541906603,10.570843822031748
2025-12-12 20:52:12.642598,Right,-0.8080733263668662,4.110310099797061,-3.566545670710184,-1.2426203115301178,-1.7072479197813664,-15.96299170637485,0.9962669725573505,-2.657702117401641
2025-12-12 20:52:12.646666,Right,-12.813129430422123,-7.733784609776194,-14.70082343195827,-4.932075293017988,51.623229978966265,-28.48007997609602,-11.177345602831338,-14.018532200108893
2025-12-12 20:52:12.649642,Right,-0.690085800797533,6.537978738750098,0.8478215421455388,-9.279017678853052,12.911435564805288,-15.156239348328882,-0.3857184380212857,1.9665306807328307
2025-12-12 20:52:12.652623,Right,15.23378468194278,24.111592213495896,18.723953664426517,-2.8195741055951657,-44.25597683381784,1.273754948275382,15.018133067347662,20.034460987539205
2025-12-12 20:52:12.659598,Right,4.91153874252268,14.595185355694412,8.403964432887733,5.467766389019744,-11.245647089675913,-7.766578138901195,8.133192073873943,10.635727877259342
2025-12-12 20:52:12.663659,Right,-13.044277769451583,-2.101000927545101,-8.191331334141069,2.5415985786203237,51.17960528516414,-22.168812030341087,-5.3123152646985545,-4.296476453229843
2025-12-12 20:52:12.666667,Right,-4.14879630282303,7.951397247146815,3.6081764749469585,-4.181155758706154,26.004347959024017,-9.643064116024107,4.037533043127041,7.949936249871826
2025-12-12 20:52:12.669677,Right,17.810352574171702,28.99531989294337,26.158072503450967,-0.5845818430843792,-40.19323352012725,13.65216490968487,23.631703193346766,29.172282911284128
2025-12-12 20:52:12.673673,Right,14.972673804939404,23.768050682316243,20.957420571772673,7.6247143079035595,-22.392197390290676,11.49458648934251,21.096582682057488,23.227181559152086
2025-12-12 20:52:12.676676,Right,-5.815970519397524,2.319820872424316,-0.5231434339693806,5.675207797796247,50.53237723810889,-6.461423781689518,4.090030840059626,3.2332921225970495
2025-12-12 20:52:12.680714,Right,-6.175811164852348,3.919958969196159,2.25196599024639,-1.9985192461535917,49.72050980815038,-2.959601319263129,6.860562181082059,8.03408113189289
2025-12-12 20:52:12.684714,Right,12.970519151615008,24.72187292844319,24.176455004071613,0.12710077381052542,-14.085481254540355,17.655335696338625,27.016472042359965,30.466667844910262
2025-12-12 20:52:12.688717,Right,13.983121809003933,25.004533395149338,24.191233572659257,8.784794679997503,-12.499864828387217,17.608722537429912,29.357761354434842,30.17788848971395
2025-12-12 20:52:12.693732,Right,-6.725315454037627,2.605631889833603,1.293521743369638,6.961735291242803,58.739366839578,-3.9567315243548364,10.098632946874204,7.401659433588065
2025-12-12 20:52:12.697750,Right,-12.0366467611384,-3.638678644212632,-4.257410454207275,-4.437456404493787,70.82167129766822,-9.239600089304076,2.8115175511957204,1.3878848035019473
2025-12-12 20:52:12.701770,Right,6.472810115399625,14.20719609193111,14.404017459142779,-6.801172229146687,2.528295171476202,9.017884534724544,16.409930113793962,18.001221455051564
2025-12-12 20:52:12.705760,Right,13.236088728663162,20.022832247555925,19.579437715365202,3.543335078024029,-19.79823552391099,15.9503958695459,20.651969973463565,21.189909377877484
2025-12-12 20:52:12.709728,Right,-4.331861817216122,2.286361842045153,0.6218023293695296,9.270913048112561,42.17693409983258,0.2742683374799526,4.344614834639287,2.1903061026750947
2025-12-12 20:52:12.714806,Right,-12.68642291955257,-5.073151510132448,-6.846129111738264,2.8717375052438,68.06166124660012,-6.4119787351555715,-3.86826011481935,-4.361306276248797
2025-12-12 20:52:12.718839,Right,3.5827480390507844,11.403725300064252,9.9696894841436,-2.575757221909953,4.542630686511984,7.8149942812760855,8.914027024096868,12.35364536121051
2025-12-12 20:52:12.721843,Right,11.725810756510327,17.526141389456825,15.132923260269308,-0.16332014208455803,-35.26627225027187,10.548671959490093,13.97820476459492,16.959273545486212
2025-12-12 20:52:12.725851,Right,-7.357994607227738,-3.9913708314907126,-8.057485637407808,-0.981902400695617,15.53989073703633,-12.885546311666985,-4.377522562999729,-5.1185840141588415
2025-12-12 20:52:12.728843,Right,-21.975844493434124,-19.03928530043231,-23.487365494594997,-10.028700096547254,52.49918435408472,-28.257360200915173,-17.078471960692696,-17.82208175406413
2025-12-12 20:52:12.732867,Right,-7.48957032504768,-3.9375019377675926,-7.6509163332375465,-14.185802299847637,-2.677485924683424,-13.375419826069447,-3.1357955175590178,-0.11374277939103195
2025-12-12 20:52:12.736862,Right,9.034441220879671,11.491061244490993,7.752247195527161,-6.270989369162635,-52.906398889655975,1.749291676806024,11.146348033462345,14.950673834629924
2025-12-12 20:52:12.740864,Right,-0.13540315092541277,-0.6442716920737439,-5.04484182748638,-0.08372376341139898,-6.381559294379258,-10.022225402561162,-0.058570193315972574,0.6987713360304042
2025-12-12 20:52:12.744900,Right,-12.975793927340419,-16.05115737252163,-19.686739032749756,-6.676160642889954,50.20725737712564,-25.12999173174103,-16.014414985074836,-15.66610372294599
2025-12-12 20:52:12.748923,Right,-1.2234537480144354,-5.382974269108672,-6.6983192690204305,-14.018185656617788,11.134653030068876,-15.758167005081305,-9.379427980373293,-5.520804392390346
