timestamp,label,FC3,C3,CP3,Cz,FCz,FC4,C4,CP4
2025-12-12 18:17:19.635791,Right,2068.456696675436,2552.810379274754,2531.2352124270496,2232.101590489893,1413.0598145501656,2075.0653857125308,2352.944355040045,2621.7477296075526
2025-12-12 18:17:19.651821,Right,11151.331434126132,13761.856965813775,13644.594453096706,12032.18626437069,7584.116055818906,11187.10707173476,12685.018954490686,14132.478787448203
2025-12-12 18:17:19.654784,Right,25599.58606712474,31586.518257272943,31313.709675097034,27615.55976677143,17258.169873239895,25681.34784410968,29117.77822164668,32433.426110476757
2025-12-12 18:17:19.657798,Right,32125.191075147093,39616.8651443461,39266.32951515277,34639.82410244504,21297.691480673057,32224.552836388844,36527.607761831554,40671.906483582075
2025-12-12 18:17:19.661839,Right,21922.071060132963,26989.30753213013,26736.96326265132,23614.53327310065,14055.30562576616,21980.856551617384,24895.513339726203,27701.463354081847
2025-12-12 18:17:19.665798,Right,2697.0485262570874,3247.513226555893,3195.8179737568717,2875.63575139796,1319.6444556791976,2687.7547156469373,3008.2780481975933,3332.409424884536
2025-12-12 18:17:19.669868,Right,-11910.154111793468,-14754.37756071135,-14648.26163793559,-12862.739794077905,-7832.843163791898,-11963.092170009855,-13596.92730304852,-15137.343078589474
2025-12-12 18:17:19.673886,Right,-15616.994406641752,-19293.7507763537,-19146.30551915412,-16849.800718818966,-10038.100305115251,-15672.059878505068,-17786.681706786563,-19796.37206577987
2025-12-12 18:17:19.677922,Right,-11097.326473088993,-13712.04826043651,-13612.173889040016,-11981.558649793384,-7376.455050410004,-11133.086355371692,-12635.123998396157,-14074.324882543413
2025-12-12 18:17:19.681910,Right,-4714.019912498188,-5850.9913401602535,-5815.391848574043,-5102.032901689177,-3385.277459111472,-4731.993857846654,-5382.803931414615,-6005.002950592549
2025-12-12 18:17:19.684917,Right,-1345.2975285490975,-1692.3873580235522,-1686.9827032501344,-1459.9556319026742,-889.0009793104255,-1353.997217243712,-1552.708741045557,-1727.5510785841616
2025-12-12 18:17:19.689904,Right,-2112.9491731723538,-2622.5148830090184,-2607.315343969036,-2280.952294406132,-1196.0053962924285,-2121.1544033171376,-2414.5156077838037,-2680.8705906036776
2025-12-12 18:17:19.693934,Right,-4910.145899934927,-6073.195060546277,-6030.231229415047,-5304.745020381059,-3326.654364277725,-4926.961717155296,-5592.982755289529,-6231.773131262045
2025-12-12 18:17:19.698954,Right,-6702.149195021018,-8297.055387810222,-8234.08296684234,-7242.594303194084,-4732.272513599135,-6729.759150809492,-7641.477449494065,-8517.988800981082
2025-12-12 18:17:19.701962,Right,-6046.922587848618,-7483.149861922488,-7422.883788356092,-6526.3828704449115,-4000.9945641188533,-6075.496743811527,-6898.404204920633,-7676.13168446545
2025-12-12 18:17:19.705951,Right,-4035.3971549886046,-4980.509242271772,-4941.028679665877,-4349.3448167108,-2388.112884199363,-4054.9145712826867,-4598.693490659352,-5106.677537100972
2025-12-12 18:17:19.709978,Right,-2866.925111331162,-3538.3567801453173,-3515.673552613007,-3099.5027277941117,-1895.7767520698253,-2881.208567782538,-3266.37175487075,-3637.631459579221
2025-12-12 18:17:19.713975,Right,-3430.3666111750063,-4254.311864123447,-4227.4988876150455,-3718.990372857428,-2619.097744419705,-3449.9412275926443,-3920.331259180093,-4379.100473372149
2025-12-12 18:17:19.717942,Right,-4481.299213727238,-5553.854370089015,-5511.916571472073,-4844.603529465268,-3083.958132140804,-4505.658526664833,-5120.87417836464,-5705.446696403669
2025-12-12 18:17:19.721972,Right,-4370.470596901607,-5393.542424744461,-5349.438024870236,-4710.137529973057,-2605.852297827252,-4389.091176459566,-4979.247232856462,-5534.507671398111
2025-12-12 18:17:19.725042,Right,-3171.0731337163597,-3902.574176509632,-3872.6864419165067,-3418.4688452131813,-1970.194793016417,-3181.385902859154,-3602.498328263988,-4011.4504575079773
2025-12-12 18:17:19.729054,Right,-2440.426716454327,-3018.7386997593567,-2997.564106659498,-2641.977044010884,-1919.9375318516977,-2452.308945194236,-2781.0413111303933,-3112.7639811336994
2025-12-12 18:17:19.734036,Right,-2977.6559646882815,-3692.5098978979513,-3661.7248825712595,-3218.94935790624,-2195.534916626406,-2997.273571299971,-3404.3691228935495,-3800.133619156899
2025-12-12 18:17:19.738059,Right,-3729.8120465266984,-4602.654891292797,-4560.253502475098,-4017.7874361096183,-2257.3436162957223,-3750.548031395534,-4252.261126138968,-4727.370473172283
2025-12-12 18:17:19.742056,Right,-3373.1862531717634,-4146.9722700028215,-4110.125058536185,-3634.174484980176,-2034.579582680366,-3387.7023901825305,-3833.369758995017,-4264.080895773834
2025-12-12 18:17:19.746096,Right,-2232.0376573805697,-2751.2999180082697,-2729.219216589583,-2416.1082083800575,-1710.9554952254985,-2243.1712563851615,-2539.6535797538236,-2838.672730310587
2025-12-12 18:17:19.750098,Right,-1751.5936077510705,-2171.6410481906496,-2152.272527459776,-1898.0994367480744,-1446.2846550899558,-1764.7634215448052,-2003.7771797239548,-2238.2056929750834
2025-12-12 18:17:19.754048,Right,-2383.222304523224,-2935.7062050856184,-2905.6107487231493,-2564.9081070728134,-1450.6432273261016,-2396.4109054197324,-2714.9015993966023,-3011.2406942795496
2025-12-12 18:17:19.758112,Right,-3003.6495057221036,-3680.7094387009274,-3644.5444275259506,-3228.904161349754,-1743.8054509486537,-3012.1760455418844,-3403.4993306690594,-3775.8962001544423
2025-12-12 18:17:19.761070,Right,-2593.6242270529037,-3182.120116206119,-3152.909406632185,-2796.992780116154,-1844.0254281065427,-2598.6635550740175,-2936.112401545979,-3271.5370721803047
2025-12-12 18:17:19.766129,Right,-1625.136281643645,-2005.331014715135,-1984.9823947040131,-1756.652461190126,-1353.8148089159513,-1630.400802625576,-1846.293023523991,-2061.823428909993
2025-12-12 18:17:19.770138,Right,-1264.972966213827,-1555.5609273557784,-1535.5692613302963,-1357.679380061105,-774.7177570692729,-1269.755063318531,-1436.198433159152,-1590.9814676025417
2025-12-12 18:17:19.774168,Right,-1746.018154376652,-2131.058860762976,-2106.799292543088,-1870.7372769479407,-916.3844043188728,-1748.5713150672382,-1970.6969632162945,-2182.1022691455437
2025-12-12 18:17:19.777192,Right,-2196.1629150748486,-2688.949577783933,-2663.5704389879247,-2365.3186392541975,-1529.9359326005215,-2199.5469413119135,-2481.3776391340652,-2764.9315595333464
2025-12-12 18:17:19.781182,Right,-1911.6013155723922,-2353.2243842678145,-2330.3848585229134,-2064.1785385992844,-1535.9419653146178,-1918.5674318346428,-2169.371474443353,-2422.8470692299306
2025-12-12 18:17:19.785137,Right,-1202.4544632328907,-1473.822306939168,-1454.2694211344933,-1290.2921923677204,-756.3728806821164,-1208.6832373221405,-1363.8622979313368,-1511.7577865318162
2025-12-12 18:17:19.789209,Right,-855.3484596244525,-1026.6793837402947,-1009.918621231569,-909.3488426955882,-292.83342813001946,-855.8947749621002,-955.5711769306799,-1049.6950639946153
2025-12-12 18:17:19.794218,Right,-1126.1859407903394,-1361.0884685566416,-1344.7413846137933,-1210.5440968319308,-763.0677409280324,-1124.693008262897,-1258.9948564507067,-1400.447070084978
2025-12-12 18:17:19.798202,Right,-1507.0311895110644,-1847.688316605403,-1828.0845388758462,-1629.320226066513,-1287.71357776667,-1509.6266945032403,-1702.9701338952873,-1903.2190680389758
2025-12-12 18:17:19.802226,Right,-1396.9958086230326,-1710.1241824692115,-1688.4097286603646,-1501.6939680132782,-947.9102382900892,-1400.648757717805,-1581.0832194556715,-1755.3067994004814
2025-12-12 18:17:19.805239,Right,-827.9522598371841,-986.9257068277802,-970.1534315934405,-877.3045026978943,-257.07354785269126,-825.1221601853613,-920.7367366611725,-1011.0277701278683
2025-12-12 18:17:19.809270,Right,-417.2270223235246,-476.54111954476684,-467.0329301804304,-440.7124330061488,-220.17410372121958,-409.4288849235745,-446.8931724623544,-496.965160293621
2025-12-12 18:17:19.813276,Right,-585.1480169387069,-703.5894214292057,-692.7299633133225,-632.5319522668142,-691.6809833333245,-580.5836406813469,-649.2427601048257,-735.9629603679059
2025-12-12 18:17:19.817279,Right,-986.5173929379089,-1204.7395951717626,-1184.9907290043775,-1059.5046252304455,-775.0140160573064,-985.3541204876965,-1112.4845570455072,-1241.821143119596
2025-12-12 18:17:19.821295,Right,-953.0577179449028,-1143.0927756548626,-1120.8419144033687,-1010.6024069339037,-359.97243656549836,-946.889659623499,-1060.996538800653,-1169.629670187598
2025-12-12 18:17:19.826300,Right,-423.08576550823636,-478.5534579756204,-465.1385610308498,-442.10253232275136,-126.63084214663832,-410.0811436297372,-445.9704307419015,-491.9890943146311
2025-12-12 18:17:19.830307,Right,-43.57374894950772,-28.09287328494247,-22.055047439644113,-46.000972669920884,-275.15730055375025,-32.65613803738961,-23.608765834826045,-36.849598401458934
2025-12-12 18:17:19.833305,Right,-237.04569447005633,-280.87284361507045,-270.88319706823677,-254.78651190112578,-335.5250078503159,-233.6873176372028,-257.2811637642444,-292.05024638964096
2025-12-12 18:17:19.838323,Right,-589.804203382053,-703.3775046498631,-687.0797163841198,-624.2253862977959,-160.00143334973836,-588.0245351942722,-653.2221857635886,-718.2515558396699
2025-12-12 18:17:19.842362,Right,-487.22474232304376,-564.904437122168,-551.9917939123698,-513.4111089556245,-107.1035997242434,-480.5002043445129,-524.3651964169112,-579.4730448346818
2025-12-12 18:17:19.846368,Right,-21.711649439646862,-4.536176035704557,0.19492989650461823,-21.761733580380678,-214.4244477871398,-12.437060732394457,1.182774160639383,-10.975060347409453
2025-12-12 18:17:19.849366,Right,203.75356310035568,258.91473567532375,262.92813444620697,222.46769253956154,-112.09294659749139,211.76991657572216,246.85561736358795,264.54726943094283
2025-12-12 18:17:19.854443,Right,4.217974378931103,25.413682474580128,34.90092223609099,21.418928187398706,160.2629188200808,14.023922376072733,25.378805340325925,35.412231454858556
2025-12-12 18:17:19.857439,Right,-186.13768253935268,-191.4744511572062,-181.07083946026978,-179.83186730739544,138.30966364419146,-171.50449830506113,-177.08350572694326,-188.32406619205722
2025-12-12 18:17:19.860446,Right,-43.176480840164004,-23.43979154920089,-17.658104294445366,-37.19033262974699,-144.18259923496225,-28.330772357527167,-16.543803004635265,-25.295087144477293
2025-12-12 18:17:19.865427,Right,219.38776529597817,283.31804694706807,287.29534072615206,241.21340421958303,-107.84845532171312,229.62440288595099,268.54097859979083,289.12910185501096
2025-12-12 18:17:19.869385,Right,292.6381185047503,381.0036843544658,387.0637553623237,331.0188823949429,311.4436677318554,301.7254182756151,352.2246962471254,397.358653468953
2025-12-12 18:17:19.873433,Right,227.43101377756102,318.9328721905622,323.7262338085202,266.3380489248884,463.11842492783217,239.8772904508296,290.86562590419635,333.2093893469864
2025-12-12 18:17:19.877384,Right,226.62655327203538,312.24057649196766,311.81259035649055,254.6283199364334,127.44453374987279,238.34002229407815,289.21847975359697,316.10914984083774
2025-12-12 18:17:19.882463,Right,296.19867121848074,377.08977997364127,375.0500043667489,321.4207838644252,-55.18005056268157,301.0387259866802,351.8173694192519,379.10752976960066
2025-12-12 18:17:19.885472,Right,347.14165356114245,439.92808707222866,441.03796691208845,384.2744354566239,287.58883914920443,348.2190202630809,403.2611303300655,450.259670213185
2025-12-12 18:17:19.888435,Right,412.0377519047033,537.1318902818748,538.495025636279,461.07281578531547,594.6726674835954,416.84045189428434,487.1500445443671,551.499138907835
2025-12-12 18:17:19.893489,Right,525.1771781875141,674.8459917806322,671.7232505738793,573.4432745859667,385.85623574990314,532.9465745695925,618.7082032388716,684.5702223123226
2025-12-12 18:17:19.897440,Right,574.8418603792379,715.0056288201886,710.3226634260209,616.5760598097986,110.6233602106513,578.8668227262096,661.991522819997,723.2529858154594
2025-12-12 18:17:19.901463,Right,498.05906292086,616.3394234755542,615.5118700041203,540.0903681418858,300.3518946513359,498.2383303477254,567.8626760616025,631.5207403907552
2025-12-12 18:17:19.905537,Right,455.86443478404544,582.2398635825957,582.6645399343688,504.1955914499704,609.772386037017,458.5092248216679,530.4169270056882,602.4091743245372
2025-12-12 18:17:19.909535,Right,590.0730481196952,751.4108738933573,746.7024236972211,642.4847352999495,498.2526785924856,596.0741139756283,689.1550180051709,768.8744488579105
2025-12-12 18:17:19.913547,Right,756.9767928329529,936.9623243125388,928.7292854799307,810.9459848065162,242.643483736465,760.5481831638026,866.8926309897215,953.2985627625603
2025-12-12 18:17:19.918559,Right,742.6131614106707,910.0992195211002,905.487442378304,799.578822943964,390.02268513003946,742.402898734319,840.798012958141,932.470646893722
2025-12-12 18:17:19.921614,Right,614.6376545512467,768.7850303252926,767.9942593791056,672.9780649152235,706.1752770357416,616.2346070801723,704.7754086463829,794.9258340214728
2025-12-12 18:17:19.926599,Right,604.5776544263354,765.6333941221237,762.0438179426128,658.9100894604926,618.1525446747546,609.9055204333272,704.1008229347644,787.3656579647213
2025-12-12 18:17:19.929625,Right,735.0313185770647,909.6711174509255,901.9026308052125,787.1207998487516,320.08131161960773,738.5816046866821,844.8251846688217,929.4647542682942
2025-12-12 18:17:19.933598,Right,824.6253132208949,1007.2961075642379,1001.0133684541797,884.4474957631901,433.3359891283326,823.709757634264,935.4513026766363,1035.9236063517164
2025-12-12 18:17:19.939613,Right,803.7155117905932,994.8455348465359,991.8764647743665,873.2468309776159,823.1407121419325,803.4814500958892,917.8236588215223,1032.3575182534987
2025-12-12 18:17:19.942657,Right,771.9491074652178,967.972959605162,963.576577389962,838.4203335577622,804.5698150272365,775.6162989346776,893.2082862452371,1002.3921690798597
2025-12-12 18:17:19.945643,Right,777.7747059888206,961.382625950384,954.1196722183377,832.2983984687598,408.25048826570855,780.6897618628573,894.5723531397525,988.7682276986307
2025-12-12 18:17:19.949643,Right,780.6416014307179,949.8731082247104,944.4912455051672,834.1664853532566,361.57841658755206,779.819139619125,885.5784429461928,980.7225217367522
2025-12-12 18:17:19.953719,Right,803.6042595062172,990.3756092422409,988.039021604578,871.8456988604739,776.5884765059454,804.7282228210242,915.9629620688502,1030.9467684782576
2025-12-12 18:17:19.960679,Right,889.3278655374888,1113.865295283962,1108.9473199232016,968.2241360807093,936.7729627818335,897.0003957137233,1026.846796887461,1154.8281744049164
2025-12-12 18:17:19.963684,Right,937.2255685997661,1164.01939830638,1154.5391005558195,1008.1221951532643,582.238625752856,945.8063824805431,1078.3596617050935,1195.3757780084852
2025-12-12 18:17:19.966707,Right,834.1945857807295,1018.1497934297659,1010.21247773699,891.2714200362097,359.57443670363864,836.6754081161926,945.5160372942919,1043.9023796059191
2025-12-12 18:17:19.969721,Right,716.3057749933796,878.544997528661,875.2995205866173,773.7950972529361,645.5465853061178,715.7682434743037,809.3187624937855,907.2947676760377
2025-12-12 18:17:19.973705,Right,812.36510337668,1015.4569884428056,1010.5994708484504,882.2905248278985,903.6343987228465,815.6033586220583,930.3959140336374,1045.8321859592106
2025-12-12 18:17:19.976722,Right,1031.598904519109,1281.3029886400327,1270.1429750504903,1107.6095954847988,693.8446203097701,1036.9355518316152,1179.9897299496224,1306.9051463289652
2025-12-12 18:17:19.980742,Right,1040.247583164717,1272.1159753927495,1260.7962647330714,1109.390238617314,435.0772380430717,1041.554542120779,1175.3430337409955,1293.73859220976
2025-12-12 18:17:19.985746,Right,804.1276095208013,982.7178733818,978.3045574045973,865.1939187664539,574.6759547716938,802.7038521815557,903.0014527693857,1005.594034147216
2025-12-12 18:17:19.989760,Right,691.4378584753722,864.5039069498889,862.9848197354004,754.3780950527871,784.7565884763608,693.3783442650456,788.2662318034563,889.1727106475737
2025-12-12 18:17:19.993771,Right,891.9003487271257,1113.769481790834,1107.2699900293956,964.0156260869699,648.3281726054847,896.3743944751332,1022.1788109770278,1138.9707120456733
2025-12-12 18:17:19.996719,Right,1093.907994710491,1343.1998835424893,1333.5097111323848,1172.3216637715232,455.89487591024954,1094.7917479618918,1240.208358482574,1372.063641167595
2025-12-12 18:17:20.000803,Right,981.724014461739,1199.9809434163617,1194.5856147571467,1057.4033902629744,599.663233130239,979.6918753739446,1106.2673872816376,1233.8630161496112
2025-12-12 18:17:20.006809,Right,740.8353747908259,920.6903562336229,919.2871210225858,807.608292626217,781.4662524132291,743.112819142174,844.2261903145118,952.71091308631
2025-12-12 18:17:20.010836,Right,743.2991297000553,929.5215729589108,925.3102621923899,804.9057872806443,593.8085486013442,751.1127068080241,855.8193704435835,954.4818093490321
2025-12-12 18:17:20.014841,Right,957.4651280466933,1176.1846368703991,1168.532604795997,1025.184968918562,354.67401361931115,964.2787349513965,1089.254333806457,1201.2403222848661
2025-12-12 18:17:20.018828,Right,1040.1553118450101,1271.1443841792643,1266.2998942071572,1119.3153289571637,537.0656768304761,1043.7428726347862,1173.6101531683234,1305.157496367814
2025-12-12 18:17:20.024514,Right,891.1219117697328,1106.2662434673402,1105.7810770045035,971.8772845232161,830.5627771884901,896.9109794941032,1013.6159459814662,1143.8071217155084
2025-12-12 18:17:20.026871,Right,750.2299782827031,945.1786453195382,943.6710572226439,819.3240638971329,665.7758783315076,760.4788380571408,866.015016694786,974.7278665192425
2025-12-12 18:17:20.029903,Right,778.2658415448386,965.7795495721512,961.1313929946627,838.9541373423999,296.25704358762596,788.2631361406529,893.5120271089254,990.1883985640015
2025-12-12 18:17:20.032905,Right,866.9119321088074,1063.1495796304662,1059.4364981877152,936.1006169079337,388.0559848389821,875.1251589785097,985.9178511841455,1096.1727505777963
2025-12-12 18:17:20.036874,Right,887.0676102666184,1101.5252543999813,1099.997881961055,970.1379261737457,795.5136216594838,899.2771273821127,1016.873441436328,1144.555983330356
2025-12-12 18:17:20.043910,Right,854.1771679118974,1074.5066753134597,1070.7741770329885,935.5282919250894,783.5778626875253,872.9838016525609,992.3207037205575,1113.2735203572083
2025-12-12 18:17:20.047935,Right,806.4284159019589,1003.6718612441327,996.5134244547226,872.6978703414788,349.4660562624922,825.6635929191252,933.5658018467948,1031.0838474174961
2025-12-12 18:17:20.050899,Right,744.1280806260183,913.5032633016817,907.7362490864471,805.1846740108449,243.7236882764846,759.5403598132543,851.0399728518678,939.9028118490241
2025-12-12 18:17:20.053990,Right,721.3773820853094,900.7385218215641,897.8604038339108,795.7954829805531,629.2788471654058,738.338978682179,831.2604507569922,935.0247315492015
2025-12-12 18:17:20.056968,Right,792.3405100763775,1011.1742991486099,1005.7004612798337,879.6733283267822,802.7605137184728,815.6414759558393,928.8778810696676,1045.9937046293635
2025-12-12 18:17:20.060988,Right,854.2799716810696,1082.7659533135593,1072.2260084890295,936.7255646905396,469.1101938501233,878.0273666467983,999.1970745183062,1107.602026598528
2025-12-12 18:17:20.064930,Right,765.235097702127,954.0371227879077,944.1457566402387,833.9854830817785,244.96885583736002,781.3768537844298,881.6337828311371,971.1537204263732
2025-12-12 18:17:20.069988,Right,621.0898877069121,778.6152193325106,773.1883676045109,685.9599043861963,512.2296439642087,631.6568630769616,711.8192706307163,795.691431682324
2025-12-12 18:17:20.073997,Right,653.7476537119364,833.9739837045781,828.0736306572799,725.2479136551265,751.039585534716,665.6894976055482,757.0221395171247,850.710515286075
2025-12-12 18:17:20.078027,Right,830.8294499262702,1046.310851762304,1035.9382633061614,906.156505609164,534.3362690313952,843.8080935403705,957.2485804024618,1059.169500341639
2025-12-12 18:17:20.081027,Right,859.1204899414442,1061.0885299728252,1051.8018853361718,930.7031796352239,296.2895899504656,868.2732234706637,975.560831371462,1073.478195339907
2025-12-12 18:17:20.085037,Right,660.6016666435171,818.3658167971298,816.2565293130465,728.1406818379182,480.46053071925417,667.783975828439,747.3746416945942,835.1731103465427
2025-12-12 18:17:20.090045,Right,523.4299051411217,670.6240498304833,671.3132537549827,591.0492767392425,713.8424885489512,534.8272539862664,606.263794363942,688.6110335688572
2025-12-12 18:17:20.093996,Right,634.8252882171655,810.1984887637664,805.823301555356,703.1520996786421,543.6414322447963,649.0766768368194,739.5565601983108,824.1698590489104
2025-12-12 18:17:20.097027,Right,776.0626378521556,963.3138356143609,955.3107888039667,842.9192067472031,303.75180000811815,785.765197277884,887.1876745548798,976.4327979492955
2025-12-12 18:17:20.102079,Right,698.6237709522247,860.8809504699893,856.1776908151805,762.8621597652091,464.3266996599268,703.4556852249661,790.0123084904626,878.5685796653852
2025-12-12 18:17:20.105032,Right,528.4739896213869,668.0609845810104,666.4298191000707,589.0086835352704,716.6699061398394,535.978706859285,606.6651409406913,686.9023215556517
2025-12-12 18:17:20.109098,Right,520.6607375489548,664.6925551190507,660.1666420605034,576.3162414649269,550.9554787678644,533.03813613893,607.2575171513017,678.6722316825762
2025-12-12 18:17:20.113110,Right,627.9448117855936,778.8414757917635,771.4377009475138,681.4068121080054,241.9028306552209,638.7790548874764,720.900205916143,792.2996898517013
2025-12-12 18:17:20.117123,Right,624.4124840212753,764.5169197323266,760.0621649476234,680.7229017942445,355.5929788084468,630.5837846770883,707.7984042423777,786.2959347025026
2025-12-12 18:17:20.121146,Right,510.45881065085996,639.3922710253391,638.2924721229356,568.2690617205808,676.5303023122251,516.8040180339012,586.2555052868556,666.6353744885419
2025-12-12 18:17:20.125150,Right,472.86323453870136,602.7647953244159,599.2442871804815,523.7139256339287,584.1028110301122,481.5660723752808,552.6175473494222,624.1429856522009
2025-12-12 18:17:20.129146,Right,527.6417137513636,652.9577831920469,646.2244856684702,568.06186623557,209.66970112151466,533.062126088189,604.9399736882187,667.2308170502074
2025-12-12 18:17:20.133158,Right,519.869060257799,627.3559278942412,623.4596701818518,557.1075598597527,213.07042304275092,518.8363068209728,581.1060904297046,644.469502117834
2025-12-12 18:17:20.136237,Right,440.0671916261781,539.5880872410489,540.1936031581135,480.41761609492823,566.4328715306474,437.89541160548106,493.0394971445203,562.3122798199765
2025-12-12 18:17:20.141203,Right,433.80805805057753,544.1588998896768,543.257994309999,472.44593445875216,599.1438268674538,434.0488836830482,495.4003405444091,563.1995035480941
2025-12-12 18:17:20.145213,Right,500.74469516810495,612.3065399199259,607.2904407531023,530.4308577500051,233.70779729168862,497.77658065839205,563.6072289157892,623.0170388801489
2025-12-12 18:17:20.149208,Right,481.6570149206091,569.4785787516739,566.0401934189722,505.41525460849516,126.45248990337132,470.64529953629244,524.6475211210782,579.4119974387577
2025-12-12 18:17:20.153218,Right,369.2898550608661,438.5986371083418,440.2993438220583,395.72001053008717,453.7912985801231,355.7499214662239,396.4703848887002,452.9846239075996
2025-12-12 18:17:20.157216,Right,340.5225118374219,420.85468129219953,422.9168178617256,370.8783692049328,597.0494319974096,331.98286527732853,376.80756774544716,433.79257463791873
2025-12-12 18:17:20.161184,Right,427.61774523183703,522.220664382563,521.1129934089258,456.86683484516107,300.93931346409954,422.5232249002438,476.5295674029039,529.5431818610523
2025-12-12 18:17:20.164262,Right,444.97779673477635,525.8043634054484,526.3694470275659,472.751673968276,139.40027273102896,438.3837607759051,484.39323653595056,534.3764384179376
2025-12-12 18:17:20.169275,Right,325.90034466108773,383.43647523142863,389.9576395533513,356.3235736043425,427.69584479520563,319.91439319681376,348.8843043500092,398.71722712297924
2025-12-12 18:17:20.173292,Right,251.51689077634364,309.5651307554217,317.4887573256856,283.2691492824815,625.6005234448821,250.5262934822822,277.5194452924188,324.7710703695193
2025-12-12 18:17:20.177306,Right,325.72425483271945,396.56532395945396,400.5419203322381,352.4038200667128,349.46667954156874,326.2675825401675,363.38704573898576,404.3826067156624
2025-12-12 18:17:20.181291,Right,388.7227485679323,452.29057927406393,455.78128186881077,409.4449930752162,92.79068822000409,384.2535259539727,420.28245772526134,458.01022241439205
2025-12-12 18:17:20.185307,Right,307.7013065983774,350.4310522432206,359.0585192955332,327.5477586813504,301.2521379813552,300.155776607804,322.5708189866273,362.2451030409429
2025-12-12 18:17:20.189327,Right,207.45358004420996,245.46672272367869,256.3705843386706,226.3875044126762,534.8557902590255,203.9714188715443,220.6337885101093,259.7541151698679
2025-12-12 18:17:20.192341,Right,229.08630608790554,273.75000199640635,280.638033908559,240.74301381967962,292.3302973706741,229.26783978031017,250.5402921589557,282.38997552974615
2025-12-12 18:17:20.197324,Right,279.57949660602026,314.33744681370445,318.7711793166818,283.7128689624369,-39.744436404667795,276.49408458860125,294.31364905880764,320.2718320044223
2025-12-12 18:17:20.201369,Right,228.44368513929658,242.7913331441814,250.7784479673719,234.309625078924,104.88221668743063,221.5370583627373,226.26791665120982,254.93017193244305
2025-12-12 18:17:20.205431,Right,158.41409734426998,172.47394062078092,183.05322003550828,171.0794377324637,417.0021823394345,154.46919482667,156.2002318103332,189.3921563649783
2025-12-12 18:17:20.209418,Right,191.41065054037608,219.57098291546572,226.9778592333896,203.94127990095876,278.9175098352134,191.934375405428,202.92281383508816,232.19357335881796
2025-12-12 18:17:20.213442,Right,235.87949861877132,256.3193267774768,261.56263693759684,241.2548093543155,-93.3240114840446,234.654712146963,244.8488640366122,264.72296523617115
2025-12-12 18:17:20.216449,Right,158.45747740683146,150.74020819657017,160.4147682127077,160.9086029753089,-53.441531874996144,153.9557656403631,148.1668759653112,164.129503494245
2025-12-12 18:17:20.220420,Right,60.25440974603407,45.76365914568305,59.82133786694612,67.06371165020391,277.7629830595106,59.420215618622024,46.88427762815263,65.76396788202692
2025-12-12 18:17:20.224371,Right,107.0190780616831,114.62256365222856,126.00149893062189,115.90635139984079,242.70470604789443,112.74879721086472,112.82574582798406,132.57227602996863
2025-12-12 18:17:20.229449,Right,206.07689694699366,220.28859726525843,227.4817516329931,209.59209077002015,-137.11360407437314,211.33112609985983,218.40380527451634,232.74386758264154
2025-12-12 18:17:20.233443,Right,151.98750835633837,137.70244117663242,147.02310410543578,149.56455483741593,-220.55984993869788,151.3338868842693,143.17724634538172,150.99769354239106
2025-12-12 18:17:20.237450,Right,3.914363768300973,-33.140805772680324,-19.83276996423956,0.6725067586521618,55.94091449477128,1.2977008608868346,-21.64684114564443,-16.72020869120024
2025-12-12 18:17:20.241472,Right,-2.7390456304419786,-25.86173218896147,-15.17009455175139,-5.71108119917335,85.43913544109091,-3.3345376703655347,-17.70324822200928,-13.22401790128788
2025-12-12 18:17:20.245413,Right,124.69026279251557,120.77006415114738,125.49727102159522,118.9958694431698,-254.715370231017,122.17660662904382,122.3645254529547,126.558200246247
2025-12-12 18:17:20.248465,Right,140.69429505552398,123.88475985854166,128.35444601555355,132.34156916069333,-383.4199591592769,132.7028666335973,125.99317536648596,129.36700219928753
2025-12-12 18:17:20.252429,Right,-6.1515708200167865,-48.1493505841936,-39.84839286026545,-14.681543735146988,-125.93150659493404,-14.394173981971107,-39.88604987488361,-39.387678471568506
2025-12-12 18:17:20.256503,Right,-84.97793248045491,-126.7317848453531,-119.37390488618985,-94.65410849906038,-43.452864990744274,-87.53457342647016,-115.78698340739356,-120.49183704156894
2025-12-12 18:17:20.261509,Right,7.4276261110208,-18.365419759473298,-16.199259727902245,-5.850764126807917,-360.2567971188255,6.810230795934331,-10.04287632839987,-17.499437485588714
2025-12-12 18:17:20.266475,Right,76.13642666966189,48.276626649545506,49.79490475857165,61.209600249829236,-525.0435931113607,70.25388260604814,54.95910401636502,50.91218219138682
2025-12-12 18:17:20.270538,Right,-15.22945997066563,-59.96284185227705,-53.972269348974805,-28.78829187969677,-250.95296863299154,-25.32880055543501,-51.030752219841816,-51.448354135325644
2025-12-12 18:17:20.273505,Right,-116.88374923187075,-165.6424636960728,-158.81681336392649,-132.16747657058295,-76.074873336147,-125.31993012750172,-154.0630860425881,-159.37029255583184
2025-12-12 18:17:20.276567,Right,-80.92863410542486,-122.16960194212152,-120.21686272908119,-102.73074160458054,-365.89701768337545,-88.21149708042503,-109.84798560274066,-125.23165637266356
2025-12-12 18:17:20.280561,Right,-14.419280697911745,-58.63311565652839,-59.31835255710757,-39.10376134395483,-615.1049391081906,-25.51685617293697,-45.95933777806931,-64.20810288531356
2025-12-12 18:17:20.284519,Right,-55.43580663276953,-109.03075239725877,-107.1926029153401,-74.5580537233327,-377.0068492457722,-68.99686236758134,-95.71256645442918,-107.69455838261638
2025-12-12 18:17:20.289599,Right,-123.41756404691841,-172.5281411493197,-170.05359893554123,-137.47195691679372,-104.19516329083945,-133.24471548956353,-158.892821864516,-168.18740253843134
2025-12-12 18:17:20.293599,Right,-101.06884737126529,-140.7379918876104,-142.4706717573863,-119.52583995295572,-320.27116044139075,-107.49506168198423,-125.46833306716871,-142.72047102393117
2025-12-12 18:17:20.297622,Right,-67.13708938498166,-116.57640861455002,-120.16074165530154,-92.89163121709134,-646.6233846290088,-76.40106780474889,-96.87002932847827,-122.33908749691909
2025-12-12 18:17:20.300622,Right,-129.00570194158354,-196.2317113863246,-195.598722254319,-153.25512884315685,-495.99888175412343,-140.9062741574453,-172.85171951809025,-195.84248627061606
2025-12-12 18:17:20.304634,Right,-198.60596801202337,-259.9454182777408,-256.276984322918,-215.41457457176875,-153.93129577161744,-205.4649518003862,-237.68233824557683,-253.6279393672594
2025-12-12 18:17:20.308613,Right,-161.51781677988765,-201.61877333816665,-201.1683263072773,-177.5805433774658,-247.10917418521421,-161.310503109431,-181.5232494003285,-198.62765561416745
2025-12-12 18:17:20.312646,Right,-112.83963076947839,-155.77581277025456,-158.39801488576632,-136.38898575757048,-590.2059341709246,-113.06010417782818,-132.08229716480128,-157.84676395037968
2025-12-12 18:17:20.317661,Right,-185.32654255983653,-255.36277017866087,-255.15375830903213,-213.86379058472085,-544.2965005441074,-190.89170493041456,-224.72250716924464,-255.46821465648827
2025-12-12 18:17:20.321703,Right,-279.8612416268588,-358.01707997182893,-354.95359989198187,-306.8290470162501,-204.0777595917898,-287.09841509670514,-326.6200977878907,-355.5479015448982
2025-12-12 18:17:20.325701,Right,-229.31429794616633,-285.33011852938216,-286.0058358762126,-256.0014349153298,-206.0317579653929,-235.5858078655674,-260.4810470810189,-288.4446822313612
2025-12-12 18:17:20.329737,Right,-119.2702897837753,-164.74367484229515,-170.43624181165433,-151.01321268880565,-532.6404116565391,-128.687790191477,-143.50652276314213,-175.5653952431294
2025-12-12 18:17:20.332731,Right,-156.66609600885567,-224.6072348329908,-228.79053240014036,-192.13130751960853,-549.5757604461105,-170.97178773646374,-198.50579739125533,-235.30197859737382
2025-12-12 18:17:20.336719,Right,-296.2050474312491,-382.8189663149533,-382.92779804352904,-329.64388672920904,-195.80598936596652,-308.8828856347245,-351.11522540883016,-389.6934351439486
2025-12-12 18:17:20.340678,Right,-308.69599410239607,-380.71949955893797,-382.4451842843264,-339.6708630888752,-94.9008149340807,-315.02280389366933,-350.4736107599674,-389.6769815436128
2025-12-12 18:17:20.344716,Right,-187.27644535470608,-240.32815501917503,-246.59892153381952,-219.54686083876004,-385.86523531388957,-192.6540831777238,-214.08032697923773,-253.95009990742255
2025-12-12 18:17:20.350772,Right,-160.78237960451224,-224.52463415983948,-229.86926972743822,-193.94830186206673,-469.8732920126349,-171.443090907007,-196.66559631847485,-235.98891456190904
2025-12-12 18:17:20.353801,Right,-285.3917338367901,-369.68555470524007,-370.69798926549265,-316.10779190112953,-143.65691997040994,-297.8138263665751,-336.51282991067274,-375.60895333459484
2025-12-12 18:17:20.357796,Right,-349.42410589943756,-429.7613324430713,-432.246536934108,-379.14803040328843,13.808072679297766,-357.4491003965086,-395.2529931089375,-437.6215360776987
2025-12-12 18:17:20.360795,Right,-256.5856571244658,-320.8059379355691,-329.9572545319097,-289.56072880732245,-270.8136071387271,-262.66652538935887,-289.21797484127455,-335.8644964339619
2025-12-12 18:17:20.364819,Right,-189.83111296480638,-257.69439375487855,-268.99653678550385,-224.43158542874153,-448.0346317497606,-199.72772160201566,-226.95544321197667,-272.9616110853967
2025-12-12 18:17:20.368807,Right,-272.20429758902173,-355.3624688378477,-362.73682560102316,-302.83135385249625,-175.4441063933191,-283.52469895765535,-321.8148649240902,-363.5746314833814
2025-12-12 18:17:20.372762,Right,-355.48410977530875,-436.29267555693514,-442.41049812638084,-382.4536278558371,36.40411940999911,-361.4772470856842,-400.46245745327906,-442.22534201908275
2025-12-12 18:17:20.377824,Right,-308.14525417177356,-375.51541944712517,-385.6777634547907,-336.89627332851524,-219.72097781160846,-309.5613859083387,-338.8743664374342,-385.9286126549123
2025-12-12 18:17:20.380839,Right,-250.74459302402101,-321.90537804801716,-333.5719164274051,-281.2375312624208,-477.0294098510931,-253.98784411864472,-282.9230273004214,-332.0678146861028
2025-12-12 18:17:20.384860,Right,-311.575418549357,-397.8085907615023,-405.450123084127,-337.93179344394593,-260.27600673312554,-317.13857051130617,-355.8115245044464,-400.20938176923664
2025-12-12 18:17:20.388824,Right,-381.62378798110876,-465.0327660907642,-470.80743607436307,-403.7753636292473,24.417922101332806,-384.77156662376365,-423.6102025361615,-464.4128192368662
2025-12-12 18:17:20.392889,Right,-329.5359311369539,-397.2300955799874,-407.2142025065841,-355.65871742076706,-156.86097717110533,-331.8606898522994,-359.39837671094574,-403.9485129000386
2025-12-12 18:17:20.396836,Right,-256.8662899186602,-327.6785389815923,-340.8524649962783,-290.9274671896128,-469.8407496912987,-266.1641583061137,-291.6257556938799,-341.2120008326601
2025-12-12 18:17:20.400893,Right,-304.71440222189995,-395.16231466742465,-405.98401676054345,-340.4891271532979,-333.25348472074256,-322.04826288856566,-358.88041477743536,-407.27326712879585
2025-12-12 18:17:20.405948,Right,-381.47998825402465,-473.1945562122273,-482.839963236358,-413.3797369650565,-0.6675218635646161,-398.82419332745485,-439.0940944587928,-483.7326019220054
2025-12-12 18:17:20.408914,Right,-335.2145851260866,-406.62429635657463,-421.2894029234885,-366.47826087049907,-86.48161758258357,-348.2323656769004,-376.59903333784314,-422.12915606203023
2025-12-12 18:17:20.411936,Right,-249.69525356625672,-315.2803405742161,-334.2095860046102,-284.18531962146517,-422.76238606064,-262.71123208204517,-285.03349472698756,-333.706766148156
2025-12-12 18:17:20.418022,Right,-296.8431961325696,-380.8923343385104,-396.7757652645814,-330.8815971566946,-378.57617235090584,-312.10921282082563,-345.13554295373615,-392.4224334214232
2025-12-12 18:17:20.420920,Right,-409.89227107464103,-502.1381148978835,-513.833033261646,-439.3584976022248,-39.02433071171981,-422.1982013757224,-462.63305842719274,-505.7753514791257
2025-12-12 18:17:20.424962,Right,-393.4767674243194,-468.21518904250115,-482.457002155832,-422.1569449916715,-40.72416326429811,-400.0450892728404,-430.51022693439154,-473.660458703991
2025-12-12 18:17:20.431005,Right,-279.2260183058097,-342.4506811341271,-361.3496057224693,-312.14196577179246,-379.08288332945085,-285.532732568332,-306.95615988760255,-353.5668692055042
2025-12-12 18:17:20.433989,Right,-270.02618764695944,-347.639654401748,-364.86499323905446,-303.9212660016492,-421.4714824242401,-279.84909998835064,-310.46190857782494,-357.4608756149537
2025-12-12 18:17:20.436989,Right,-373.3760611769976,-463.2672379697324,-475.49147079273826,-402.2722167398315,-95.33085528935771,-381.1978077251115,-424.1332336127525,-468.4600530564785
2025-12-12 18:17:20.439999,Right,-397.8060863590799,-474.9179730177857,-487.17251992819365,-423.6305584469228,-22.10851112785167,-397.96053174632834,-437.26315028517274,-481.783296323847
2025-12-12 18:17:20.445013,Right,-310.2331595447613,-374.064612512826,-389.6135043858085,-338.9869158275542,-348.4266836277966,-306.6760232519591,-337.8870565016987,-385.259618945478
2025-12-12 18:17:20.449034,Right,-288.5947450592648,-363.90746604377637,-378.03445620433195,-319.42076676059514,-467.3324983952625,-288.1246103059384,-325.5304885939113,-371.95797971246066
2025-12-12 18:17:20.453033,Right,-380.6208782612812,-470.6514694878133,-479.9411132145324,-408.21028652228415,-154.4236851047899,-382.57580812787637,-430.1591476909234,-471.548023712181
2025-12-12 18:17:20.457059,Right,-413.26766728173243,-493.82593362237094,-503.3034811671241,-438.82136628904846,8.118592369602993,-414.2412040330237,-456.1490366020007,-495.8006646395079
2025-12-12 18:17:20.461023,Right,-320.6753643176635,-386.2056057281443,-400.71965223015286,-350.5079593665432,-282.5758850428392,-323.9011201255489,-353.4355727668735,-396.9167741002748
2025-12-12 18:17:20.464078,Right,-270.70194380759494,-345.26487226836616,-361.08134275721386,-304.8766604294069,-482.1401708459307,-281.0874343671603,-314.15033952740487,-360.1864324270282
2025-12-12 18:17:20.468034,Right,-350.11534828535514,-441.927607233054,-454.2609574125381,-382.3738198407809,-212.46282159344992,-363.8232832328649,-410.90215286886087,-454.46485287114047
2025-12-12 18:17:20.472095,Right,-400.5967530909111,-485.3502320072148,-497.69717174966354,-429.8436600478017,34.453688315086765,-409.76545478845946,-457.6048248359584,-499.31461647793185
2025-12-12 18:17:20.477091,Right,-317.59660799225094,-382.97345499612857,-400.59818157879636,-349.7478047356126,-184.60687234048964,-323.08321284194244,-359.5860677663586,-404.4279733528383
2025-12-12 18:17:20.481136,Right,-251.97973342775367,-320.8539787895279,-340.57418051501736,-288.8533472031122,-439.8781455378339,-261.0743973009521,-297.14706861483864,-345.3875265598763
2025-12-12 18:17:20.485124,Right,-328.99991326907184,-416.9802384909708,-432.5786508676829,-364.70196969475364,-236.33102951935143,-341.9761389772757,-389.91177961899666,-436.846993193496
2025-12-12 18:17:20.489079,Right,-406.3638795253355,-491.6444761728635,-504.9856862935703,-437.5958700220799,60.41368620793219,-416.1923460869584,-465.2711455936078,-509.448081349954
2025-12-12 18:17:20.493177,Right,-331.92176107375417,-394.0384263797896,-411.1078761513345,-363.0971218938939,-90.2115949873405,-337.05886693805223,-372.5954263343592,-417.03443308814894
2025-12-12 18:17:20.497153,Right,-229.59202093840577,-286.52965303871315,-305.77193262730725,-263.76662678050343,-393.5519099783269,-236.01804136892315,-266.9394476383459,-312.060267786379
2025-12-12 18:17:20.500164,Right,-277.7690644682734,-353.4587837596191,-368.333202905138,-310.8249575396185,-274.5588066355849,-287.3202583392267,-330.50753451755736,-373.104841128923
2025-12-12 18:17:20.506186,Right,-382.6271896547987,-464.6948804782005,-475.8576533156447,-411.425847820763,45.907588638801826,-390.19070437329356,-439.6251585187856,-479.7342129886383
2025-12-12 18:17:20.510153,Right,-349.29599798837444,-413.5674007826019,-427.99167868541554,-377.93049710284686,-30.402745680505177,-353.90011830523144,-391.185379785602,-432.732531972928
2025-12-12 18:17:20.514217,Right,-236.27238712704275,-290.87570923764724,-309.33583938213997,-268.3760191151523,-354.2154308586323,-244.2103116704966,-271.0688345542876,-314.2920334065566
2025-12-12 18:17:20.519236,Right,-242.55509221745888,-310.5376501965802,-326.33683270192705,-274.15680087945657,-309.0756460248085,-255.4171832932043,-289.10743454878684,-329.5417939592153
2025-12-12 18:17:20.522252,Right,-343.8373448131606,-419.1214330641087,-430.11412527190987,-370.2917221458629,29.278667681879597,-353.560298209195,-395.14809860184323,-432.0434750338318
2025-12-12 18:17:20.525241,Right,-348.1719910062384,-407.4957308409503,-419.24919813137967,-372.19133805134334,32.134881171252346,-349.5262149278424,-383.65027101675514,-422.0694678775035
2025-12-12 18:17:20.528244,Right,-253.258245595498,-300.03510180977173,-314.9629332604818,-279.0801721441094,-301.29299985797843,-252.029246138467,-276.70887947047595,-318.5066875303164
2025-12-12 18:17:20.533265,Right,-239.72964906482957,-296.98446400265675,-310.2621689195512,-264.91682011517696,-335.97766294979374,-242.3452924762969,-272.2819629063597,-312.3027808862971
2025-12-12 18:17:20.537280,Right,-327.4773828006,-394.58281053905375,-404.2419387254631,-348.5670329084387,11.771452933375258,-331.41526295017684,-369.78753754799254,-404.9481959330151
2025-12-12 18:17:20.541276,Right,-343.3941310798982,-399.13664071739186,-410.6943542122608,-364.8408701828448,112.2901325536368,-345.04518827574793,-378.11955283081625,-413.2159481991548
2025-12-12 18:17:20.545319,Right,-252.07148106221575,-297.27765809511766,-313.7133537841728,-280.27660989155993,-204.92318409777363,-255.77840431797085,-280.1359852886526,-319.34737402258907
2025-12-12 18:17:20.548302,Right,-220.55698218080215,-277.5855519013712,-293.5029179060366,-252.2403929802822,-332.38026169719524,-230.97241016174667,-260.5690239635296,-299.6068138477858
2025-12-12 18:17:20.552262,Right,-298.3684540608665,-367.0942058706423,-378.4312637693947,-324.53485080599785,-17.66497697509476,-310.3654452377232,-349.35441718553193,-382.6385757778771
2025-12-12 18:17:20.556334,Right,-322.47000021557324,-377.19782697421033,-388.7289342925651,-342.07926944608334,165.37435204157373,-328.2651222241111,-361.7041878424352,-392.11713073577266
2025-12-12 18:17:20.560347,Right,-228.87240140675567,-265.091543729417,-281.70363033446483,-248.78172040567733,-113.64085001370404,-230.16651933966205,-251.81792123778723,-285.85598110291176
2025-12-12 18:17:20.565356,Right,-180.52281989401672,-224.69261179782916,-242.3620648412034,-202.6629422281403,-327.0641076126194,-183.69741763791535,-209.200841645943,-246.20455190888606
2025-12-12 18:17:20.569406,Right,-262.96155977231683,-324.7706537146587,-337.82356772897765,-281.8966186456382,-73.57157986969105,-266.57858184730867,-305.7129488841165,-339.87470277340617
2025-12-12 18:17:20.573352,Right,-317.75260675000027,-372.0418190496275,-383.1566908250097,-331.8952212049626,177.8544863089919,-315.54609161481494,-353.8456040950259,-384.6525107250782
2025-12-12 18:17:20.576363,Right,-235.5693748042686,-268.30041494918987,-282.7077805206645,-250.6606049691909,-31.335499766573776,-228.74769962736173,-253.3158645951189,-285.7518690327415
2025-12-12 18:17:20.581401,Right,-164.88400701456703,-199.1587129473919,-214.07685734063853,-183.68113184830872,-294.4878489195253,-160.4142906581401,-183.28635343851056,-218.32593667740002
2025-12-12 18:17:20.585428,Right,-237.97800820163684,-291.87587881367654,-301.14451999985613,-255.71567441074876,-105.49226245007594,-236.23472174454946,-272.11653817421757,-305.10791626770515
2025-12-12 18:17:20.588426,Right,-318.9948671333259,-372.45955256500747,-377.8400794399204,-332.71216927998466,193.38184011160047,-314.04898441868136,-353.13144550821744,-382.1375021111453
2025-12-12 18:17:20.592425,Right,-248.96358564682305,-280.37039306771476,-288.36776867718436,-262.8359322765027,54.35586023388896,-240.9333788093063,-266.6726669202326,-294.8050041665556
2025-12-12 18:17:20.597444,Right,-140.33512267941842,-165.2060726620257,-175.17365319421515,-157.25987380812876,-250.57904043712188,-136.42947408364853,-155.16962363081984,-183.68027498037554
2025-12-12 18:17:20.600437,Right,-174.07706804724876,-215.38373794488143,-220.89318817784078,-189.79414308757987,-142.29251910417224,-175.84830908593722,-203.85782721452415,-230.29991196398623
2025-12-12 18:17:20.604461,Right,-270.9312644149759,-316.96870553772897,-317.79750106844585,-281.90240164095303,179.0008412998286,-271.1572799520218,-304.0230961239431,-328.60780498955864
2025-12-12 18:17:20.608474,Right,-241.22161467093974,-268.55556584789883,-271.1121381975245,-251.39189441531198,110.93224129296141,-236.5278706625104,-257.8321261049132,-284.3019687542692
2025-12-12 18:17:20.612483,Right,-132.92097875865875,-150.52017155801877,-156.22896848793607,-146.61294876522152,-218.19134970396408,-129.2484950789949,-141.808058382303,-170.0478556767339
2025-12-12 18:17:20.616588,Right,-136.62316522398032,-169.23405322502367,-172.67869273480028,-151.00660944537958,-186.53294567359262,-137.67998597491533,-159.18609626137186,-184.14981530897785
2025-12-12 18:17:20.620501,Right,-230.55763664864935,-273.38931325799786,-273.38064260664396,-241.8706429717131,155.20306789962342,-230.85061845893506,-262.2902062131325,-282.83517778420355
2025-12-12 18:17:20.625475,Right,-225.70291411114158,-254.77337278448977,-257.14866917429026,-237.07767907826928,174.18056044832338,-220.85006437142147,-246.15143679542234,-267.76629374932963
2025-12-12 18:17:20.628492,Right,-120.41955406207126,-137.51554164174013,-144.2487599257147,-135.87518143182388,-161.3901042836078,-114.97889063716866,-131.51920083572622,-156.88196865958162
2025-12-12 18:17:20.632530,Right,-100.23285002924968,-127.58503823413048,-132.8156771591166,-116.0642171917716,-220.00044771449757,-98.64489376643905,-121.10078802867793,-144.95145607797895
2025-12-12 18:17:20.636545,Right,-188.6486467680079,-224.83540795580484,-225.58309928525705,-199.28852566157002,113.40088050044142,-186.9572371665272,-218.17036372231087,-236.10278651770204
2025-12-12 18:17:20.640573,Right,-206.49031515826937,-228.45614901115187,-230.12988820968894,-214.88909269002033,221.11742113908986,-200.5984404674382,-225.4353842381388,-241.28495363972615
2025-12-12 18:17:20.644580,Right,-112.26513344951672,-120.29366190487053,-126.51910917431815,-125.40669152716873,-92.4670809324889,-106.8566943211481,-120.95134847296868,-139.7244327001972
2025-12-12 18:17:20.648608,Right,-80.24532770283986,-99.9714038631646,-105.48132320703007,-97.03693258826388,-233.27952896419447,-80.62851294566644,-99.21750841318863,-118.49710420332849
2025-12-12 18:17:20.652631,Right,-169.9398810917046,-205.48228431510506,-205.27327653835528,-182.8877404575469,73.22376286279177,-171.22649584308965,-200.39205712813418,-215.5413216915913
2025-12-12 18:17:20.657633,Right,-211.09890421986347,-236.5829054872156,-234.38640480377944,-218.50152493832866,268.12798184651183,-205.22293903067475,-229.3320480561233,-242.32519381813472
2025-12-12 18:17:20.661672,Right,-122.19771728559863,-128.6874851208413,-129.36528614984127,-129.03233576833736,1.4140995892812498,-110.68184079235652,-120.5577375855064,-136.18103173794225
2025-12-12 18:17:20.664644,Right,-63.66899307665881,-74.84297676366987,-75.37136935378658,-70.83605276182061,-216.64734815353586,-53.53797109116567,-63.5278494276572,-80.42443398799514
2025-12-12 18:17:20.668682,Right,-136.0525735959527,-163.4666549198446,-159.37390169344144,-138.83728243096266,29.12037227253313,-127.41582284908509,-149.31359291874105,-162.3903017413686
2025-12-12 18:17:20.672681,Right,-188.88948224135675,-210.17396512511186,-204.97701705549844,-187.2657498587505,283.3587139996962,-177.08968807029305,-198.95280559913954,-208.35131237609312
2025-12-12 18:17:20.676687,Right,-102.28119923040504,-103.07216973113827,-102.5490293946932,-103.01977231248748,73.18119458727597,-89.42098779190565,-98.35973576345714,-108.50509873364354
2025-12-12 18:17:20.680641,Right,-16.572432094661053,-18.069609000638593,-19.749759381753393,-22.50213814957533,-206.49307105471962,-9.83464144251775,-16.17012722120853,-27.193724056356587
2025-12-12 18:17:20.684715,Right,-77.33338803524384,-97.76597032736754,-95.2604899997823,-83.23580350348493,-30.752862220062525,-76.63513190991944,-94.50119132222608,-102.23642161552561
2025-12-12 18:17:20.687653,Right,-166.29720519611146,-187.47203279932728,-181.7115514287725,-168.68199635262135,274.1569320484996,-164.1236435790197,-184.83076248754514,-189.0836388170137
2025-12-12 18:17:20.691732,Right,-118.25303745723795,-119.03608614613768,-115.6501975976862,-120.87583594734315,141.26726315206906,-112.35003059305018,-120.17069903574884,-125.27684908930678
2025-12-12 18:17:20.696729,Right,-22.061405960994307,-16.499044650408905,-14.5206753082457,-27.62252621090738,-176.3979918059631,-18.198800978483632,-18.95894810120808,-25.291441473760642
2025-12-12 18:17:20.700749,Right,-49.10763622878585,-59.03538503148593,-52.373011610121466,-53.52835777460132,-79.44389048358425,-49.49445362162078,-58.73186666861875,-61.40370847488521
2025-12-12 18:17:20.704769,Right,-133.68444832257228,-148.07565120665822,-137.24751840130193,-134.10589988640277,255.5286134788621,-132.77228546276456,-146.3157381284982,-144.29034059430705
2025-12-12 18:17:20.708776,Right,-101.8006261496339,-98.8863917341805,-90.98190042597707,-103.02758661768166,206.32649925646547,-96.9885597685352,-99.57903436396737,-98.51039916375885
2025-12-12 18:17:20.712784,Right,-2.084179201920051,8.151111634681001,11.651064192701597,-8.581311482004821,-128.20621542505978,1.1450323634780943,5.5329456747858785,2.449082699022256
2025-12-12 18:17:20.715797,Right,-15.923509508138523,-22.35912326403195,-17.148147568572313,-23.633382664702367,-109.31316758712637,-17.559239494847134,-23.811980070197023,-27.05148124898551
2025-12-12 18:17:20.719800,Right,-114.65402203600388,-130.60894429654581,-121.7314085054677,-117.85350005043438,247.82659163807693,-115.97015432349872,-132.1567151802592,-132.3338038448128
2025-12-12 18:17:20.724818,Right,-107.96799708984327,-107.64646573411301,-100.95279127114918,-108.89531196927419,298.8925869375089,-104.98860529414378,-113.24831399001414,-113.55171416461235
2025-12-12 18:17:20.728843,Right,2.599518606206402,16.002505218959413,17.899730250472203,-1.3554897097637877,-29.653609192726435,5.34227138676215,7.441765004419722,4.209519420750439
2025-12-12 18:17:20.732779,Right,25.51642206311226,25.826450900174677,28.570349541667383,20.20955399045488,-106.31184807281534,24.10386714100605,19.844588899984956,17.190382447326556
2025-12-12 18:17:20.736848,Right,-64.85793569905218,-78.11358095891774,-70.86732236488024,-66.16343392618,223.6565162922925,-65.20355635992019,-79.95092317083618,-78.41899513365934
2025-12-12 18:17:20.740828,Right,-82.97152065765113,-83.8940852797241,-76.73775947577087,-81.34922269586241,350.10729488571815,-76.52370923315175,-85.30161086749285,-82.51184566109441
2025-12-12 18:17:20.745886,Right,18.07412152813049,33.222418560413644,36.712954019370954,17.234687236137688,41.563360654443386,27.028049258806277,30.921478022704832,30.93029931728961
2025-12-12 18:17:20.748906,Right,56.085872171621304,61.72629596851766,66.08541742578382,53.357063498639036,-119.42014173727512,60.33786411600886,61.875734419736546,61.32922757731285
2025-12-12 18:17:20.752898,Right,-40.21708631844376,-51.273621323751286,-42.024004914972465,-39.22998405538965,175.83702954911132,-38.622024038719246,-47.79918349906802,-44.803896435769275
2025-12-12 18:17:20.756903,Right,-93.99895446098526,-96.70074834994739,-87.13845528464299,-89.02525952420547,384.86825856770156,-88.41105739664636,-94.47547086805571,-89.70783109316835
2025-12-12 18:17:20.760898,Right,-4.45225355529692,12.757605964317918,17.517731261032168,-0.7133783732133452,126.61005160797504,4.037330110382754,10.850934144167695,13.319627517950721
2025-12-12 18:17:20.764931,Right,68.94218624054338,83.70182605320588,87.61367947008694,71.19236574179376,-109.62461920986243,74.26941112006898,80.88812953003799,82.74163228448015
2025-12-12 18:17:20.767978,Right,4.058085112395929,2.1852466326090507,11.518822973652277,10.640520428569289,117.05477640283789,6.881420723395422,1.3889056127809454,7.174411980784498
2025-12-12 18:17:20.771919,Right,-60.324600212537916,-59.29386095498921,-46.86326122525497,-48.42032290744828,374.3032869743547,-54.54118825754267,-60.97750806086697,-52.500610240967944
2025-12-12 18:17:20.775964,Right,11.239964721375145,30.48767976797535,39.84756571528851,21.967256979318336,169.53298550585896,18.812852746545104,24.476056999526918,30.522635372239165
2025-12-12 18:17:20.779988,Right,97.09742896677926,116.38017032231437,123.9303925173881,103.59220185660524,-123.64120460925915,100.13584290861036,108.1659915886703,111.98147932661232
2025-12-12 18:17:20.785006,Right,47.762933651392814,49.72138097381685,61.083482167858165,55.05989159696037,37.15098836114339,47.00187299778918,42.94806652900297,49.4404011600127
2025-12-12 18:17:20.789011,Right,-34.5500147001585,-33.539224256033776,-19.605954796570586,-23.13347501301905,345.69899906380306,-31.528402426454704,-39.738113093219,-30.32606254023267
2025-12-12 18:17:20.793025,Right,10.987774998618988,30.54119587544119,40.86724821710959,22.343888315721415,216.22850163731346,19.14808691505459,22.67726840535761,30.038358983496437
2025-12-12 18:17:20.795975,Right,101.92600463569397,126.07295412299572,133.06029801475233,110.25370442910935,-121.81287578829506,108.31296371202916,118.4798929898534,123.08818971904111
2025-12-12 18:17:20.800032,Right,68.53171827577171,76.4041289598681,86.01096430257894,78.41812277934514,-50.57764724302251,70.99065115413396,72.05614431077265,79.18815820550662
2025-12-12 18:17:20.804047,Right,-25.317267168109538,-21.588901910494315,-9.267339005833492,-10.17922002542764,283.2522339975767,-19.971074128552573,-24.62832801992772,-13.348229701863602
2025-12-12 18:17:20.808010,Right,0.15349727528518997,22.626790936104953,31.37814571603667,15.64622852083994,243.17593497178677,11.620813853020081,16.950922697928036,27.060530571994605
2025-12-12 18:17:20.812086,Right,103.92503074649721,135.37926350487396,139.62776419040165,114.17193390696775,-108.84877275100371,114.93097250684514,127.99656379272346,134.0136326152424
2025-12-12 18:17:20.817091,Right,99.67641096145962,114.73460532905301,121.02298528363463,107.98176499755937,-130.22648684982778,105.39479978791496,109.51494200513116,116.14420765120303
2025-12-12 18:17:20.821125,Right,2.0242469779623207,6.164732014993206,16.87444973216043,14.554878907627426,202.24023155623217,7.3409467772289645,2.568056683347095,14.026166548079345
2025-12-12 18:17:20.825119,Right,-3.232232315465808,15.714190081431298,25.10050228514592,12.055316884507192,253.7506440354009,6.27459549428022,9.788487507525133,23.028088168095564
2025-12-12 18:17:20.829133,Right,93.1176901049912,124.80860042755376,129.91645540237369,106.09015403679223,-78.1776604908373,102.24148124179919,116.76856863715511,127.63717850312241
2025-12-12 18:17:20.832127,Right,109.24419036608015,127.90003702699323,133.95891636327724,121.5773373668635,-173.59606654869276,112.986345516023,122.00400534765504,132.30089961894555
2025-12-12 18:17:20.836160,Right,17.35640696795599,22.000416115217377,32.38607760745799,34.54629587200179,145.64657352341237,19.887753739007167,18.773095462122,31.584775027338765
2025-12-12 18:17:20.842146,Right,-1.0661887296155328,15.637253870969289,25.37181266612606,19.67371561395703,278.84223429525446,5.8786177934962325,10.943747428013012,24.124321921466617
2025-12-12 18:17:20.846175,Right,102.62357170067844,136.01073732684017,141.00953226382262,120.47226280567702,-30.101068005253182,110.61640105344122,128.89738441474037,139.37817957389052
2025-12-12 18:17:20.849182,Right,146.18659378083248,170.4934913542529,175.23004430232686,160.48922176212363,-210.91019044014683,149.38696364303178,165.29400101458305,175.5682263123017
2025-12-12 18:17:20.852185,Right,52.24758277024375,58.663050340284826,67.87087687048188,68.126928516911,68.97541095186534,53.49259843064647,57.187933234352386,70.99801870228839
2025-12-12 18:17:20.856197,Right,-4.700031084488728,7.730238041855046,17.61888230527984,13.237556676329405,282.824371037892,0.8406717530087917,5.668272778988467,20.74562883671024
2025-12-12 18:17:20.860218,Right,83.50842542011378,114.00470007139666,119.48370955758583,98.43365414476284,27.885387818241725,91.090572396286,108.10527299094247,120.02105848112842
2025-12-12 18:17:20.864233,Right,162.45038965842105,189.61045405854384,194.1027498796975,173.9176454563567,-224.53732002461766,165.11527551995096,182.59595240830822,193.02755207307928
2025-12-12 18:17:20.868242,Right,101.25063448007131,111.18314406168793,120.6064661486671,115.09813157557073,-12.563107709273027,100.23710578205646,105.94251574699592,119.82354334891716
2025-12-12 18:17:20.873233,Right,27.856803360569756,40.44250490671402,52.40562685662735,45.80277573339117,254.4091115373958,30.99627181814867,34.83175871663116,51.24618641258712
2025-12-12 18:17:20.876274,Right,82.5426536166342,114.03338016523048,122.21903357691917,99.10842960429,67.69061900337692,90.94412857791758,105.68741451366077,119.2584301832394
2025-12-12 18:17:20.880248,Right,157.19015502795082,189.56512470086454,195.03297678848685,169.76651519869847,-222.16033411724857,164.23578562789407,180.9175184150845,191.28177011745356
2025-12-12 18:17:20.884261,Right,105.94204781569351,120.4468140655481,128.91531594090156,119.11197334806639,-58.890598319285345,109.43107683050403,113.85775036845735,125.98229883757813
2025-12-12 18:17:20.888228,Right,25.899585205752373,37.696613501630054,48.17579976635557,41.82765539922366,273.02530760937225,30.17622596547153,29.746236817412864,44.845749721249376
2025-12-12 18:17:20.892318,Right,76.2156863837281,104.96577955207977,111.1929197365389,89.27812486197217,170.62092907324768,81.07565098204213,91.40609764184228,105.36490549496648
2025-12-12 18:17:20.896309,Right,173.9640286509857,205.71562371122855,207.68554956159824,180.28837008473022,-165.87840063977637,172.52602456066916,188.76575728458056,200.59902797027468
2025-12-12 18:17:20.901339,Right,142.76326638190767,155.40561233579137,159.2253455972932,147.4525389337923,-106.99595858736211,133.32084206569584,140.07309394199729,154.14745795335784
2025-12-12 18:17:20.904391,Right,41.736451878277244,46.877012344573814,53.210498098447715,50.33578483548081,233.25374818336786,31.615818331032642,32.93988984347561,50.634770193231816
2025-12-12 18:17:20.907392,Right,58.05034342406907,80.45638073618647,83.461836217175,67.68225227369112,215.16522237996833,51.80785590450614,64.63470259884161,81.34854326005734
2025-12-12 18:17:20.913387,Right,160.18433166081195,192.44418681997558,191.32944743949338,166.24756839995098,-128.31416789639115,153.5521293783895,176.24349298739253,189.77353812913861
2025-12-12 18:17:20.916329,Right,158.62559221709307,175.50751568101987,176.91434239573573,164.19086189361406,-154.3013909998008,148.81088344141972,163.71501050955703,178.4816816464554
2025-12-12 18:17:20.920446,Right,59.950506663855776,65.65884803175868,72.12678806700569,70.32688946391863,185.05359740253698,52.44924686086597,58.14403400286028,77.15234693777893
2025-12-12 18:17:20.926395,Right,52.506020453241945,72.6050027962774,78.37900976544915,65.27039130033518,251.6819245147126,51.412408910680824,64.65643952419487,83.81555953893258
2025-12-12 18:17:20.929444,Right,152.38610789412996,185.65669538542716,187.56586692454584,161.59091151339817,-82.82396559510744,152.20303827479074,176.15462335792836,191.45556090799073
2025-12-12 18:17:20.932405,Right,173.71613995888038,194.0897516670375,197.35385331313591,180.50206603246625,-192.19966217342153,168.24028110258223,186.50542365310685,200.99231078886078
2025-12-12 18:17:20.935429,Right,78.7256620674234,83.8943681348901,92.22800432682561,88.77284898422658,136.0269486013931,71.17092787569709,78.75065297393303,96.71401013333525
2025-12-12 18:17:20.940441,Right,50.37334817471856,66.47132297599455,75.09923154803982,63.339938063589216,300.7845022816218,46.463335126885795,59.64749393542297,79.18849205915467
2025-12-12 18:17:20.944418,Right,149.44093541016628,183.00174644697836,187.6022522898711,160.21116678248654,5.375059559177316,146.49332233164023,173.01343851294223,190.68502733053174
2025-12-12 18:17:20.948455,Right,197.88160806898668,224.38650723313913,229.09255930229847,206.8037736559927,-194.19446829678054,190.05559974985954,214.81128179455118,232.97605510462017
2025-12-12 18:17:20.952489,Right,108.97001358352281,118.7794746254076,128.27089367138979,121.19829879266035,68.42178545214847,98.46302730125899,111.07954482526111,133.6793545627006
2025-12-12 18:17:20.956482,Right,49.284576397978526,64.87652400696243,75.47050252810004,64.10681058067712,288.3549147932499,42.37128509384638,55.022015754293534,79.60366918843647
2025-12-12 18:17:20.960487,Right,129.662710715078,162.37004215623892,168.86450362329197,140.20557251857826,39.14330326489289,125.43887708848342,147.79440209035238,169.0045030896581
2025-12-12 18:17:20.963505,Right,200.6729905546963,228.5430277420237,234.03825274613337,205.49716860291664,-228.30241232169647,194.02671355764323,212.70805989406654,231.18527818648727
2025-12-12 18:17:20.967519,Right,132.54572021582862,141.14091465350066,151.42529913349426,138.2420941563032,-31.309057599064545,125.55567027740472,127.41241924616043,147.85831459592737
2025-12-12 18:17:20.972467,Right,55.12628228984249,64.80739055061713,77.79011385196645,65.10282097349409,241.2898714822586,54.68733826649259,51.17246706224978,73.32199569122167
2025-12-12 18:17:20.976547,Right,112.10083645314444,140.4289498784201,150.37175160679908,121.82587527070427,60.93830616793275,117.24344272130111,124.68367395318637,143.7827783819812
2025-12-12 18:17:20.980555,Right,192.84380533643707,222.20599070971366,230.76323297528143,199.59438028748264,-245.06124000363343,195.37316216358158,207.48336191310955,223.06848455917498
2025-12-12 18:17:20.984565,Right,141.62378155594342,152.5384808944509,165.8542456827563,150.16023255202163,-102.06171748171619,140.09642546346004,142.53205533076834,159.05747315227927
2025-12-12 18:17:20.989578,Right,49.449715258713695,57.30300843731675,74.43585469547543,63.209874141422915,233.92481817324733,51.687532561583794,49.960536910395604,68.22327223143657
2025-12-12 18:17:20.992538,Right,83.09101552687935,109.56874107802287,123.76758066675393,97.58883381774649,146.5877917770631,92.43835387546278,100.89729132820503,116.49237027393247
2025-12-12 18:17:20.997592,Right,172.50421140922117,204.92512177872413,215.50381089001894,183.20816120631935,-196.8310860384081,182.18027994950535,195.68651278011384,207.56628460655338
2025-12-12 18:17:21.001594,Right,142.35629572275502,156.8770529221365,169.83657830802258,152.33149749298173,-163.03983980376506,147.57040915249672,149.99638877440884,163.08748953515897
2025-12-12 18:17:21.005553,Right,42.80812376779795,48.274458602492814,64.80449533890351,56.138136780340574,164.05401398839604,48.37562539211649,42.70149528537877,59.355205548374215
2025-12-12 18:17:21.009622,Right,58.739611361394054,79.44788358848018,93.8741176763433,72.52944581056363,145.74600464634568,69.27690696624632,72.75348937453236,88.62051362646162
2025-12-12 18:17:21.014668,Right,163.09112163433747,192.92991819752206,203.80713815332274,173.41774679676746,-210.5372139540268,175.28168675868073,187.84440395214187,199.77362429219647
2025-12-12 18:17:21.017654,Right,162.99727726554556,176.6264012747124,189.94221694866428,173.34453906372073,-260.9262492141279,173.7917207476421,178.3881982373423,189.77322249201825
2025-12-12 18:17:21.020682,Right,56.679251879279036,56.52783055609325,74.68211953385617,72.1744399505842,71.14783521037316,70.1125964083185,64.53510124966851,78.41946947827819
2025-12-12 18:17:21.023603,Right,37.089559445827035,48.30442373530241,65.31494118444971,54.84587168821599,149.92321898439695,55.74222667502181,56.758180532895494,69.90597107811482
2025-12-12 18:17:21.028684,Right,135.74691915688163,158.91473260868224,170.97168713671272,149.59947026691225,-184.3673576462752,153.3609714928898,165.62797030151705,174.75559547601733
2025-12-12 18:17:21.032683,Right,168.58964804306743,178.8967917940172,190.83872521787998,179.86527837181347,-315.1296562320713,179.38272209306888,187.02853385271737,195.36737104450003
2025-12-12 18:17:21.036705,Right,79.9143443848734,74.16009701302391,89.9696656636952,94.43759520402818,-0.5130714627666748,88.63930628175149,84.64535857544979,96.3116085830552
2025-12-12 18:17:21.039711,Right,41.051826216702466,44.25382973253727,59.343033607670804,58.00840142322704,174.9699689008703,54.9659320582723,53.303494214080274,65.80998680379707
2025-12-12 18:17:21.043717,Right,124.0804668772762,143.15028757692198,152.65980825349106,137.38838981854497,-108.06127103988547,140.50241666313377,149.14965038507944,158.02510690581403
2025-12-12 18:17:21.047735,Right,166.71143306719023,177.8755832114839,185.1664491026022,176.120596453693,-310.36865838820086,178.01834302366478,184.3080556873465,191.28861786751077
2025-12-12 18:17:21.051738,Right,82.62112508858263,76.0996312945208,85.46601865193225,93.6559060086438,-46.70452949731407,88.90351360148634,84.73962350841612,94.27608071203576
2025-12-12 18:17:21.055700,Right,30.236841562160407,28.38881920365384,36.011917424417334,43.1929950437916,192.4044765954386,36.817679382889764,35.66849565017037,46.38666945233126
2025-12-12 18:17:21.060751,Right,116.21277636705781,131.13678029802395,131.79814431504929,125.12371486634947,-36.7815307333949,122.28081135927641,134.88622504434898,142.17339329331298
2025-12-12 18:17:21.064758,Right,188.76977502860245,199.12847187006264,196.38238035317045,192.51419021326,-289.90114042602363,189.19168393271684,203.04046961065615,207.95113046039478
2025-12-12 18:17:21.068738,Right,114.708416234178,105.72949995455565,106.2429552944086,119.37957838416332,-55.9602516683517,110.9171219740092,112.73823807228473,120.33246600703569
2025-12-12 18:17:21.071792,Right,27.158619273410295,19.14404237701092,21.249146771762753,35.03817941460875,285.5340778630052,25.720556157204555,25.84858042950509,35.71871657326119
2025-12-12 18:17:21.076827,Right,80.87176108226413,92.55136498555657,90.0383405884204,86.52034433104564,161.73807800675422,82.15094822415267,95.27339379282785,101.80847578059183
2025-12-12 18:17:21.080819,Right,168.79145591007546,183.4371012210322,177.59287951336592,169.53163725917693,-137.40212182852702,167.10345138981938,184.94816464514588,187.18188219578587
2025-12-12 18:17:21.083822,Right,124.66775958193466,121.82261813196237,119.58431466858019,125.87397048497223,-10.264851965665002,119.86128628604638,126.49471288366476,129.6787678571709
2025-12-12 18:17:21.089880,Right,31.378548761786078,24.924702897231327,26.76742683586781,36.77774094394408,332.0162014093148,30.240086960053304,31.399754177895375,37.63735656271456
2025-12-12 18:17:21.093863,Right,61.29872281153803,73.12807115440955,73.08924538595602,66.3999498974299,267.1428287033632,65.56106047831418,77.79523317914573,83.1175568808394
2025-12-12 18:17:21.096862,Right,150.8835612021503,169.7233923530439,167.07677790819434,151.654686132184,-68.95939364071091,153.56513397512026,174.0208697883645,176.8238395708904
2025-12-12 18:17:21.100886,Right,119.97946251468966,122.44088434206787,122.8877336816513,120.45159428491024,-36.35058244194806,117.15933601449069,130.15243594101048,134.65046475225245
2025-12-12 18:17:21.103884,Right,11.827953093452379,6.2746709275234025,10.470343396795215,16.40427473760792,308.9946526105996,8.827717238338664,15.908287593949353,24.11280154142878
2025-12-12 18:17:21.107894,Right,15.794298029126367,26.987789071019506,28.323458521801513,20.736386181233684,318.3091624623339,17.068595030083088,33.668676506582415,41.233616777084535
2025-12-12 18:17:21.111847,Right,116.00013313689851,139.2415805842029,135.64710903345258,116.2461761921586,-36.3522671574101,117.89565429661889,142.97071649553254,146.8775983338419
2025-12-12 18:17:21.115920,Right,121.83794142463012,132.1981197417772,130.1536555859202,120.58212090839515,-109.79698346127407,121.23707641458896,137.48521996106138,141.14576882807887
2025-12-12 18:17:21.120975,Right,22.884684475458926,21.963479997008108,25.023417448304826,25.884729279467138,210.26412249472196,24.205549026766676,29.593671782815363,35.819299134396715
2025-12-12 18:17:21.123956,Right,6.145842393278144,18.76292640340398,21.680776932509616,11.045928639883641,295.5480256573137,12.227164410578553,24.594901029457105,29.802020161150722
2025-12-12 18:17:21.126993,Right,104.87239729346766,132.03242594058975,131.15134338728967,105.32007394370157,-46.52617329171335,108.88341568388569,134.5220559045556,135.38153568896814
2025-12-12 18:17:21.131994,Right,135.00939701408788,151.47144303287496,151.85335821058834,132.12529308412923,-214.20227076596348,130.1597055526072,153.81118735432392,154.1800334478321
2025-12-12 18:17:21.135964,Right,38.31995608143916,39.635079273575684,45.7054185566667,38.46785369634745,62.88753286769497,29.027561316426727,42.99041609634878,47.8979789885052
2025-12-12 18:17:21.139930,Right,-7.849745646381052,3.2043952656676993,10.53179441433167,-4.71098952536704,221.82742618636985,-13.446475730335806,4.315914026112296,11.423160671867663
2025-12-12 18:17:21.143997,Right,80.08371501197689,108.880280244397,112.44779841101263,80.21099838631926,-76.62353510315006,77.25083431918756,106.70116343343398,110.47501375357388
2025-12-12 18:17:21.148004,Right,137.82752819963207,160.7241654866957,164.04215008518077,134.22848480197717,-313.5113762457768,132.10290379320213,159.15298767166678,159.89813728127046
2025-12-12 18:17:21.152019,Right,61.235642883271794,67.27224512005341,75.21656973497011,59.42529497059877,-85.29732134134974,54.58175869734259,68.27993287472054,69.83257509177201
2025-12-12 18:17:21.155014,Right,-1.7068274217745056,9.802665396418888,18.773610386211658,-0.5913041112216888,140.93087421078235,-2.4887023720220895,9.756242411007406,11.169180282449815
2025-12-12 18:17:21.160044,Right,66.87801646497974,97.92747490547481,101.95539285833365,65.8557236038323,-92.90281504012819,70.98354571769596,94.11218846103293,91.50872569842613
2025-12-12 18:17:21.163993,Right,131.3101917788299,161.7428284184134,163.25247901151306,127.30590218727593,-369.4914725976996,132.6475444381358,157.0561301689886,152.05185570503818
2025-12-12 18:17:21.170070,Right,58.26939136143483,71.6807173959387,76.88665454319562,57.509824266511714,-171.2203801496944,55.5647718408145,69.04421345939045,67.34622887539444
2025-12-12 18:17:21.173075,Right,-28.99656640178,-14.789476348436438,-7.325158815539908,-23.924431629828177,148.22361423968687,-29.699580364729627,-17.749035393149825,-15.665349555842113
2025-12-12 18:17:21.178085,Right,22.807808007317362,55.571094729501056,59.01362309587421,27.733711136315833,14.724337595456745,24.99066728365142,49.375693790992955,50.18552595624351
2025-12-12 18:17:21.181095,Right,111.34597440407379,145.6639122706256,145.58480854993104,111.59538809924561,-304.69195282472356,110.06276663855533,138.62586268386804,136.8539455200953
2025-12-12 18:17:21.184113,Right,68.28213933939696,82.80283698037965,85.3941475333122,67.648861280657,-208.4081504084461,62.019993510097265,78.54403061597259,78.59558380849194
2025-12-12 18:17:21.188106,Right,-28.154498801377486,-19.845851665333612,-14.094108466204489,-25.912987657036865,116.3371189769241,-33.051586049448815,-22.982988817617297,-19.49599860102171
2025-12-12 18:17:21.192070,Right,-0.2720798737864243,25.277538612135686,28.767872131924378,1.0636450866586529,50.93080664127774,-1.691606602355023,19.511033110902645,22.351641183224274
2025-12-12 18:17:21.196137,Right,97.04887645049894,130.32687836140394,131.43251811596565,93.6360881519795,-292.4149010330293,92.58611643115,123.10592934876331,123.45020135998493
2025-12-12 18:17:21.200130,Right,79.32632480724715,96.72506373142824,101.73963002418168,75.4213227086293,-281.1487792485859,68.79008712524956,91.95990944412188,93.76411493966589
2025-12-12 18:17:21.204170,Right,-22.744960754178464,-14.144178991235094,-4.157152411033167,-21.583311804308323,51.54966706500272,-32.455966749970685,-17.06179645608063,-11.738058016140712
2025-12-12 18:17:21.208157,Right,-21.823978305314085,2.638331363792531,10.727505901333643,-17.831802602144307,68.7022428199707,-25.28031966119306,-2.2146264984476147,2.293316672585206
2025-12-12 18:17:21.211176,Right,75.36983945097018,111.75581492696074,114.85277538275113,77.72727175265027,-276.25869319209596,73.51598130946513,105.40140868755407,105.81855257268762
2025-12-12 18:17:21.215198,Right,82.0863690044207,105.22181981123867,108.76679685214185,85.40467509445443,-350.0652269649727,76.55518305361329,101.3684152795031,101.31368084001588
2025-12-12 18:17:21.220195,Right,-17.940669780306052,-7.443968181745731,-0.17965319557697512,-9.028027225052938,-23.52868167447741,-23.480255873175338,-8.91735621666885,-5.4872222659760155
2025-12-12 18:17:21.224215,Right,-39.7517592075601,-16.90651152211649,-10.929913952102652,-28.600563758140197,86.82794266888232,-40.49675169981492,-20.599124778222176,-16.316448796264012
2025-12-12 18:17:21.228235,Right,56.49397419366869,93.85019802484021,94.91293028890505,62.85191938342177,-226.22039557399694,56.55282255106431,86.65695594753197,87.86796897216118
2025-12-12 18:17:21.232217,Right,88.79258840391412,115.42768353639985,116.44191989605315,91.172496828367,-368.35919274404296,84.00025314044615,108.4889046302851,108.79560837450845
2025-12-12 18:17:21.236197,Right,-8.171149809102644,2.0790993685513968,7.549552600539755,-3.137658780426136,-52.34949557892105,-14.205826947218156,-3.031447079847567,0.18119462781760376
2025-12-12 18:17:21.241254,Right,-59.210039890531334,-40.61168077874754,-34.81524679463473,-50.802059332621866,160.79716649794136,-59.69387257164635,-47.08564051287249,-43.25575458351523
2025-12-12 18:17:21.244216,Right,26.7066274885874,62.88505296407675,63.99428613700729,33.16887062419846,-98.29775637267448,29.848549868387636,53.906434923628694,53.88929592065688
2025-12-12 18:17:21.248272,Right,87.50391209308873,117.79453877732158,117.5096902785881,91.57758895021107,-325.2812214310543,87.91198170626012,110.42731038069178,108.38462414620153
2025-12-12 18:17:21.253297,Right,11.178245021976181,22.892645645551966,26.253606763784774,18.332518743161927,-88.3123183844582,9.962229367607506,19.55271618856932,20.588638569475734
2025-12-12 18:17:21.256306,Right,-56.592085900352686,-42.42693182740186,-38.40879376155499,-45.71238330975757,168.7030508997559,-53.700658957706764,-45.50100278342143,-42.089230579018476
2025-12-12 18:17:21.260381,Right,11.073656364213093,42.36888643834391,41.707738372308086,19.556544244493125,-36.113779761391925,16.69106721499702,36.098247317626374,36.989469483771245
2025-12-12 18:17:21.263383,Right,82.74224262288772,111.78263513931597,109.43887753604213,86.79315985296853,-318.2524696761975,84.37318261395558,104.77711897373956,103.17513135178888
2025-12-12 18:17:21.267339,Right,15.89309060049709,25.68429003849451,28.457088888870203,20.952150695069577,-148.84023475644062,13.503192823918653,20.86738078558119,21.389729102011188
2025-12-12 18:17:21.271382,Right,-73.88770990599005,-65.8086066620017,-59.13293793569028,-65.3484076573368,153.40644470350526,-73.85782051007845,-71.12768036496709,-68.1073502401996
2025-12-12 18:17:21.276370,Right,-26.44909531515441,-0.5722079759725602,3.2700542108359514,-19.614376720346627,19.689274087024387,-22.859786070359405,-9.714329200418433,-8.707921610344783
2025-12-12 18:17:21.280373,Right,65.55440839932999,94.26672691844578,95.03246062927064,67.74817683317815,-301.7596888236294,67.33811391810013,84.30924252557452,82.59816616692115
2025-12-12 18:17:21.284375,Right,30.39237147656968,40.44978972055833,43.75825380200695,33.209625199378934,-208.6835659672579,29.934145255181647,34.89664370982791,35.150669193753856
2025-12-12 18:17:21.287389,Right,-63.2027828213686,-59.64366176982003,-53.90508743257669,-55.64112576462503,127.04750124324346,-59.1137264459976,-61.30148093517346,-57.71599055493425
2025-12-12 18:17:21.291380,Right,-37.35017575034726,-17.276950334213325,-15.448198428261094,-29.559037870465545,78.48577251297684,-26.72939858731843,-19.158379429893102,-16.910625340693514
2025-12-12 18:17:21.295357,Right,60.08226940051827,87.40986660157796,84.34958156784705,63.19219642092503,-263.75302452677715,69.73276757737767,84.88104927290988,83.58489316322084
2025-12-12 18:17:21.299421,Right,44.45804218521516,54.91228962432069,53.20094714543666,46.45298662191635,-258.1537841587633,48.00654174686497,53.89812713926949,53.27760869402846
2025-12-12 18:17:21.303441,Right,-59.481239648092014,-59.4283666274423,-57.78319217848184,-53.27533604555356,91.02627880661748,-57.257696470362134,-60.613145665847696,-57.82307413087983
2025-12-12 18:17:21.308469,Right,-62.84286947815417,-47.79899737618689,-48.396084873369546,-55.19764393186051,142.9854379400349,-57.12504595013888,-53.17446163960267,-50.81204240389343
2025-12-12 18:17:21.312456,Right,35.03299744406104,62.20961499240366,57.09445844855509,38.275912724660884,-182.67431996350206,40.40218262778944,53.616498326082365,52.21834604143805
2025-12-12 18:17:21.315483,Right,46.558830122048676,60.09735369241389,56.20699511356361,46.74004442895239,-259.21639055728883,47.10590322909411,53.40872260298784,51.486764127461356
2025-12-12 18:17:21.320489,Right,-52.442681670436286,-53.554101144574815,-52.898782694814145,-50.34566974795598,71.96378244386142,-52.8305194004497,-57.35449301713379,-56.10823630989762
2025-12-12 18:17:21.323486,Right,-77.77677661719645,-68.73924310307484,-68.81627014982223,-75.26703782017285,204.50507760576147,-74.01827302148013,-73.73707610254496,-71.95466189463332
2025-12-12 18:17:21.327529,Right,17.99652047246491,40.77655132871587,35.758234633656684,15.752228710902273,-96.08646556243184,22.38552294474357,33.32840630046121,31.969753962555842
2025-12-12 18:17:21.333536,Right,55.75809138076147,67.82814160497219,62.33151997171808,50.44178500568523,-249.74922504349524,55.0695846963572,61.722891355573665,59.79240887596097
2025-12-12 18:17:21.337547,Right,-36.585265159010305,-41.66684293011349,-43.03700858657248,-38.37958378269104,55.51987839343201,-39.32669215677015,-44.70425306467223,-43.16346167631127
2025-12-12 18:17:21.341544,Right,-89.44110449610162,-87.54280004816246,-88.7023022625217,-87.52992373483721,277.69111676829925,-87.67788261454552,-90.72037118058506,-88.3251084689764
2025-12-12 18:17:21.344582,Right,-8.052107775467448,10.796076567210548,4.828283574956004,-8.502969677938381,28.83692663052352,-3.461325786265661,6.009236884026905,3.994692765038053
2025-12-12 18:17:21.348559,Right,50.2692915067455,63.43826294490282,56.18589771977713,46.601218987983884,-204.0801388304535,51.488387259250885,60.65676308781258,55.59415538869507
2025-12-12 18:17:21.351567,Right,-29.217341079722246,-34.32219545566477,-37.01217465496302,-30.038147897263116,28.04784099531753,-29.891661291650962,-33.07383987926005,-35.53830734205985
2025-12-12 18:17:21.355575,Right,-102.5967835326228,-104.42380723723181,-104.88960379544005,-98.70223316890406,297.4506469942098,-98.38865646143677,-102.99824327703391,-102.58897159995104
2025-12-12 18:17:21.359593,Right,-35.46896972398099,-18.104885056345665,-22.037740731582744,-32.627159256611776,102.13925926524462,-27.231911153652618,-19.847636107537255,-21.20014883800468
2025-12-12 18:17:21.364595,Right,44.72212063628467,61.84219846022461,56.37841656816454,43.44136730792525,-193.6000901209718,49.08345738735079,59.619315732546966,56.000811013625935
2025-12-12 18:17:21.368623,Right,-15.6849264038392,-17.828379794467764,-18.881719527860696,-16.651223573273455,-40.245458851019066,-16.6572913040618,-17.112884749010846,-18.759950733699952
2025-12-12 18:17:21.371634,Right,-110.29555110617002,-115.49667415415752,-113.71290634509205,-108.20794970003772,269.6833218067186,-109.84710438604088,-113.87633685534456,-113.04749452364922
2025-12-12 18:17:21.375625,Right,-68.60786155969981,-55.90966259255947,-58.13838834051421,-67.68077220010673,148.98034960331552,-64.66302493481271,-56.68988800988882,-57.64532050363414
2025-12-12 18:17:21.379650,Right,29.96933171933597,47.81954435967418,41.50701140322417,27.464809007586155,-187.5097843925114,31.467634854530843,46.44007481985318,43.285116761675454
2025-12-12 18:17:21.383670,Right,7.109203529820661,8.605614800580952,4.563864025389194,6.757773773751978,-127.2987352082082,4.207407014346245,10.05904374167585,9.783189865545864
2025-12-12 18:17:21.387660,Right,-84.01665858341585,-88.49816342161284,-89.33023972878073,-78.03005081571064,194.09329478719587,-85.10122234064329,-85.92448254708142,-81.89020028162486
2025-12-12 18:17:21.392671,Right,-65.66865319332464,-54.20737180066135,-57.5214518885623,-58.61322978201679,151.29138606442848,-62.410684302345544,-54.62893105510011,-51.669216296857485
2025-12-12 18:17:21.396682,Right,26.428008395749202,44.403775265189324,37.60870811934001,27.97007161763395,-194.57910665566123,27.14729975534101,41.768967642172356,40.42701974261581
2025-12-12 18:17:21.399692,Right,11.22893803495026,10.888320038739039,6.525429723067646,9.3457655860675,-206.4713182498399,4.555651000243415,9.985716585479167,8.263470927646267
2025-12-12 18:17:21.403699,Right,-91.83322604175282,-104.72626934618893,-105.13369559666535,-91.94547438367772,135.73121913583145,-100.64385612906426,-104.2619731529303,-103.04174768992743
2025-12-12 18:17:21.408722,Right,-92.43692378489322,-91.4880917447008,-94.38792526314137,-92.38607526020587,192.91563788182975,-97.35803971495807,-93.413287337974,-92.47021965593558
2025-12-12 18:17:21.411749,Right,15.591023886384392,29.208884141358794,20.62091782198695,11.377931799812359,-142.31847664075394,12.065738109750782,25.33390100282395,22.771394427605628
2025-12-12 18:17:21.416792,Right,38.112474363249476,38.5186928587882,29.775655043984443,31.913389334501062,-246.26238252457733,31.92719963611421,37.064305896558835,34.09771037666633
2025-12-12 18:17:21.420706,Right,-62.16650332441702,-77.2098884518964,-82.10114258285557,-64.80829318485712,71.70175649545308,-67.91854515572773,-76.00215559905587,-75.7320099181461
2025-12-12 18:17:21.423705,Right,-99.1994299459297,-104.59928369799763,-110.015729195306,-99.63457439217723,217.26591615013604,-100.89426593876124,-105.57290184391996,-104.86057138711794
2025-12-12 18:17:21.427796,Right,-10.267994325581185,-0.9566254525871045,-10.603601615803882,-14.317537119617668,-74.3449335517762,-12.614355256542694,-5.758281499568511,-8.89197610904921
2025-12-12 18:17:21.430810,Right,31.68122110698232,31.306263955426402,22.020910266028977,24.70073532015749,-245.5435270638627,22.850914982397626,26.912640213136,21.852389286268703
2025-12-12 18:17:21.435799,Right,-54.00244102351962,-71.89140117969168,-76.26310506750679,-57.54269654814152,34.72076274705978,-65.17391663528815,-73.31002184966383,-75.8690367990962
2025-12-12 18:17:21.439804,Right,-104.39460520812645,-115.99244963950855,-119.67255922634104,-103.7542913898551,247.66526176029947,-109.69042052599616,-117.42978270074673,-118.5236416086218
2025-12-12 18:17:21.443839,Right,-19.863081811555276,-13.940368079337077,-22.575690262094213,-20.94378954815329,-4.171520312567736,-20.316879312891615,-17.58767599328894,-21.12369133822176
2025-12-12 18:17:21.447831,Right,47.52449112571503,48.806589856704704,38.087849335279316,43.039675134781646,-249.4094519366372,44.185458482432296,45.66014640233516,40.91853039831767
2025-12-12 18:17:21.451856,Right,-24.253518724292007,-41.81970839998212,-48.975926038407124,-27.28221914772621,-25.391112942765176,-31.482226864392942,-42.55713973690763,-44.06801747300415
2025-12-12 18:17:21.455805,Right,-102.26422212726357,-118.77968002922535,-124.47974754696224,-102.6203847587094,258.5481121205303,-107.38853084254697,-120.1504152156158,-119.25176754463428
2025-12-12 18:17:21.458875,Right,-48.62123757678273,-47.75498062861334,-57.56233919841361,-51.850247791160655,87.70568464739335,-50.96322368729852,-52.19202025578488,-53.79616427649671
2025-12-12 18:17:21.462830,Right,23.431537156659033,23.722662762884283,11.751020373103529,15.106405248576266,-193.43723704742297,17.814329984934375,19.191565779663506,15.165044698660495
2025-12-12 18:17:21.467896,Right,-33.538235125886786,-52.12256633464858,-59.861190318621084,-41.41251776150966,-25.10786829983408,-43.40210548355935,-53.67575166429742,-54.92489653755183
2025-12-12 18:17:21.471906,Right,-118.22235050503332,-139.23323538621116,-143.55984232769333,-122.1217326640508,315.54282559910644,-126.06780376095412,-140.55889481460326,-138.09718164425794
2025-12-12 18:17:21.475935,Right,-66.49187863917359,-68.64146312042067,-76.19024421570066,-71.0208593201678,223.8929375834632,-70.58817134308447,-73.73497065981792,-72.68439391424909
2025-12-12 18:17:21.479934,Right,37.37115742271271,40.70559277295979,29.478991382457025,28.353106194837892,-106.98543497209903,31.00615304513485,33.608175848818064,31.11844647912585
2025-12-12 18:17:21.483885,Right,10.784300117342354,-3.670835581895517,-12.534974215257535,1.5579647972735984,-46.83203263519681,-0.05306379439934972,-8.568890136601112,-10.458576284570881
2025-12-12 18:17:21.488954,Right,-89.35754521062518,-111.72895480473744,-117.48555209583719,-94.16154846603968,297.0195577871491,-98.65408360403308,-115.27119564674649,-114.32166790885094
2025-12-12 18:17:21.491946,Right,-72.32541999346722,-78.43812923409496,-87.27930842461137,-76.12984845873143,284.2095098313075,-77.01786711020759,-84.5006819613518,-84.42902382876491
2025-12-12 18:17:21.496919,Right,32.134694014370325,35.43660154072495,22.05660572060515,24.43656996363279,-58.79364167601307,26.576913222666917,27.455684414369898,24.357078911092685
2025-12-12 18:17:21.500009,Right,31.602133004598727,19.11509398420094,7.506339802039292,22.564673301687435,-87.6880404820622,21.605340041191084,13.324392224611074,10.610284310561838
2025-12-12 18:17:21.503997,Right,-68.90321086625045,-94.27622632620842,-101.4970152601527,-74.93660001428361,254.50355848357867,-78.55691258743173,-97.7464412092886,-97.61889716747828
2025-12-12 18:17:21.507020,Right,-77.8268796596276,-91.62900824414828,-100.12556812805269,-83.99031946837567,331.274994341431,-83.68773548033278,-96.4462680435754,-97.03080154148847
2025-12-12 18:17:21.511016,Right,23.48467787370464,20.558472158154473,7.672179850327666,11.812988776920974,4.030684431447298,16.209072603614914,14.569352188285848,10.521825686446391
2025-12-12 18:17:21.514969,Right,45.79453085619389,28.987198975653882,17.096089216371183,31.45337761153496,-107.91762086147355,32.516732152329496,26.378546053245373,22.86454042839614
2025-12-12 18:17:21.519048,Right,-53.57448296298753,-86.04137836322843,-93.15935304613231,-63.535099031520076,214.0541280881007,-67.79434919396226,-84.46156938614149,-83.26913960347883
2025-12-12 18:17:21.523051,Right,-89.84095926672308,-112.1674860799103,-119.63023338179482,-95.81926981997822,377.17554058846144,-98.51653106593585,-111.24100655056827,-108.54995540685923
2025-12-12 18:17:21.528007,Right,5.390785288091138,-0.5215175026605721,-13.171111595911498,-2.6994230290001724,83.4159119980759,-0.7715652424594737,-2.796049336422584,-3.858803320021252
2025-12-12 18:17:21.532064,Right,57.550150125949585,43.65491979671788,29.839514488390705,47.05451164981787,-114.96534044256259,47.412524784151174,41.29259564729,37.86708956879011
2025-12-12 18:17:21.535073,Right,-25.602416256879224,-57.010598587170534,-66.94792767435865,-33.172862374249235,151.98305154922127,-37.921628734489786,-57.50656252850604,-58.631728200743964
2025-12-12 18:17:21.539035,Right,-84.81596473038735,-111.08057372095936,-120.4793333097623,-89.51210817601168,382.6034130049957,-93.04279913718347,-112.6131507227692,-112.05216671991366
2025-12-12 18:17:21.543108,Right,-9.224300726164074,-18.30329591989721,-32.289541307560285,-17.187724164581596,144.0314942549303,-13.95025564687603,-22.331614766444545,-23.874641150279786
2025-12-12 18:17:21.547110,Right,57.55162827372624,44.40671741078404,28.950564266793663,45.1012476045762,-119.5157009002869,51.127581873359304,41.741565681826614,39.26992546138354
2025-12-12 18:17:21.551128,Right,-10.656909449651721,-42.77351757226279,-53.773866438365076,-21.93937157118853,78.366765969884,-18.022097112869233,-41.34647870723711,-40.356990339787444
2025-12-12 18:17:21.556116,Right,-84.10579163078728,-116.18978555530339,-124.69694438095758,-92.55659013744298,353.40878390830767,-87.40289234950615,-113.9842095795102,-110.60275688247202
2025-12-12 18:17:21.560094,Right,-21.121114477486117,-36.300736716490064,-48.11068744405202,-32.40670938249605,170.0643005114398,-21.93944001003183,-36.788607823131315,-36.59443799940345
2025-12-12 18:17:21.563162,Right,62.43020111720398,46.975207540308475,33.34190321225469,45.95675807529915,-153.1600616211217,56.82458959111682,45.99765412085253,42.39119680351723
2025-12-12 18:17:21.567109,Right,6.137127343150496,-28.54539697626751,-38.02619998209411,-9.55263562676555,-35.13547263407963,-5.039538437322335,-26.982403547968715,-29.278839999788033
2025-12-12 18:17:21.571176,Right,-93.88929542478581,-132.27407679319003,-138.72467245402368,-104.63125139123804,284.68774348402803,-103.70136014745003,-130.63207219860487,-130.17190089904034
2025-12-12 18:17:21.577138,Right,-57.90455081807886,-77.84594122999988,-88.12747501269041,-68.34018879476207,195.85998620302416,-64.44773321157481,-80.22806068691716,-81.50492764856608
2025-12-12 18:17:21.581209,Right,48.3629549791076,35.273998255732295,20.73614096383244,33.54460530633878,-142.60541780727362,38.50028406261845,29.961998538594344,25.31068920315738
2025-12-12 18:17:21.584206,Right,36.73800787799337,7.595310362245073,-4.520033906555909,21.17345920317166,-102.54517204905278,21.465971238038037,3.174493306360091,-0.3587027786343242
2025-12-12 18:17:21.588225,Right,-58.726369195224834,-94.8270635668814,-102.75586946895055,-70.14590262358615,236.6346369762323,-71.27729953027665,-98.52578555518267,-98.54616513293149
2025-12-12 18:17:21.591232,Right,-54.51512984422516,-73.28060410070611,-82.75413584608032,-64.44717676808068,237.52785390689678,-58.75337983624922,-78.77139646093565,-79.15216280717868
2025-12-12 18:17:21.595247,Right,35.66535337766982,28.254846023883147,15.249667521835363,22.891529510823602,-100.40564967251703,34.252050367937045,22.536108344582317,19.156253858629498
2025-12-12 18:17:21.599255,Right,32.35235124492101,11.030108753002423,0.039972162470803596,19.564285960623238,-139.31999212763913,27.615756250837876,8.87375260591216,5.953833289197064
2025-12-12 18:17:21.603277,Right,-63.877426173741696,-96.76336861839081,-103.33465558405442,-72.12206259310187,200.5378832108181,-69.10719175308986,-96.78285275843518,-96.54830360371852
2025-12-12 18:17:21.607269,Right,-68.45612944760069,-87.80404522835306,-95.5029003226955,-75.24680650242954,287.144577086583,-70.24622158188504,-91.16935522705899,-91.35492417117348
2025-12-12 18:17:21.611309,Right,38.10480995265607,32.88304259229335,20.934028863179265,27.092986828967696,-42.4409283444038,35.885455018851644,25.34015974074282,21.361345553457795
2025-12-12 18:17:21.616354,Right,65.84027545564095,49.799891306356585,38.99757934342779,53.116118176389136,-174.69908139372274,58.947686384814006,42.98260623439273,38.60679277685995
2025-12-12 18:17:21.619437,Right,-34.71530712654203,-65.05950491884141,-70.74282284377841,-42.23756606673851,136.59199465454003,-41.756317359595414,-68.8184240604096,-69.22284240692534
2025-12-12 18:17:21.623341,Right,-79.69834221330893,-99.61327822921885,-105.3020842465412,-82.79921677951643,311.6264457209254,-81.0176367328313,-103.43170682014897,-102.3771425107916
2025-12-12 18:17:21.627348,Right,8.40998148196013,5.568891621762305,-5.25733020935877,2.8955754109701957,27.034463835618226,9.471540627979266,0.20057424834521953,-2.229011981646181
2025-12-12 18:17:21.631357,Right,59.53824694746072,49.662259448858094,37.87659071949747,51.2928976227704,-183.83221898086776,56.963545617851196,46.377117836767866,41.69810142838833
2025-12-12 18:17:21.635352,Right,-24.33938319603476,-51.09325136774714,-57.817726878260146,-28.46646739202697,68.29807249545411,-27.19551710864107,-49.95990415266715,-52.30738191113778
2025-12-12 18:17:21.639318,Right,-86.28648744586826,-106.7596809132956,-110.7533845647049,-84.37334010552877,301.0583298988204,-81.4747455237557,-104.07666523931402,-104.69613480927364
2025-12-12 18:17:21.644404,Right,-10.13595625709786,-10.923302950781363,-17.16034846297407,-7.769693173460837,65.08413606299291,1.7388091200809868,-8.784403390840453,-11.736559323639085
2025-12-12 18:17:21.647396,Right,60.21040260884547,58.12959391234472,52.172771462959645,60.67223143784213,-214.96813261644274,71.83799429943974,62.41807535698899,57.92469262571831
2025-12-12 18:17:21.651386,Right,-10.429159052418981,-29.891791792302683,-30.48267545017734,-7.731598243983171,-36.12571752718941,-0.6443622584483819,-22.15684459212207,-23.703866132149415
2025-12-12 18:17:21.655416,Right,-95.03970943787499,-113.44619563154265,-111.71498151034757,-89.47902861302282,243.07275724492501,-82.85728850674786,-107.06115647155093,-106.08188285779033
2025-12-12 18:17:21.661434,Right,-41.129587947765685,-40.80073498301499,-43.70953383627784,-39.17743383356719,80.44805723789614,-27.683926775196596,-40.06949795848777,-41.47731774242857
2025-12-12 18:17:21.664442,Right,44.51362422229067,46.610605962749105,40.242085835569014,39.823983032256365,-223.6066261649612,52.32633989381793,44.68289117907261,40.61879949939612
2025-12-12 18:17:21.667452,Right,-4.425003465039481,-20.910891130966775,-23.64442625213269,-9.875791056001617,-79.79579773978912,-2.8916978495290095,-20.282580314284132,-21.824233277104213
2025-12-12 18:17:21.672510,Right,-102.32966366582696,-123.00608650412323,-121.62034583647619,-103.67319748304726,283.4328499530857,-99.24832958725165,-120.27202970947837,-118.08789940309362
2025-12-12 18:17:21.675486,Right,-70.5439088541898,-72.72048847087717,-73.25188484042155,-71.24040337409679,230.70471380375602,-61.84612914853642,-71.03732035778376,-70.30888409075123
2025-12-12 18:17:21.679474,Right,30.51742440138696,35.98976680621854,32.947934321447974,26.933775183970283,-112.39380378252463,40.15296903124545,38.02146361110499,34.755894242560316
2025-12-12 18:17:21.683508,Right,16.10552786862172,5.531483184407989,5.976794109235925,13.85126098366527,-108.36807503244927,23.764332830636704,11.579763993635424,8.269987826424767
2025-12-12 18:17:21.687501,Right,-77.95690916289459,-96.8848689651204,-92.0176583507855,-74.3534763838361,200.82011171682097,-67.6005150414021,-88.09783006944781,-89.08690619197296
2025-12-12 18:17:21.691463,Right,-64.74698320446987,-67.92062638165953,-65.08047496448125,-59.161196242348524,186.8578095270168,-49.25857455170262,-60.9735846563417,-63.413152022061695
2025-12-12 18:17:21.695540,Right,42.26559645651287,49.43070405986509,47.98156273155473,44.09666361589552,-174.16905070866778,56.624612603838614,54.21765092238638,47.98382628167019
2025-12-12 18:17:21.700550,Right,52.6192156790421,44.34441202555172,44.556694320679526,53.030963429766416,-250.15120327713885,61.03248825578339,50.60446092080383,45.0486232804833
2025-12-12 18:17:21.703557,Right,-47.507585291597934,-70.08423728460912,-64.96031643802417,-43.056051987139654,64.54415058080849,-40.03861382953983,-61.93097035752726,-62.70447896912083
2025-12-12 18:17:21.706559,Right,-71.06210220730645,-82.54477044822852,-77.49890599393257,-64.48806017767129,149.72735311616816,-59.0360090553113,-75.85631960972387,-74.74151725392585
2025-12-12 18:17:21.711570,Right,20.430858203879325,22.345585851995565,24.07933967005374,23.284037591252854,-181.446244304434,32.86008101167681,27.149730829471082,26.428002705302788
2025-12-12 18:17:21.715608,Right,46.99692545106154,37.99825143831549,41.57705016872933,47.05932501697316,-333.1913716578656,53.6611549340887,44.31160148598428,44.50703953772609
2025-12-12 18:17:21.719614,Right,-49.59182679735386,-73.75513889587455,-64.03439128860191,-46.68592462097877,-42.07096091422227,-45.40425242178026,-65.45897622658231,-60.466973868715286
2025-12-12 18:17:21.723552,Right,-93.73980147459224,-108.0782212009508,-96.47929077660956,-88.32692581701122,129.33698050271505,-84.78322533700339,-101.4533260534372,-94.59393474378885
2025-12-12 18:17:21.727634,Right,-4.071248138377996,-0.2652821780939121,8.87727412093227,-1.6355592597319628,-153.3653717582788,8.690949515661487,4.0173693061224185,7.654071142183966
2025-12-12 18:17:21.730632,Right,51.89214970870307,50.17036551822093,61.25775548089587,51.35781623388539,-363.1160421032698,62.51662694217157,56.49296730745118,58.541116375614365
2025-12-12 18:17:21.734653,Right,-32.398810906492145,-51.32365767365991,-32.863241543615004,-30.049645858132862,-88.34475511160429,-23.22225247955066,-41.005835888761794,-35.535450554561976
2025-12-12 18:17:21.739636,Right,-104.63588186194829,-119.18894858382555,-97.22347141710634,-98.41482765073306,197.61158138000724,-91.98806547944332,-109.10055837129039,-101.2526574129297
2025-12-12 18:17:21.743676,Right,-36.39651077803137,-32.72676750413666,-14.253605514051742,-31.918826456068928,12.672242309001831,-22.652033699909225,-26.308678662084276,-21.300012158077152
2025-12-12 18:17:21.747620,Right,40.87764794996474,42.47908828132495,58.77687115172739,41.85387798677402,-243.94317667956693,48.275984007228544,48.013265238754684,50.24013679908239
2025-12-12 18:17:21.751697,Right,-14.533823773766926,-31.815142048159032,-12.083747729273455,-12.02272432594691,-47.63876949280984,-13.070265164522425,-23.70533337312372,-19.59195935027674
2025-12-12 18:17:21.754647,Right,-89.40607742033171,-107.54128547516302,-85.79252221950446,-83.61981142634613,265.3611025613536,-85.84922191369697,-98.98913291140343,-92.93256053211371
2025-12-12 18:17:21.758711,Right,-31.11767784810945,-30.656397140439367,-12.599696659221081,-27.43684499293886,126.14590004086222,-23.116975563600136,-25.237517406072584,-22.10553287040966
2025-12-12 18:17:21.762722,Right,62.682557880252716,66.94032547467214,82.59426374961913,61.93773151815185,-201.70178664500054,69.5218488424398,70.54088040600618,70.08329658401635
2025-12-12 18:17:21.766733,Right,23.98118348216667,11.475402546551777,31.237300266919192,24.9167514683395,-113.23678600629682,28.44089727271239,16.250827092240797,17.125595721197897
2025-12-12 18:17:21.771760,Right,-72.56127750877567,-89.18794425278611,-65.42105816593539,-65.17950565623687,210.1446303042685,-63.38889764730084,-84.47440203966471,-80.84198781665327
2025-12-12 18:17:21.775694,Right,-49.15996538502077,-47.71077038752264,-26.39211365125084,-39.054698318679584,146.91880400742593,-31.45944520199555,-45.202510577320936,-43.49748385070416
2025-12-12 18:17:21.779767,Right,43.46807401398473,52.83927847517043,71.02803880630745,52.51828261466653,-192.29602786882242,64.61563732874129,56.38828299916713,54.25101125891524
2025-12-12 18:17:21.782779,Right,24.00309275928157,17.404813127686793,38.95396568046999,36.13284457480768,-164.80788412146467,44.78295816733953,26.937356172486034,25.670708421748714
2025-12-12 18:17:21.786771,Right,-75.72843851990183,-91.48427652891405,-64.9861426935422,-56.16499706674222,199.34927254874492,-51.68906276281996,-77.55145177815575,-75.08862280496396
2025-12-12 18:17:21.790789,Right,-68.18985196906215,-68.6977695444657,-43.70047428426551,-45.75174524637623,242.97842311695786,-39.13593034372025,-56.33145378766494,-54.337823189544
2025-12-12 18:17:21.794799,Right,37.60645275391289,48.06106186699617,68.57141235252857,56.09029030175225,-101.0393782021456,65.1558703089213,57.69339752340238,55.53693516653584
2025-12-12 18:17:21.799757,Right,50.322347175668256,45.9578111792689,67.12311373459306,66.23146034950332,-191.89633385069465,71.07045215709331,56.69141235850839,53.56077048026782
2025-12-12 18:17:21.803844,Right,-47.322547607080196,-66.42996184030562,-41.88595796423033,-28.982498342655163,121.11637691690703,-29.487436856072236,-54.08269953476338,-54.356393005724385
2025-12-12 18:17:21.807843,Right,-65.10143768711714,-73.94291504218563,-51.41244477417422,-46.37100669051142,223.69286788947284,-45.718175831612825,-64.06325111399201,-63.80066027623252
2025-12-12 18:17:21.810863,Right,41.35316818755564,45.397394780291506,62.29924443516575,54.493420676664755,-108.7544443363222,58.18350241524786,51.75019343515305,49.23992179389461
2025-12-12 18:17:21.814871,Right,87.60061412823597,79.77430805243057,96.11399866449574,96.1050332947998,-290.53101136706755,96.74434335988735,86.38252942953477,83.88469071754662
2025-12-12 18:17:21.818940,Right,1.5791634911875008,-23.45475660709053,-3.101080625623581,11.516684700913174,-21.634226695437974,7.153222932402059,-15.244171245696634,-13.489236075907684
2025-12-12 18:17:21.822896,Right,-47.09677671981626,-64.3719525513734,-44.21006740071243,-35.769583810255426,155.1439002886109,-38.01860975609816,-58.00310090368657,-54.121990492127225
2025-12-12 18:17:21.826908,Right,32.34805611813863,32.433932311596436,47.40071213510964,39.23940310810758,-122.3370196691285,43.200927742251224,35.80465756585545,37.12880150629644
2025-12-12 18:17:21.831915,Right,83.93657440411334,78.58622672005367,91.87216764992263,86.14923817970703,-351.3062162145943,90.30394852953214,83.23555758771909,83.29121349802153
2025-12-12 18:17:21.836928,Right,2.607076979658814,-20.064583434803353,-3.1974869267978647,6.638925418657891,-103.74426815153856,6.02148055611633,-11.268609127477248,-7.860010889722616
2025-12-12 18:17:21.839879,Right,-63.74355886393096,-82.07432864480143,-64.81850834723082,-56.10609827656663,167.4692009948194,-56.56803957210559,-72.1871657400552,-66.34497173376076
2025-12-12 18:17:21.844959,Right,10.609168837290781,11.532688537910872,23.0374605356119,16.020773785490746,-33.45773540947994,20.8968153973301,19.20617153991043,22.453080131544993
2025-12-12 18:17:21.847948,Right,91.62679928308535,92.1810156844731,99.92297351365414,92.35279849596373,-327.4888558797247,98.06427517564953,99.20157263192414,99.70741372989505
2025-12-12 18:17:21.851988,Right,32.570278240502375,15.2383375686004,25.46241182790982,33.836405204416224,-175.11549869488226,34.35935733160204,23.397457512659457,25.664016131602693
2025-12-12 18:17:21.854971,Right,-53.984198809243026,-72.13293532789612,-60.36590741299733,-49.56895286074359,117.88780514206155,-50.94728909964306,-65.79820413378002,-61.57933312046589
2025-12-12 18:17:21.858984,Right,-7.188029626635398,-6.795476462757506,0.727170121655945,-4.9428772094343,-18.03010182372236,-2.1766202358958253,-5.183276411453335,-4.103093875357445
2025-12-12 18:17:21.863017,Right,82.497981332559,86.70947213373438,90.83514323568306,79.22471827529444,-343.9175045345037,83.61514545967839,86.68078927360693,83.0458018913796
2025-12-12 18:17:21.867027,Right,44.525027477131516,31.622646202940814,38.62816231345823,41.11097706865439,-259.88125099022,41.08124149753894,34.48084351991565,30.442207805204816
2025-12-12 18:17:21.871029,Right,-51.88438709369075,-69.06024352231361,-59.289858883990746,-50.32344717654814,68.20032119947427,-52.601567326484655,-64.48458768103774,-66.83687039868346
2025-12-12 18:17:21.876048,Right,-28.280183169883458,-26.213441663525373,-20.35178161280055,-25.209978081844383,16.12106215480162,-22.991376385904005,-23.613517705920458,-27.69520780387211
2025-12-12 18:17:21.879044,Right,67.91597935337631,79.91872334661275,80.70777151806942,67.54569932527556,-330.85148538432986,73.30407428418948,81.57907900727696,74.31090060582028
2025-12-12 18:17:21.884066,Right,52.280812845249784,49.317582816962386,51.294378298987795,50.803241352678015,-336.4590929603146,53.633894745194084,53.65341442655608,47.466056059958646
2025-12-12 18:17:21.888132,Right,-50.186430570107404,-62.70088626956567,-57.56213164484325,-48.79844042458899,-2.741941678672447,-48.26118902227063,-56.66106956874319,-59.10329851815368
2025-12-12 18:17:21.891086,Right,-50.29739973161395,-47.52201515672641,-44.967933506510235,-49.180526407617435,34.972379127946624,-44.161779607506105,-43.90393331717405,-46.30350366642051
2025-12-12 18:17:21.897055,Right,51.431421214735565,66.75633648466282,64.43662386101096,47.27538648911195,-302.36525327685376,56.537067817093885,68.12056946928351,62.48558849088113
2025-12-12 18:17:21.900124,Right,63.33001640113616,65.77547636420968,64.52805369557609,56.74863743613332,-388.69900542053074,62.33626881289274,68.96101886305769,62.935407451737774
2025-12-12 18:17:21.905120,Right,-41.60729933688435,-52.66200655573448,-49.34301318616599,-44.306177294690315,-62.41769941808161,-44.262157060227764,-47.16886093434778,-50.72645317922979
2025-12-12 18:17:21.908135,Right,-74.84339351598919,-74.05926479966365,-71.48463674860068,-74.78738133689149,72.76342815271346,-72.87440703158245,-69.99279106100266,-74.60370208353561
2025-12-12 18:17:21.912154,Right,19.08553206320539,35.75355632871015,33.11712874182558,15.950782019509461,-224.0196917403373,23.212051613762014,37.70279484841376,27.863644983193808
2025-12-12 18:17:21.915164,Right,63.79429511147055,71.81698064562534,67.92083488143726,57.736547448546844,-384.7650652003649,64.32551050099028,75.25907675123199,62.92556556782347
2025-12-12 18:17:21.919192,Right,-16.64492955137439,-24.25943245101007,-25.491702763285502,-20.403351869545986,-100.4484952429666,-18.17990030934652,-18.82350168872972,-28.717090439854474
2025-12-12 18:17:21.923163,Right,-57.6811714415735,-57.33163038910334,-60.269244123306635,-59.946904157227436,98.46759229975214,-56.737115533867836,-54.63633423670092,-63.412821666491254
2025-12-12 18:17:21.927151,Right,32.39081618535829,50.34220089734026,40.89639350971083,25.12541175410388,-163.71542413596762,32.86550194650317,48.14020757271212,36.108137646701834
2025-12-12 18:17:21.932203,Right,95.51266564528828,107.9885443925416,96.2764999557503,82.69560254555472,-400.48618817195893,89.10022425982879,105.27164892676205,91.16716168958192
2025-12-12 18:17:21.935212,Right,17.6891580296367,11.261825535404341,3.6814564648984742,6.13971546596531,-169.17823508107904,6.23012196540185,11.896106938424055,0.5118443081091755
2025-12-12 18:17:21.938160,Right,-56.46350587371626,-61.08664905171963,-66.80792504679175,-64.17299143481614,102.61318884503999,-65.53559019487966,-59.23709238882748,-67.99061313012817
2025-12-12 18:17:21.943190,Right,8.26530695733777,21.445587388993943,11.71990943232413,-0.5687878790977265,-83.01292713625662,1.9782817285095007,21.694873126269613,11.567057358711736
2025-12-12 18:17:21.947229,Right,87.57549242214418,100.61760126114814,88.80444270020962,75.88552230377763,-363.02306415458224,77.9034427014376,101.20834761991864,90.15153207124149
2025-12-12 18:17:21.951284,Right,32.65490926447802,28.61239778047093,21.028317764763415,23.91988420819689,-192.91248081759113,19.082401679801478,31.613606708565385,24.224299834567546
2025-12-12 18:17:21.955212,Right,-50.33107660980889,-54.21592802971372,-58.384089308050534,-53.05688344431883,133.20521585945608,-61.692498055358556,-51.854026737249114,-55.47496804423736
2025-12-12 18:17:21.959339,Right,0.014582370608380302,16.369569040864462,9.574644973359682,-1.936113773629586,29.825292300637557,-8.128350844109264,14.932112157746815,9.951420312851496
2025-12-12 18:17:21.964332,Right,94.87232416017144,116.76329885433279,107.49171160115384,89.81429262787105,-287.74032040060774,83.99477235236918,114.60725860992625,106.7640740614545
2025-12-12 18:17:21.967341,Right,57.03044842419672,61.64026336245843,55.445655499644545,53.12016362296845,-206.99054069317157,42.217854140334566,63.42738537290552,57.04051576555764
2025-12-12 18:17:21.971331,Right,-50.04303595767317,-52.004949622447384,-55.63657278355322,-49.150865060577416,138.67004873805718,-62.332005393144755,-47.99502071144252,-51.2681119802719
2025-12-12 18:17:21.975345,Right,-39.241272095423824,-24.16146520420716,-32.05452785247826,-38.27767908949727,123.79410087499218,-46.82025446391435,-23.21441254122874,-27.72917092658963
2025-12-12 18:17:21.979279,Right,56.39104913743131,81.04983718833955,67.74859143264803,52.250000383849965,-197.42081016202974,46.74530890605274,78.49615859443384,70.46757762201901
2025-12-12 18:17:21.985357,Right,51.93077633064968,62.13703460116176,50.08701453880076,46.064091088141595,-195.27524452296893,36.0841932284693,59.788632650966974,52.49119996834588
2025-12-12 18:17:21.988358,Right,-42.46838609056999,-42.148368726272565,-50.346371686578095,-44.69901879533745,152.55767868157272,-59.08420503606612,-43.860091441199984,-47.30254812585554
2025-12-12 18:17:21.991361,Right,-44.20638158460838,-29.50782170952698,-39.49624284242327,-45.21536438684643,216.07529309784513,-56.81651065888582,-33.37883404673721,-36.56269898160008
2025-12-12 18:17:21.995380,Right,55.62658164113054,82.47736154332961,67.80968510098728,50.840726967793216,-106.48392358423371,42.7471393682481,77.35656361318524,70.94309916979728
2025-12-12 18:17:21.998395,Right,72.05256009526943,85.60833479058238,71.80778191599757,66.12485165805037,-191.9619511162673,54.43300909573736,83.80453458937791,77.3375048691396
2025-12-12 18:17:22.003392,Right,-27.886557476158487,-29.207790871485486,-38.25973899528003,-28.893221918214977,145.72961852167646,-45.57984376989043,-27.178691427727244,-29.712158049304435
2025-12-12 18:17:22.007356,Right,-60.61935636049566,-51.67791496471909,-60.69790498156226,-58.40433791371743,304.1393327462938,-72.42005565902582,-50.34996719582341,-51.435055247317905
2025-12-12 18:17:22.011416,Right,32.32431404253657,56.25737249410122,43.066563430949145,30.88133170028732,11.79927061098715,23.320860239690774,55.37980551934743,51.54239246269299
2025-12-12 18:17:22.015459,Right,74.80073413779382,88.90880735082646,75.80022069539677,69.48164379633249,-169.93480759419617,62.76197751057498,89.68588124804592,84.89743280986659
2025-12-12 18:17:22.019547,Right,-14.5577062844809,-18.473539051181433,-26.910763583516427,-17.777473923890284,102.32324152642832,-27.43670298242887,-14.673340707338866,-16.30441092397541
2025-12-12 18:17:22.022448,Right,-69.85257038250984,-67.95270448364681,-75.68880281848624,-70.2756057033248,316.47263065901643,-78.34505681941755,-65.64152249873405,-65.66866309103261
2025-12-12 18:17:22.026452,Right,11.785207766111853,31.412329759432396,18.902427589225,8.62535383945874,69.33386913313734,4.859179140727065,29.335876786530207,26.545765700941047
2025-12-12 18:17:22.031420,Right,77.66678559470893,93.81240791072378,79.40392059295982,71.06200193605173,-175.62961835991155,65.50369334012157,90.55162940910122,86.17067082817903
2025-12-12 18:17:22.035480,Right,5.692988741152021,4.779811362863256,-6.073271423303822,1.6139598224490328,43.90036910330673,-10.389847531815576,3.000677179086779,1.7193352055464857
2025-12-12 18:17:22.039447,Right,-66.43265660381667,-64.47453621986642,-74.27204261768566,-66.55042173415927,321.3778081556302,-79.48226805810191,-67.88344419488021,-66.67144413228107
2025-12-12 18:17:22.043494,Right,1.731232956291933,22.45290488455612,7.858263744933311,-0.6982474762080528,140.32496436758083,-8.690343084674168,14.231285722749817,13.038347346051523
2025-12-12 18:17:22.046516,Right,90.58823858596634,111.49294698794256,94.15259968108037,83.05760492595005,-158.22503870019136,75.34155927343818,101.0081278999478,97.35790759248357
2025-12-12 18:17:22.052557,Right,42.23166156334946,44.24495633795959,30.85537638120499,35.21494513794687,-10.336023117706645,20.940649695208776,35.01750584725414,33.94155572320142
2025-12-12 18:17:22.055548,Right,-47.37709123069908,-48.64780504401824,-58.71161781346922,-50.18920627856801,318.6016180623701,-67.43566871448456,-58.17600130046594,-55.7561620323695
2025-12-12 18:17:22.060564,Right,-9.627059674351585,6.782116315935127,-6.447321019349843,-12.77010893717511,230.30864874346298,-25.10086857326951,-5.5425990436233405,-4.436509219758591
2025-12-12 18:17:22.064551,Right,81.21666326932291,102.48231153372035,85.8107390695551,74.19582904653248,-88.42173392245604,65.6938073480078,90.22450830012713,88.3208178611194
2025-12-12 18:17:22.068589,Right,47.75712479646609,51.41942012096297,37.527654914383106,41.55020538571057,-15.513112496642862,30.711585082717647,43.55050365718853,42.87626751182779
2025-12-12 18:17:22.071540,Right,-56.44697870684695,-60.17473234580575,-70.3583879284246,-57.29721349567444,342.209882791838,-68.74932615237594,-65.18680365377804,-62.719239197559546
2025-12-12 18:17:22.074536,Right,-44.49195857090399,-31.40258180613091,-43.99494277747797,-43.90044643811768,346.8408264906175,-49.06832325295363,-38.081736760945205,-36.603253776550446
2025-12-12 18:17:22.078605,Right,56.11317571187146,79.36003793127384,62.72091143836087,53.138681949250895,19.389954962724005,53.02314755337193,71.6077188709678,69.77816492067177
2025-12-12 18:17:22.082621,Right,56.64819853403242,65.21510941435918,50.629438356091896,53.221620570345294,-3.5213071348553058,49.87621457838486,60.77674292471602,59.87923221684832
2025-12-12 18:17:22.086621,Right,-39.30424129044059,-42.10385658101586,-51.909465107603694,-38.190983157827304,336.13688408065354,-46.3600977238184,-43.273744246847855,-39.879884689959
2025-12-12 18:17:22.091652,Right,-45.16330547536654,-34.545341007080424,-44.9624472403612,-42.67505293239799,409.21958053289563,-49.146272530971146,-37.038167659700775,-32.93171286462348
2025-12-12 18:17:22.095605,Right,54.504951579828685,77.83263077983975,63.733243811789634,52.049225455135456,80.61894982401282,49.03181256323296,72.71978723452412,73.53023115653559
2025-12-12 18:17:22.098672,Right,70.19528763210474,80.86003773456832,68.28068204031206,64.13445682028998,-31.7375473282882,58.74720143782088,76.2896729156746,76.36293039095654
2025-12-12 18:17:22.102618,Right,-38.79729523351898,-43.55749558571188,-50.95369669576155,-42.84669011222127,291.4094343078759,-51.74437278838013,-47.259534903088934,-44.15874715206701
2025-12-12 18:17:22.106680,Right,-83.44223212141901,-78.43926788274803,-85.67520815967418,-86.56133681359188,459.9935064503079,-91.90252262937975,-85.37634080560565,-81.59887181685735
2025-12-12 18:17:22.110711,Right,9.058877890676285,30.216206841623716,18.538319883794657,1.2368283981368222,172.4455414844415,1.9048127031355762,18.98301760540926,19.629409852186654
2025-12-12 18:17:22.114737,Right,65.59517503419988,78.979652054084,67.09257769355247,54.13829485766507,-29.78205912442354,53.198102759286485,68.01323641273302,67.96971521898558
2025-12-12 18:17:22.119746,Right,-8.271099520680764,-11.80649414005893,-18.888456227653364,-16.450322722335613,217.95856099190132,-23.819774024694198,-19.654350630582485,-15.886404725157263
2025-12-12 18:17:22.123740,Right,-57.99603724660051,-55.53937953334753,-61.457813156685006,-61.756331359818205,422.9525813674991,-69.4704973548196,-63.00107524267878,-57.386757410078644
2025-12-12 18:17:22.126774,Right,22.266226044543373,42.992336742023326,32.871873102123914,17.37616443848742,164.8786793383333,15.000048664085625,33.931675230276596,36.22281176186334
2025-12-12 18:17:22.131772,Right,86.30704785226976,104.25815263543518,93.21912306675176,79.32803687542798,-110.24557595724764,77.87837639859481,96.69419763812402,96.59309788636347
2025-12-12 18:17:22.134726,Right,9.154326046291771,9.702152498839496,3.9601535931557237,6.024504434001983,79.35349086050701,0.3678112805537239,5.982974789047148,8.71116195455761
2025-12-12 18:17:22.139796,Right,-74.94341661188082,-72.20913775755798,-74.88708369965934,-72.36263476128886,350.5044565822609,-77.86819044535241,-75.46393099315355,-69.95555705707375
2025-12-12 18:17:22.144746,Right,-17.810537892305774,4.589911105644205,-1.7468399710234053,-15.57192567591619,170.66920580227452,-15.289841902985245,-1.9437060162854323,1.3293194199723075
2025-12-12 18:17:22.148814,Right,69.61866401769998,94.21991548744882,84.90809564894857,67.82768197632618,-147.56502861148329,69.89051443778135,86.2222754031709,86.62715391154052
2025-12-12 18:17:22.152827,Right,25.559492493038192,31.920500232283302,25.713382438409667,23.68150169904743,-32.43795082012366,21.147451717024524,25.489985532139144,27.725697393716473
2025-12-12 18:17:22.155774,Right,-62.58651851935724,-60.629223239327985,-63.98809526650416,-61.95384277868766,277.18649210398144,-65.87200454551112,-67.51352778617638,-62.34300020425326
2025-12-12 18:17:22.159837,Right,-26.330120681857352,-7.36561109199647,-13.847743696159569,-27.562913871449155,179.3782842346991,-26.04337591705189,-18.044246039935388,-14.30427453086486
2025-12-12 18:17:22.162794,Right,64.31131567394948,88.87903377456678,79.23044233882126,58.54390394784696,-163.4971931388427,63.07471610181983,76.66763986870865,77.74681738368781
2025-12-12 18:17:22.166800,Right,30.737301538548138,38.130113982180774,31.70213915822137,25.972530438798685,-127.16077084308199,26.278539454073325,29.38263389385702,32.34294916540057
2025-12-12 18:17:22.170863,Right,-75.81975756596668,-77.0539232076444,-79.22815034042424,-74.658182407033,207.1414542192797,-77.13602172277751,-82.29584098921805,-75.69692800695248
2025-12-12 18:17:22.174877,Right,-63.36940656392311,-49.65180311380391,-53.72933299334352,-60.66014251271565,203.56429208132613,-58.514277501609286,-55.10594143624803,-49.639532894720105
2025-12-12 18:17:22.179903,Right,46.044121494153295,68.75488605830833,61.133810930727634,44.11874939007157,-141.0849323200964,50.304321449318195,62.79895690747435,64.14988207461101
2025-12-12 18:17:22.182885,Right,56.64885139480022,63.888177856732,58.8930498722184,52.5137150171895,-193.65338266706385,54.802804554417435,60.159025860239126,61.431632544013155
2025-12-12 18:17:22.185915,Right,-41.79327252310313,-46.802769050096686,-46.596847322838585,-42.202757447912404,130.93768401580746,-44.94445377686225,-49.022244112758926,-44.146874860378375
2025-12-12 18:17:22.190932,Right,-63.2352625826212,-54.848580240921365,-55.43613704302817,-61.0668726585061,213.88889979610394,-61.44043124417658,-59.030854037870085,-53.628225799555366
2025-12-12 18:17:22.194933,Right,24.419322356085274,46.96807799747512,41.691339554324884,24.158136709422934,-105.85252421494806,28.49988287959195,41.531656529205975,43.74423107768325
2025-12-12 18:17:22.198932,Right,44.888600118714976,56.31465785816363,51.14836217782175,43.36174230363929,-229.26235891980468,46.11435820165025,54.126066815264494,55.707335687480736
2025-12-12 18:17:22.202952,Right,-47.86822579834126,-51.77751767396148,-52.83566814628142,-45.925283130287085,78.50395571772242,-47.0599692516098,-50.41110927727459,-45.895557277586704
2025-12-12 18:17:22.206976,Right,-77.67715281485516,-72.62299750063266,-74.04203206379793,-74.14928068553422,242.57477303378982,-72.72177251523908,-72.78572291026194,-68.08910568539523
2025-12-12 18:17:22.210974,Right,21.885295311390223,42.823838755941324,36.63960026296917,20.738400902932597,-48.82050655155763,27.661276055306644,38.80783473035444,39.49365354267957
2025-12-12 18:17:22.215994,Right,74.20272252430664,87.49947779852482,80.88746779774885,69.18484749846834,-256.6858825167874,74.77582122798549,83.1123761449735,82.46214961649002
2025-12-12 18:17:22.218976,Right,-17.75614423118384,-21.800529163308056,-23.327051715075072,-19.36881388094119,7.606284280940599,-19.836804749219027,-24.266107327979626,-20.783158222952807
2025-12-12 18:17:22.224014,Right,-91.0450472739094,-89.7324879332964,-89.29893928348775,-87.54924510308192,258.74907703635836,-88.32626100080142,-92.71231827965903,-86.32741818287923
2025-12-12 18:17:22.228071,Right,-22.12407435000091,-2.42153523406796,-5.653502421542662,-19.02140867867469,42.89295107835642,-14.42117768095477,-6.788446176254638,-3.097210384461505
2025-12-12 18:17:22.232977,Right,50.06114798997305,67.4399440905645,62.880741469473975,51.3945181514179,-219.30167054673075,56.904094116776605,65.86645047465572,66.72313298619702
2025-12-12 18:17:22.236042,Right,-11.024131609151254,-11.549759168594392,-11.89554768894942,-5.840413668783043,-24.996701623000263,-5.392688634414071,-7.86787018855739,-5.056617465398631
2025-12-12 18:17:22.239045,Right,-84.47610748777004,-84.26477612736198,-82.41769235715329,-73.705081956426,267.6606173410619,-75.0335678292522,-79.42911845564777,-74.20541523316933
2025-12-12 18:17:22.242071,Right,-22.146079865964566,-3.499588106322335,-5.337056639908013,-12.024921664283397,110.18989445898478,-9.781611190291642,-1.862220118283858,1.4730619226556882
2025-12-12 18:17:22.246086,Right,68.6265586036817,88.7540235564511,84.72681514380517,74.44492398208729,-206.86843060932733,76.63167887573286,88.93592254777877,90.27598894444145
2025-12-12 18:17:22.251017,Right,20.644820655735032,21.631160228793306,21.67718477072836,26.907351225729485,-92.98310060848598,22.98465721864102,23.530168432548635,27.98992052068661
