timestamp,label,FC3,C3,CP3,Cz,FCz,FC4,C4,CP4
2025-12-12 17:55:48.703471,Right,445.84693384243576,813.3067635888019,777.3937335055812,806.6909053189912,-109.8410334790676,607.5984678103655,631.5376004540219,842.4319844690001
2025-12-12 17:55:48.720516,Right,2417.9002470298137,4396.528713425523,4201.082529452369,4362.662442612373,-620.6133415828824,3289.399168249299,3417.3380782774816,4550.772467484643
2025-12-12 17:55:48.723518,Right,5597.155604150293,10126.21600852844,9670.582200121853,10056.712553686495,-1511.6924242728353,7593.6047346446885,7883.023853032723,10470.818991888977
2025-12-12 17:55:48.726469,Right,7099.805819876518,12743.665224717704,12155.000637747464,12680.327727467306,-2021.6843167964273,9591.146653585598,9944.117400416024,13157.005697521414
2025-12-12 17:55:48.731559,Right,4898.023575954503,8672.441147428235,8238.66847072218,8680.032367327884,-1425.1582188681637,6572.160053227242,6794.739103239499,8926.23516410607
2025-12-12 17:55:48.734563,Right,593.8665703401566,935.1587223625902,821.3468265034171,1033.3503217270336,-62.81932035642603,766.1052109496377,761.8791458404303,920.5744417149835
2025-12-12 17:55:48.738555,Right,-2701.1006897343104,-4912.853810719636,-4775.324495974186,-4763.908676973369,957.7797457177439,-3638.906147085261,-3807.430209907354,-5125.494559244558
2025-12-12 17:55:48.742573,Right,-3461.505786238282,-6282.958130095605,-6073.814002292405,-6136.2433161249355,1007.3630263326777,-4656.290141256686,-4859.672434712789,-6545.037664832344
2025-12-12 17:55:48.746638,Right,-2370.6777195830073,-4387.2358287195675,-4243.552930251259,-4268.333339837845,518.0524112230305,-3212.1178612319054,-3357.177096901549,-4577.817782622675
2025-12-12 17:55:48.750588,Right,-998.9201875186263,-1903.375850995537,-1859.661695800256,-1811.4967778151913,216.62609982469075,-1363.9230281818018,-1432.426650157955,-1988.0582611236896
2025-12-12 17:55:48.754652,Right,-352.668698778376,-654.8422616035095,-667.6473107255588,-580.5728313537838,207.73020422214177,-466.0822915394092,-494.6717490478186,-686.2422893428302
2025-12-12 17:55:48.759647,Right,-498.5365605561092,-917.1770809396112,-919.4110235599801,-848.5711211105809,197.82921911976882,-670.3712644060724,-707.1340380939946,-972.7448204233951
2025-12-12 17:55:48.762638,Right,-1016.6265941482561,-1934.774345922342,-1885.7114677472273,-1860.1242843809887,189.3530559492283,-1413.4710574607307,-1481.1061842082709,-2041.9650309834688
2025-12-12 17:55:48.766631,Right,-1425.8967608563253,-2674.893725394795,-2585.464035514422,-2594.2079609324574,354.3777154106865,-1975.167521885509,-2058.338818138087,-2800.1525988073554
2025-12-12 17:55:48.770601,Right,-1387.1251049253042,-2503.5753814650234,-2418.494083482772,-2432.1075277693453,503.12526379252813,-1882.2244822071516,-1949.4982431269018,-2607.4205696819117
2025-12-12 17:55:48.774654,Right,-947.9242082101409,-1677.7969666618737,-1626.5027627943782,-1627.548122948152,332.1473727575067,-1269.912639674294,-1311.240333025169,-1757.4925994864316
2025-12-12 17:55:48.778665,Right,-589.1244130439882,-1115.528079057578,-1083.5708075139555,-1078.9305370737566,47.55786434600304,-816.4793875595205,-850.7070558783307,-1190.1761280501378
2025-12-12 17:55:48.782617,Right,-700.2717979324225,-1353.0386219785432,-1306.6274063258315,-1314.2421065249946,100.06916762947367,-982.0967289212567,-1028.1998151818407,-1430.7927512041642
2025-12-12 17:55:48.787698,Right,-1036.081973455788,-1869.6502039900515,-1799.4798815372633,-1825.881293917715,390.75327420205576,-1395.899468886084,-1450.048894399195,-1943.5540407318622
2025-12-12 17:55:48.790708,Right,-1040.6827464303933,-1816.5973599729477,-1743.858437787916,-1778.004287597083,401.6281091660494,-1370.5770602701523,-1414.4528319152305,-1878.181834407791
2025-12-12 17:55:48.794725,Right,-676.1731934450509,-1225.3114177369862,-1166.5412206823821,-1196.7557037798688,95.18439227688214,-908.4470572860446,-932.7259046146064,-1269.143347815203
2025-12-12 17:55:48.798658,Right,-475.23832151311217,-917.4940896824119,-861.5105137166684,-892.7631666114903,-13.130129838573339,-672.4161248984165,-686.6108943787985,-943.7420811133343
2025-12-12 17:55:48.802744,Right,-695.4528613092843,-1240.9558145140763,-1169.1347877383232,-1216.491819326533,236.99333523885434,-944.5336132057128,-963.8141525316751,-1262.2932888704236
2025-12-12 17:55:48.806748,Right,-922.4059909315256,-1574.0168803590932,-1489.5351705743233,-1556.700183836103,376.8833289364775,-1212.3022873441805,-1238.8022581303958,-1607.3791571342736
2025-12-12 17:55:48.810755,Right,-751.3035766952089,-1323.2571713770158,-1246.495526332932,-1319.87180535082,149.52282981994358,-1005.0807459343923,-1025.7962649447145,-1367.9058226635098
2025-12-12 17:55:48.815762,Right,-418.73710969867534,-807.8570883583161,-748.0157668250613,-814.7551763549563,-51.392635753793,-604.8429392057005,-609.1088775106473,-844.402076622704
2025-12-12 17:55:48.818768,Right,-385.94942651770543,-702.083259707375,-646.1305007282645,-710.8291817171848,94.57852623469807,-546.535157979466,-541.7726400675019,-721.3631497553433
2025-12-12 17:55:48.821806,Right,-615.7397519172227,-1017.4552403366542,-949.5323066142737,-1025.4550789565546,283.17178041864827,-797.4337224572082,-799.8197827285621,-1035.1159601822728
2025-12-12 17:55:48.826816,Right,-701.0291337144154,-1186.6266726300237,-1108.5769449434592,-1195.6229876633151,170.84632952527318,-894.2437498776126,-905.850514877704,-1214.2223405893892
2025-12-12 17:55:48.830814,Right,-525.4266354577849,-950.4294518216047,-876.8013804003131,-959.7465395588079,-19.75593224036129,-682.8602513501828,-688.8942511279602,-970.8462988652172
2025-12-12 17:55:48.834831,Right,-357.31921713624615,-630.1301852012402,-569.2830955879763,-640.2778361904202,44.608774024985905,-460.7462546910974,-449.7432448414038,-626.4476773580536
2025-12-12 17:55:48.838832,Right,-363.23278364600264,-559.0741945867194,-505.67837215360487,-577.1006874656305,195.5478215033363,-455.7018582536257,-433.0809838331188,-550.7353547483799
2025-12-12 17:55:48.843857,Right,-421.1086325634096,-680.4141222924227,-623.81765930861,-711.9673078333726,122.18992571417766,-562.721068748011,-540.6868523723388,-699.6141490415321
2025-12-12 17:55:48.846859,Right,-410.2014952770842,-758.221002713195,-694.3141984773683,-798.1836490772548,-30.12921495569026,-604.480150753574,-584.8075875286595,-800.9600519002997
2025-12-12 17:55:48.849813,Right,-360.3483570256212,-676.8176233677077,-611.511382969562,-715.5910963777569,38.07189829534764,-538.975938819407,-513.5987661004765,-708.1433765663533
2025-12-12 17:55:48.854885,Right,-298.2695312521828,-477.2550858341856,-418.26498413889203,-511.98258049739525,186.43961706818664,-395.0056341930758,-360.0940878248366,-480.2935730290483
2025-12-12 17:55:48.858872,Right,-214.96083012691815,-307.8009771524812,-253.59437230534968,-340.9537328815204,104.87597751443536,-248.79964485342498,-209.07275079999818,-299.5261621113168
2025-12-12 17:55:48.862840,Right,-188.14926055065007,-334.7835736083798,-275.56783220451325,-366.7933594043716,-71.54173935186554,-241.4321958530345,-202.98323103619623,-332.9755577761098
2025-12-12 17:55:48.866906,Right,-285.88181650059414,-522.7690878151916,-454.6038638120517,-553.9733215456945,-2.792663348664064,-395.60937318971264,-360.7996284303081,-524.5526811865566
2025-12-12 17:55:48.870860,Right,-366.1283039530099,-577.9042609079916,-510.26264808530686,-613.8845171370194,193.82483049691655,-480.763768726174,-447.08006449989625,-577.585717584996
2025-12-12 17:55:48.874947,Right,-245.807723716076,-331.3656540923985,-274.8317528296611,-377.108774190594,135.0177267864492,-310.1960127688071,-270.7488793593657,-334.2613721550442
2025-12-12 17:55:48.877948,Right,-46.822669011715334,-61.814680055802455,-12.637386787682772,-112.81895758595783,-104.00011391326552,-86.10326722555328,-34.92850188686862,-70.03874171094503
2025-12-12 17:55:48.882927,Right,-55.68164448426978,-127.02937997938716,-72.78507641307078,-175.15613095177105,-98.15737580163477,-130.58866358574596,-70.23655313902418,-132.36391853087116
2025-12-12 17:55:48.886957,Right,-239.18350856746838,-382.30753076437395,-321.2285173907876,-428.1859868391184,147.00205142566483,-343.9854869674018,-285.4395944714488,-381.47424727655016
2025-12-12 17:55:48.890912,Right,-263.4201504243829,-370.5065657887317,-314.55346040369477,-421.15484130728873,186.36995471559567,-328.5136445448443,-283.50039179003215,-370.0878184110916
2025-12-12 17:55:48.894942,Right,-48.8289918727387,-52.69828370245523,-9.808543437480694,-109.04287145179114,-57.560624642123,-42.35726742743282,-18.5758882984519,-53.306398352375254
2025-12-12 17:55:48.897997,Right,81.95643811846094,119.51306650965125,156.5021697885677,63.096905833808705,-149.21812216590115,111.87413676545839,111.39598073485831,127.67202579442528
2025-12-12 17:55:48.901943,Right,-56.68307473923778,-65.40779832206317,-22.99231785691518,-120.87014318842557,66.36702295311625,-60.13467629216029,-80.76596013378003,-45.772993169986876
2025-12-12 17:55:48.906019,Right,-207.54975552193355,-254.88462790755148,-205.63977716914087,-313.12681473075645,184.52255694556152,-239.09960458788555,-266.4742436442466,-232.68070445852936
2025-12-12 17:55:48.910040,Right,-117.8416810529161,-131.69308233892662,-82.04935961535375,-190.05704922639416,-14.24880469551681,-132.87788658351928,-149.62922998087015,-107.37932647082198
2025-12-12 17:55:48.915047,Right,51.45583370026725,98.7528365359467,143.69618431845447,46.70980338443769,-169.21138979483476,70.34294000953378,72.04457108966017,137.38644993111666
2025-12-12 17:55:48.919052,Right,39.91511966256803,108.45980840973789,147.20830200404453,59.62457209477725,-11.090543175194398,72.02334575708664,82.12174421364034,162.6104203154755
2025-12-12 17:55:48.922998,Right,-70.76984497554804,-21.534890964881924,10.931100520559994,-77.42764306225581,150.9672046944197,-43.96596719972149,-42.780247708113166,29.91728300934483
2025-12-12 17:55:48.926013,Right,-49.01696971655474,-17.094366102086497,9.596892161876895,-83.25940957620332,15.177550447642716,-29.73814406243764,-43.37523082541156,18.48211345505115
2025-12-12 17:55:48.930074,Right,61.76057685097112,101.68359145196155,124.77272007631473,32.58390357405733,-159.54217229142068,74.80096409974067,54.10713190337992,132.5032215002975
2025-12-12 17:55:48.934035,Right,56.904746390300716,123.85523215896137,146.8951688365869,60.36826829709753,-52.633286797049095,73.26063418919148,52.50332412202988,168.1953997487285
2025-12-12 17:55:48.938103,Right,-31.115461822286306,64.35450588446781,88.50049834534366,7.285486429122102,118.27299431005667,5.779608816408654,-16.708380821033643,118.74623031591182
2025-12-12 17:55:48.942124,Right,-4.365187619641802,101.00080596387852,123.10396861561458,45.03136406265912,17.513446308710684,50.40922744869931,23.46294568844496,145.08760521802105
2025-12-12 17:55:48.947080,Right,117.57004206428292,207.13761565242748,223.66092926268902,149.12925391005683,-170.28909685637063,163.08791276170723,135.97217391720005,234.66996487174765
2025-12-12 17:55:48.951133,Right,138.76985300396518,211.21659104106948,221.47870104828326,151.94486336054433,-87.87902871289543,160.39836371345882,142.41576375682143,236.0679902595366
2025-12-12 17:55:48.954088,Right,61.177953607504605,147.3569530444729,152.34463162605243,87.40763673731999,116.53757500323445,76.50012151887859,73.27322156638911,178.5944793207018
2025-12-12 17:55:48.959154,Right,70.12178328347727,191.94692408996343,194.09692845518293,133.90217309069703,60.560915040294276,103.5837192263134,108.95675476612814,225.58463684240996
2025-12-12 17:55:48.963170,Right,165.22176836046856,301.74373026961985,305.48411643544387,253.0150166669482,-155.55466772508953,219.83734570389788,218.4483554689141,339.2485606606642
2025-12-12 17:55:48.966194,Right,154.2827104156313,271.68057563829643,278.9108829283796,235.0616422138337,-132.660271605846,215.57386361239332,196.6864323273403,321.2637709301198
2025-12-12 17:55:48.970189,Right,32.42943631854723,133.26824268150085,139.05151212254714,98.84912047440594,81.811113935506,91.72540715620562,57.959388752133236,188.44499382641516
2025-12-12 17:55:48.974172,Right,19.953092428768286,133.76411499115056,131.32237356028054,90.09439679415664,81.44784663316022,80.55139332560066,43.38387248237268,175.1494273711287
2025-12-12 17:55:48.978204,Right,163.25090688699856,298.252537164517,287.09893977903994,246.44119649815548,-139.7809100569175,222.85029053453763,193.23264481111255,321.5019955722091
2025-12-12 17:55:48.982227,Right,235.28662352914398,372.39750869051204,358.0598262763815,321.1566273612116,-175.30303304656627,283.32343499342096,264.31122778652934,393.4164317068935
2025-12-12 17:55:48.986227,Right,133.69477761283633,263.9866284946911,250.8408467755071,216.57023195156944,35.84418348891268,173.44108494620014,159.32509506857605,292.35792894265614
2025-12-12 17:55:48.991240,Right,55.350891946451156,189.6021496244939,177.2254276657477,143.5976173512172,96.18879208231374,103.96752935364202,88.46508331272344,217.00674966722727
2025-12-12 17:55:48.994253,Right,134.70901302465063,275.74508484391845,262.6189816382539,232.06443062488688,-108.85906403008994,194.2143629680504,178.4246694453759,297.2208149667131
2025-12-12 17:55:48.998244,Right,213.56760156531527,352.13968937745085,339.38261893723393,316.0294555638975,-201.0244411282947,269.4317287738668,258.8229435120011,379.52943296311423
2025-12-12 17:55:49.002260,Right,152.2580714309588,292.9120722186053,281.6427795243799,265.3640421224991,-18.739332986497175,203.31524907975108,199.95953328555333,335.34728012562846
2025-12-12 17:55:49.006312,Right,88.51813234075962,245.74391138617648,233.16492551143165,219.7132843429863,84.45347777380812,146.2548746462562,146.85657032538438,290.6545996715722
2025-12-12 17:55:49.010299,Right,164.3089647295128,328.2463107117219,310.58480573634733,297.3356531476311,-91.64638590361938,223.95632675473462,222.24311871515238,357.9138273911667
2025-12-12 17:55:49.014332,Right,249.25715160502295,392.1746891569055,369.86993643126334,358.71478167781606,-216.08194395795,295.01995655632345,285.7301800341811,409.6900444466737
2025-12-12 17:55:49.019356,Right,192.12349690624978,318.535683788039,293.63417601402034,287.2315886307042,-50.2258832497937,230.27346535288962,213.8174719887029,338.17967560098623
2025-12-12 17:55:49.022364,Right,119.06408669429948,269.15763634466566,240.47500689903973,238.85824513214175,98.3913187666476,175.51548192222253,157.49403994818567,290.6251893250155
2025-12-12 17:55:49.026307,Right,197.50297363073332,382.76685737865046,349.45149533901713,351.81992860275204,-50.64490232589378,276.4919891282043,261.0701701847138,396.5331159137422
2025-12-12 17:55:49.030382,Right,304.4451421320846,481.0100387514685,447.31853607849916,453.60009588865796,-221.0992493493104,376.8700799990038,362.74164934066357,490.65148793003755
2025-12-12 17:55:49.034391,Right,242.57126967803924,377.5617590532638,347.9776419752452,357.59041814529337,-92.76469862221711,291.46928456879687,275.51302831296925,395.5529131417279
2025-12-12 17:55:49.038403,Right,118.21527889088611,244.81627520883922,217.01996393472655,229.50052972516278,96.12509776706429,169.10105697839754,151.69624231851776,270.92585945891915
2025-12-12 17:55:49.042406,Right,162.14879204682074,328.4371965622413,296.51455087412614,313.5692372487392,-11.96930006358889,242.53564498884953,227.0484787497553,350.8520666565164
2025-12-12 17:55:49.047415,Right,302.5647760943102,495.1403496908606,458.4780175930937,481.49907966243336,-224.8262393170662,395.56091404735344,383.0716172713728,510.75629804941127
2025-12-12 17:55:49.050429,Right,283.9344478789135,450.7460083112237,414.6482433400233,439.91710985056125,-151.58657646173378,353.6075668230769,340.4021099496458,465.965390143625
2025-12-12 17:55:49.053454,Right,131.14454223788925,263.285399314831,230.5520250874688,251.9734712713398,72.59933323275618,177.2253123940318,159.88662237097742,276.1420401917421
2025-12-12 17:55:49.058384,Right,111.55291863734601,252.06949554820312,219.36536502779927,237.35731101967394,35.418333119829185,165.6879897485196,147.7183504026616,254.4659871091717
2025-12-12 17:55:49.062458,Right,256.79103108742856,431.14037780399667,395.79952407453675,417.74161216802895,-190.6220170797169,332.4230059205729,321.6383367483795,428.9690553183318
2025-12-12 17:55:49.066439,Right,308.75055984954815,492.0438658284256,457.1263441029005,486.6941196200787,-185.9597074045014,388.07427026570076,386.784316371195,501.0509323590086
2025-12-12 17:55:49.070497,Right,183.32916562858736,344.61180790356593,313.5578224690398,345.3109254066949,39.22570420869306,252.11104378846358,254.02552685915725,364.0345092752832
2025-12-12 17:55:49.075479,Right,113.38080895197345,256.05402554100147,227.01351556100417,254.6586828280706,71.49889077210537,176.73509180310066,175.30112125503365,267.98310921905795
2025-12-12 17:55:49.078534,Right,225.1259890041547,370.513547001814,340.197799875692,365.4010178943281,-135.34764074344275,288.02554944739677,284.45223775153863,370.07475971407257
2025-12-12 17:55:49.081554,Right,322.7097109773895,480.56186372594675,449.9619779859786,478.51774986454984,-182.85768786186964,382.8164753410965,383.22073837692733,485.25070019386476
2025-12-12 17:55:49.086508,Right,252.99598072643857,420.32124556659255,392.5231954893097,424.5856222618604,23.233494699270523,312.9070662393351,319.3850695824076,440.2514812956215
2025-12-12 17:55:49.090529,Right,165.04025753977476,332.8916101977811,307.7406400460168,337.49347784667043,102.00483752111904,227.57792456739116,235.5691277217702,351.6700181592605
2025-12-12 17:55:49.094559,Right,209.78084468326415,363.73941374965943,338.360394402931,362.8573619608069,-84.79008193188929,264.2028145964723,268.1882409596874,362.78214419900905
2025-12-12 17:55:49.098549,Right,269.3738244223641,404.0281014171196,376.9708683009958,399.6352684223093,-177.21116216061637,306.4849728393601,304.99198463739594,389.2471613283269
2025-12-12 17:55:49.102581,Right,207.7370503685088,343.1832607134129,314.99038890068186,339.9578832408297,2.145430375399883,243.78477577382,240.3399226508336,331.8758898099768
2025-12-12 17:55:49.105635,Right,135.35313678489183,294.54414901626296,265.97754160151817,294.0842963422183,115.03471763705602,194.4086567235645,195.2885657248553,290.03069874393987
2025-12-12 17:55:49.109633,Right,183.70275291934377,352.74519505060744,324.9879065247951,355.58016820962075,-52.803354127427156,258.89767193899024,267.35089231899474,348.58002739259973
2025-12-12 17:55:49.113583,Right,240.33948144046008,383.0285545034567,357.830689613882,389.6563596703927,-184.75683590429253,298.8846470962744,313.0532754911692,380.55332792102126
2025-12-12 17:55:49.118629,Right,167.619837037666,284.1209007561556,261.5044608549797,291.33648059365805,-28.054962919355603,196.74641579168383,214.18795311142458,287.42804910161067
2025-12-12 17:55:49.122630,Right,86.52958719540038,219.22703724040184,196.7657949301065,221.8553930252674,126.30794468006206,110.53716335783247,129.5669054283062,220.98200504214037
2025-12-12 17:55:49.126638,Right,161.13450159184868,327.41377326619113,304.27641424234025,326.92902931326535,-13.560453432510258,203.40582102438202,220.0857790366863,318.59528083750047
2025-12-12 17:55:49.129659,Right,273.76264895824715,433.4968375094468,413.0369648459018,438.2332270104089,-187.76535013403918,323.99523589533055,333.77846393868094,421.14124909887323
2025-12-12 17:55:49.133607,Right,221.1495408823539,338.12357985111885,322.9994139256887,351.5008421546663,-64.64728925481177,260.02125860971864,262.4924170623999,335.70132964942604
2025-12-12 17:55:49.137665,Right,91.82396062838961,191.03814191668062,177.89669173280708,206.67121242301073,136.25357224605978,128.14977204584284,126.58311832003528,196.85385831800522
2025-12-12 17:55:49.141625,Right,116.85449582137517,243.3130748613039,226.33367912756512,254.96628858096665,46.67387901201437,169.53954183339374,167.27687328285538,245.044191060937
2025-12-12 17:55:49.146689,Right,247.60196181194624,395.9872944703093,374.5284482399584,405.8088816849631,-165.54664269339264,306.4733019696432,305.62504920642823,391.9687093165703
2025-12-12 17:55:49.150695,Right,237.4338372600905,366.7548733080039,345.42950784391724,380.2776099469047,-106.45185399347247,278.86270374810556,279.62304740567924,366.1434377390542
2025-12-12 17:55:49.154732,Right,91.10779150834423,192.44222244684352,173.5539305123384,210.55272676522145,113.22890836172155,121.30680822423892,121.90426849934738,196.49770676298067
2025-12-12 17:55:49.157713,Right,61.14453050514567,164.47092809597962,144.85102132806787,184.91279564943397,86.17721191993041,106.5013975452166,105.89820926316315,164.86494001513347
2025-12-12 17:55:49.161747,Right,191.51602020935388,310.7499507468892,287.84476185025414,334.611213615397,-133.51478652483638,254.55667058890685,253.63581820833497,308.06638728186954
2025-12-12 17:55:49.165743,Right,239.45112970352056,354.88008056860417,331.58441235875944,385.9085546102724,-133.8670630328561,300.4968268031371,299.43573465250665,361.72298475768184
2025-12-12 17:55:49.169768,Right,115.47602771560196,213.620959575288,193.5708133901353,251.14719417743618,86.87015070623602,170.42458019719925,167.0532785783871,232.808159473876
2025-12-12 17:55:49.174768,Right,35.456791105651064,127.56694072159007,109.34685071674176,166.0521431339439,120.07837588321854,97.55332493659807,89.58329794707242,144.12599046697142
2025-12-12 17:55:49.178796,Right,118.05544196636765,212.24393056554254,192.39843682426726,249.62812019209377,-90.56755888465705,187.569828928099,175.49810345462174,217.40048173826654
2025-12-12 17:55:49.182730,Right,181.9216513146239,270.08431882219156,247.6113927786355,308.75429863273166,-148.67479032176198,243.53205167286796,229.95300354866777,273.8273171928013
2025-12-12 17:55:49.185747,Right,102.08089588891016,182.8539535709424,157.41861830750713,221.36370932485443,51.749024857606855,152.38749675574945,138.6202450392011,191.6397233674652
2025-12-12 17:55:49.189817,Right,38.840418130508624,124.0488067563274,95.31363093241816,159.0954867848195,131.905848222872,93.59067756863078,78.4864970727649,129.15656211716123
2025-12-12 17:55:49.193823,Right,121.13239007929224,209.58827886352083,179.74396234791493,244.5055378738325,-58.257590975677886,186.9733788492449,169.0619821381697,207.03370866714977
2025-12-12 17:55:49.197840,Right,198.31397892421228,271.59809326485265,243.09692284913035,310.68175590987084,-158.1903981632131,257.8292908632138,236.68726087649702,270.38075516099343
2025-12-12 17:55:49.201835,Right,126.27960937118041,182.18650429078843,153.2065724824788,220.85679625562625,25.965690532993904,166.539404290932,142.627005237533,184.91867239488056
2025-12-12 17:55:49.206898,Right,42.26752219491755,103.58066566457273,70.21952832699753,135.38915565807838,155.601747797813,76.39572973377653,52.23964639281621,99.17437677120324
2025-12-12 17:55:49.210874,Right,107.83061416415148,183.61895819281926,146.30464939645026,213.1654626147356,-7.429054516727774,150.09968518649112,129.60718131583417,168.40737162338337
2025-12-12 17:55:49.214007,Right,203.07785587394028,270.5951877902262,234.27707426500274,309.1042725874577,-153.99451368705923,245.64448223667569,229.36721230880357,259.67845902382396
2025-12-12 17:55:49.217897,Right,150.19059497010312,193.5871800078312,160.82761318495614,242.72414712968748,-5.2791056973037485,183.6058366407815,166.7678226486023,198.82746627443703
2025-12-12 17:55:49.221921,Right,49.11907512397738,87.56064183352282,55.41660711428267,137.175125195703,164.9525353992285,84.54505456914194,60.90442629120662,98.39071607444203
2025-12-12 17:55:49.225934,Right,93.0776378401788,147.25020549312467,112.83965066150995,190.257423789124,41.6968881515204,142.41663377609802,109.99330431243288,148.19314923061756
2025-12-12 17:55:49.229926,Right,202.45666835599695,259.5191492851591,225.208415921079,300.3000728242332,-141.71931636174122,254.48324468531064,218.37324966173037,255.52444761642255
2025-12-12 17:55:49.233946,Right,164.26545453772997,203.53502340603154,173.36696904691053,248.2698158468702,-39.20238230662653,204.33681696027634,172.08773514057975,209.89098597379052
2025-12-12 17:55:49.238941,Right,29.38130255349097,59.70030047491309,32.77681424151524,105.7646955420496,160.98396525163116,66.13210253111902,39.88613843472558,74.1093728049891
2025-12-12 17:55:49.241958,Right,27.672840877552517,68.06527113486663,39.8314921905112,109.07723603048362,87.68186947716822,74.81883237560396,50.596514258970274,73.9645406123309
2025-12-12 17:55:49.245936,Right,148.86040483688703,191.10668059781892,160.5179985773866,227.09585829329444,-120.07534068536916,196.30649292230373,169.96753805532353,185.90048992514494
2025-12-12 17:55:49.249984,Right,163.55832939088577,187.7513013878488,158.57444949055207,223.12614350405056,-74.06550191208953,193.73868400181527,165.1061177784577,185.88063669617986
2025-12-12 17:55:49.253957,Right,41.75783580713323,54.32608152003377,29.36723141805851,90.04793295112904,136.95090945521588,61.82252029486699,34.061331867356785,62.072906063869596
2025-12-12 17:55:49.258030,Right,-6.637784614867996,14.782673943118425,-6.60048503021244,49.76748871160089,114.17637074673985,22.74168997129891,-0.5652424278086983,23.13394414432696
2025-12-12 17:55:49.263035,Right,70.7407608384674,96.45718488455168,78.129623045068,132.93805215967586,-104.47523436659685,106.25239378417609,88.88676149453386,101.53224225123995
2025-12-12 17:55:49.266024,Right,83.20681137935026,93.02584856413887,78.72622283466626,132.95854482537834,-115.49214951394242,106.50880266763852,93.70580118120415,102.90702199967927
2025-12-12 17:55:49.269022,Right,-25.442543138560723,-26.143969540920807,-37.36737724742852,12.231319712096592,94.75203984854306,-12.636700658098562,-24.193011638097232,-10.782196721469518
2025-12-12 17:55:49.273989,Right,-60.04973863021587,-47.02867730206344,-58.52341162165976,-17.850412085535936,124.70386001405859,-40.31238975128508,-53.631642691092566,-39.31409789453028
2025-12-12 17:55:49.278068,Right,52.77871431397216,76.77078395988792,64.12703596209758,96.82728556645452,-89.58972585515949,77.41731841562432,61.70354954517097,71.87475822202396
2025-12-12 17:55:49.282060,Right,109.34512162559258,115.4088167095033,104.66429451276781,133.1611595444847,-153.12524670006314,119.57543049578089,102.90515866107307,111.23799145384692
2025-12-12 17:55:49.286098,Right,-1.2917797630216228,-17.572855758684454,-24.94957806885941,0.571941032569157,49.032985037640174,-4.764935428160243,-21.29328969740891,-11.704908200452337
2025-12-12 17:55:49.290111,Right,-87.88471846107859,-96.61492011597147,-103.86324699674151,-81.66901863724343,134.81835184576994,-81.27529963853885,-98.27788655948825,-90.63767402688973
2025-12-12 17:55:49.294048,Right,-5.917883155751042,6.0213576725218445,-4.03863339140662,16.87668775091879,-61.31158149561452,17.706714020459913,-0.47963102444191463,2.0142576035286766
2025-12-12 17:55:49.297065,Right,76.77769663091749,83.4392902746913,72.58649205046822,94.85945428113337,-177.04202604522652,94.86004593435791,76.67536131822271,77.27480001907679
2025-12-12 17:55:49.301121,Right,-7.323795062009594,-25.279676469072,-33.593051386968,-11.05977723147953,2.9275175905386277,-8.433725081806188,-24.606733578068088,-23.09348178745131
2025-12-12 17:55:49.306149,Right,-111.282191561535,-134.30821149125404,-140.94389038828376,-120.96623112770612,144.68552362396076,-114.55738284267136,-128.17147811860195,-129.7602320536389
2025-12-12 17:55:49.310159,Right,-41.411863919740426,-47.15466220692906,-55.30970061896369,-37.59861103040748,-12.733951194113615,-31.8499418371066,-43.69855381389789,-50.7904515992559
2025-12-12 17:55:49.314102,Right,86.22783567479928,85.47836450027535,75.64444487220317,93.02623049882823,-171.6692025273187,95.03782607360336,84.49055805509852,78.08049690083135
2025-12-12 17:55:49.318171,Right,57.31742618528369,39.999557840812486,31.006013549558702,47.12009435711661,-32.46566210575111,50.198667231583386,41.12858534276893,39.061213723616675
2025-12-12 17:55:49.322197,Right,-53.8258366574446,-81.0857169355586,-88.7357540964731,-76.25672072780435,147.7672189048826,-65.20783554328955,-72.9997701519751,-79.45797601653612
2025-12-12 17:55:49.325202,Right,-33.587426716825576,-52.77975417023117,-61.220001179463,-51.19225395326794,36.321468931402705,-33.69831126129429,-40.35722836772038,-59.96741535469482
2025-12-12 17:55:49.329212,Right,70.15646137317526,54.57829551768373,44.58922410591913,56.02299816337472,-154.79944496557619,71.2651842393825,67.04454953235108,40.44439489116485
2025-12-12 17:55:49.334214,Right,41.599015937747026,15.362914416691638,5.837350932350091,19.18115358031355,-67.10897185266549,28.396736028138548,27.831423745577922,5.633804922319541
2025-12-12 17:55:49.338221,Right,-95.00680856833787,-126.08987620421976,-133.4276739865818,-122.02194067534583,134.77352237320702,-112.72919893795915,-110.91276748110249,-131.48283098230604
2025-12-12 17:55:49.342228,Right,-116.16721149054501,-138.87146890955046,-144.24374187984358,-136.87454552376585,73.37632931963344,-120.4040238649468,-118.33851322752889,-149.78355704629212
2025-12-12 17:55:49.346258,Right,-8.458173106351751,-30.911623845837312,-34.835448109850404,-28.89200157605228,-135.07480124654285,-5.923977670492604,-3.561192322289571,-46.40181522616331
2025-12-12 17:55:49.349254,Right,18.992542208776285,-18.3465946510114,-21.234207537632756,-14.155633056347142,-99.84806938613838,9.203005876108364,13.75834465882508,-27.456210822248977
2025-12-12 17:55:49.353302,Right,-68.03972958005761,-111.22497840573487,-114.78352283875938,-107.38036098466546,112.49807198963208,-87.70930828865676,-80.05242402895237,-114.52511699164461
2025-12-12 17:55:49.357339,Right,-74.08944121250533,-105.17319035747641,-111.1071207871355,-103.84410892070446,104.76830159016208,-87.05854194765561,-77.77855271503358,-115.6376133771214
2025-12-12 17:55:49.362306,Right,41.315302964485454,12.898481469565013,5.84390261189219,15.38112632195407,-104.67447210892169,32.168230983559624,41.15213434137695,-7.1836061710992
2025-12-12 17:55:49.366306,Right,74.20878905821155,25.765712589514806,20.429924212186506,33.11383168631437,-115.9579103533797,50.91316022037063,59.986490962968674,8.266074821738584
2025-12-12 17:55:49.370342,Right,-43.27397673709493,-104.1901415243783,-107.76458248634617,-95.52488835730037,100.79575099423164,-78.70347234166184,-67.22113736208848,-114.95735407644679
2025-12-12 17:55:49.374339,Right,-109.90049682698555,-154.28522985420273,-158.46731298152736,-149.65451265145384,145.68536480776038,-136.13356107538493,-120.71523871761747,-169.63842199949067
2025-12-12 17:55:49.377425,Right,-26.619555486415265,-54.47190677373055,-59.094779545146594,-51.633016985120776,-63.82203618139556,-40.25109119256922,-21.350989066741022,-79.56428324870649
2025-12-12 17:55:49.381368,Right,22.175465866392187,-19.751366478785712,-21.564654351161153,-12.38663627931237,-136.70751613804805,1.6404371986700426,22.40310370405132,-43.140662903482735
2025-12-12 17:55:49.385361,Right,-79.3297736930408,-143.40610399245998,-141.74211298460432,-132.02916960444054,61.96048622912258,-112.4951057971025,-91.78212189061742,-157.95873951195244
2025-12-12 17:55:49.389349,Right,-152.34464646150894,-210.16106808311088,-209.27181116286374,-201.7430158924326,158.8481536229956,-180.450457565933,-161.19613293158181,-227.40875010061427
2025-12-12 17:55:49.394396,Right,-54.03095382932224,-91.20536657602497,-94.57051531319303,-88.11159167759843,-29.463380110948492,-71.16796774386421,-53.41594352032371,-122.13699991107569
2025-12-12 17:55:49.398413,Right,47.8613919472009,6.829323293583002,1.2943191013036994,9.872917441311984,-152.26611888084108,22.372172752420738,39.72437104371056,-29.65330059394182
2025-12-12 17:55:49.402407,Right,-24.12644632754018,-88.2950881434299,-92.05938084951049,-81.44088358549016,20.932437034232407,-67.64266710912852,-49.760973910849316,-118.13488055592461
2025-12-12 17:55:49.405488,Right,-131.88604583224878,-200.2216675317395,-201.98594911580585,-191.638016934181,169.2445743198889,-173.92241896088672,-155.48545741177713,-227.3320689645916
2025-12-12 17:55:49.409372,Right,-77.5848413192507,-127.9980635100801,-129.96008331362827,-119.40387289380305,18.399199562770036,-102.23710367657623,-83.52802395557683,-161.72270566952648
2025-12-12 17:55:49.413443,Right,31.17687662561002,-13.248172699437418,-15.737636056524934,-2.5454387727768335,-148.47129420678232,10.016011133688153,29.048722840228947,-49.19810006330954
2025-12-12 17:55:49.417502,Right,-17.406330759764387,-76.05990204297996,-77.96348979712639,-62.80582568528189,-20.428379078264754,-51.26179207653331,-32.09029780847959,-104.55667339164938
2025-12-12 17:55:49.422489,Right,-147.9081143451731,-212.49294020560046,-214.2114341432607,-200.30908001220087,161.49302158526473,-183.12694532788737,-164.89842370364022,-237.22877203887037
2025-12-12 17:55:49.426438,Right,-138.60131699033082,-191.31963948192424,-193.81978147399786,-181.52277208778105,56.45487529927277,-158.2683798443104,-141.6394410822213,-221.94017994849128
2025-12-12 17:55:49.430514,Right,-25.938002379589307,-74.03389798695571,-75.78385364465066,-62.35188624149305,-139.14889016336838,-38.99414029721083,-22.40330399786035,-106.1543261269835
2025-12-12 17:55:49.433508,Right,-24.918881074343517,-84.96472047707357,-83.14997838679119,-68.38716645500244,-60.181593468488245,-49.35349744978885,-30.46596985024007,-106.12782263706322
2025-12-12 17:55:49.437588,Right,-125.78391994937556,-190.48462950943212,-185.1626222250634,-172.3696958985165,144.19932478430246,-156.69312939023075,-135.67917398512145,-202.750345185661
2025-12-12 17:55:49.441552,Right,-123.24914061644813,-176.0412808740075,-170.07671073240635,-160.1076821070892,90.39862051544287,-145.4108247707627,-124.77119975768437,-193.63406441974803
2025-12-12 17:55:49.445585,Right,-14.105376116633124,-63.28609483205946,-58.14486135341576,-47.43288702896098,-121.71204414687463,-33.32556089563877,-14.481730375380721,-88.90861399279675
2025-12-12 17:55:49.449513,Right,-7.314179350963968,-72.16981559970009,-66.77740824867215,-53.38282988360152,-95.93736841189093,-39.513079431359074,-21.605563791745226,-94.83663437879295
2025-12-12 17:55:49.454583,Right,-125.67553243384464,-198.6865639138705,-192.49984829546884,-179.8189913201204,119.20414100344715,-164.59331720722548,-146.6673372399382,-216.10894733393798
2025-12-12 17:55:49.457612,Right,-151.9511124060955,-209.73847175767878,-203.62364341404464,-195.45826430848683,122.41823127913813,-178.6564915296767,-161.00971944526827,-233.32710852462333
2025-12-12 17:55:49.461616,Right,-28.50450222598738,-74.17796014808118,-67.63329276630247,-63.2209889270307,-88.23113135404765,-46.80004542108509,-29.80062933635054,-107.57222624207498
2025-12-12 17:55:49.465661,Right,33.67954085760721,-24.626375935971737,-15.416576528557925,-12.377574057725724,-111.62695185665325,2.4335056793497643,19.055335530378215,-56.16133225610247
2025-12-12 17:55:49.469654,Right,-57.387252040804015,-129.8518173166667,-117.6583499234257,-116.44026453331753,104.01072052020572,-102.42046640675107,-86.3061095924786,-153.39727181650233
2025-12-12 17:55:49.473627,Right,-110.98895748861833,-173.5194499885838,-161.02491603794624,-162.7994893109426,161.4106171751073,-149.04618366966315,-133.73619471026177,-199.25229291804135
2025-12-12 17:55:49.477629,Right,-16.082749005392543,-63.881221044197446,-52.64356413969654,-55.795953013177495,-44.148001560909506,-43.742376584530575,-27.602368163374194,-99.25389137180173
2025-12-12 17:55:49.482601,Right,49.094674467502045,-7.736634791246615,4.299525731243193,1.6409961552853929,-128.28478055411597,10.990933111708728,31.146542920629145,-43.69208995150984
2025-12-12 17:55:49.486651,Right,-48.78034736143309,-123.36279356043087,-108.40646592635312,-112.08531452927855,65.42876312094631,-103.38544548694335,-78.02521854332008,-150.61477167037083
2025-12-12 17:55:49.489583,Right,-143.93987057219783,-213.91383070111624,-197.37555339810206,-204.20813644508598,174.5081334433089,-193.0565852382715,-164.6349602460832,-238.64717337620095
2025-12-12 17:55:49.493640,Right,-74.06985966596403,-126.8037608001614,-111.01746829145122,-119.48305109218927,-3.916786955358475,-104.98569857406255,-76.1387528358755,-156.89285259370808
2025-12-12 17:55:49.497660,Right,20.58236213082273,-34.03759410663042,-18.565379045525333,-26.222533368476434,-134.11280252576216,-8.732262254066882,20.043573684131843,-62.6448361503717
2025-12-12 17:55:49.501683,Right,-40.231226953008445,-110.81015947589185,-94.0702169823926,-103.0123848291405,29.191446909639126,-82.28707042291353,-52.54965787185938,-129.33065659340355
2025-12-12 17:55:49.505701,Right,-141.48635222045414,-210.66694210862624,-193.3969222313899,-208.14741378228064,180.78333054392897,-184.8559681144543,-153.6087390230532,-226.58835335774347
2025-12-12 17:55:49.510709,Right,-91.35984947974794,-143.18844032016932,-127.1227373900474,-147.59612659952836,35.265547816357866,-123.28140124650963,-91.51584816034301,-167.91660649812547
2025-12-12 17:55:49.513716,Right,17.10579671859159,-32.54428049203125,-17.129282252601115,-38.606166445912095,-138.5674446640478,-12.287480728395167,17.968583612484508,-60.99177030756255
2025-12-12 17:55:49.516678,Right,-21.367397209673072,-86.01494654110866,-69.58942592309904,-89.57333018793724,-19.239547689272513,-58.21480133879231,-30.82126350721228,-106.09046172269154
2025-12-12 17:55:49.521735,Right,-141.44224241342454,-207.40548768025474,-190.58644103471306,-210.70354612759547,167.22314270297647,-174.30779348904616,-149.0399267781322,-221.97882116556866
2025-12-12 17:55:49.525744,Right,-129.2151054903661,-177.46530071963207,-162.01275049801916,-183.1378421926347,70.4279740453403,-146.51742862458923,-120.37519336190599,-197.95226576921414
2025-12-12 17:55:49.529706,Right,-19.676510593330022,-62.132577017793665,-47.129032204829855,-67.83083526600967,-129.49357653665902,-36.051589226553915,-5.035316961089848,-85.8541969708458
2025-12-12 17:55:49.533760,Right,-26.873596334131435,-84.89202874424518,-67.77281421897351,-88.17863218928687,-59.835395778009115,-61.269471836829325,-23.695891072798986,-99.13308057092945
2025-12-12 17:55:49.537801,Right,-139.15874211725895,-203.636473319988,-184.75544529105537,-207.1419837945723,146.61826457153984,-180.76267387866392,-139.788159832955,-209.6548992372118
2025-12-12 17:55:49.541796,Right,-139.83456541881606,-187.8912656281027,-170.22347792814253,-194.60666119816597,99.75274933952642,-165.6289953509695,-126.43902440254169,-200.40658298964263
2025-12-12 17:55:49.544813,Right,-16.669539736190927,-54.99571277847281,-39.15067186928354,-62.29234037655988,-117.40916113118328,-31.346095071028685,4.1138181230198825,-77.35924519228865
2025-12-12 17:55:49.549836,Right,7.704616697621532,-46.73352145089302,-30.058459109510295,-50.331295471056364,-102.63691344367362,-19.269520745117916,14.5260024103045,-66.49807428033091
2025-12-12 17:55:49.553830,Right,-112.22068015196419,-181.93938042898662,-163.31383292851388,-183.13997997762635,114.195394950033,-153.82773162430385,-119.12784828046279,-194.25645499443635
2025-12-12 17:55:49.557782,Right,-156.12694313767133,-216.04035588618717,-197.7879059840052,-219.4269400757039,127.10446362595394,-195.09966128569795,-158.58526431507198,-231.77588076112443
2025-12-12 17:55:49.561856,Right,-43.622732187170186,-89.78468370262999,-73.35045499893022,-95.38282158813672,-87.20835262971013,-78.46301558052073,-40.35834647301817,-113.97578301705653
2025-12-12 17:55:49.565865,Right,15.141193667863263,-39.40513900583028,-22.72776543762302,-42.88573908089893,-126.57744899896352,-29.904748632747214,8.38586993253557,-60.40866248859675
2025-12-12 17:55:49.569895,Right,-94.69804025317717,-163.09822796363733,-144.26939740471425,-162.91012242331635,83.45097862649527,-146.25382151306258,-111.02808866889973,-172.52060306814383
2025-12-12 17:55:49.572895,Right,-185.05377793041407,-246.04263849163544,-226.44074310924043,-244.38935612287605,149.27101686038804,-221.22641621364164,-191.8955284091644,-252.30040918305167
2025-12-12 17:55:49.577828,Right,-116.03279452231072,-161.67624870236614,-143.32135254022432,-158.43106386900763,-55.273900637861516,-133.39259160219808,-108.15554495212564,-172.54501158813946
2025-12-12 17:55:49.581918,Right,-45.08425803054706,-94.75650215672795,-77.35042798591894,-86.99204181518871,-152.2985261659178,-64.98977156128967,-37.916789714756305,-103.13268025324214
2025-12-12 17:55:49.585934,Right,-115.62242377523216,-178.46436800723313,-161.3870958830521,-167.0492526074231,35.69710343506813,-148.12508100402192,-115.93326824928226,-178.70610449759988
2025-12-12 17:55:49.589924,Right,-182.1668038826756,-239.9888156611123,-224.62488380642026,-229.78916764829773,156.56667643787478,-211.52074574309518,-177.7584265677142,-242.3021800844872
2025-12-12 17:55:49.593956,Right,-90.63180932523392,-133.42504521098454,-120.78437947356724,-125.48719954502303,-12.272447791950981,-106.62465220622835,-77.01316315597796,-146.70656772964867
2025-12-12 17:55:49.597895,Right,19.12331093531975,-26.906618113600416,-15.077687114360742,-17.049220854300074,-150.01301026900546,2.2605110972654074,26.372589559890912,-41.26638381957309
2025-12-12 17:55:49.602987,Right,-36.13494811016426,-97.87830568931531,-84.68784705887083,-84.43922106796526,4.094456467855707,-65.05845706531545,-43.829600834142184,-100.53904585013515
2025-12-12 17:55:49.605971,Right,-144.87977462848357,-205.18210833857302,-191.7276852107898,-191.65140948613407,161.6631643795099,-172.84509928885382,-152.48383345284674,-202.03361570401466
2025-12-12 17:55:49.609974,Right,-108.79131561028771,-153.04346184342285,-141.77829766328796,-141.15018545405474,25.91430006616247,-124.04517876761383,-104.01228595722932,-157.18579383200267
2025-12-12 17:55:49.614011,Right,-9.461971154247294,-53.444909639365505,-44.151290019071894,-40.00328237758367,-151.154045362131,-24.899120863934513,-4.074495163615211,-62.06086627498735
2025-12-12 17:55:49.617945,Right,-49.462807830554084,-109.38288022717461,-100.08498746278929,-92.95954193803482,-39.379186397463855,-78.56751968231401,-55.936051206241245,-110.72774964815471
2025-12-12 17:55:49.620970,Right,-166.8614964960725,-227.01199019662454,-217.75884784435038,-212.02708159619942,151.22081874279684,-197.92681634720066,-174.83859352621948,-223.363420037349
2025-12-12 17:55:49.625042,Right,-145.52055688817927,-185.56355382379843,-177.79755976289744,-175.63806666681194,62.276085090221386,-163.67450740473578,-142.91699467465514,-189.10707775273477
2025-12-12 17:55:49.629035,Right,-17.55799345181731,-50.468825438962085,-43.26572778870468,-42.37537681867252,-142.50779782404243,-32.35371269832831,-15.032399326984887,-60.02610285082483
2025-12-12 17:55:49.633053,Right,-6.86700768933224,-56.51554981499794,-47.31587811210193,-45.64892240107292,-82.5684262622126,-32.58212320817984,-17.51182443095604,-59.066950468637515
2025-12-12 17:55:49.638051,Right,-116.48785666022741,-174.6219117269211,-163.59966923389584,-162.20228668150958,128.2503991376052,-142.00699699408142,-127.81945039151469,-168.94259293487994
2025-12-12 17:55:49.642072,Right,-129.1327269084868,-170.48708076763432,-160.254437593685,-159.87588166660862,94.27942874054315,-135.3518946605327,-121.3115455093648,-168.69413815802545
2025-12-12 17:55:49.646087,Right,-17.524222284104326,-45.383433345967205,-36.07614240347175,-35.47442206018604,-122.65587360920654,-13.362729356682394,1.493684504646808,-50.363372448657174
2025-12-12 17:55:49.649088,Right,7.105870239058277,-31.958273341268068,-20.472268749726936,-20.026917094859527,-119.15803159965617,-3.6204915748385247,12.878821327729383,-33.22455312096281
2025-12-12 17:55:49.653098,Right,-101.60212901410705,-152.2983593129029,-137.24955683373264,-140.21620709696435,95.88988641483593,-128.01758644057554,-110.29624540559598,-147.15231460987707
2025-12-12 17:55:49.657102,Right,-131.12473676398804,-169.58879275494837,-153.43430847444688,-161.585331049253,119.08484529099223,-153.25470217500697,-135.3752299665939,-169.53964372019982
2025-12-12 17:55:49.661125,Right,-8.150455496754148,-30.910091839381494,-15.762163371196948,-26.74231973302085,-92.04402335612576,-25.28650099306833,-7.428237933840137,-40.91799393258407
2025-12-12 17:55:49.665136,Right,54.325193803961156,23.962896164506674,39.13022020025528,28.449335888464702,-139.12882561501647,23.660821088415105,42.21356377565826,15.354323302337434
2025-12-12 17:55:49.669099,Right,-55.46448748980765,-100.59250257199164,-84.39756287433556,-94.45256735986914,71.58715281709556,-98.6551599855884,-79.13470706810767,-99.92834898742149
2025-12-12 17:55:49.674171,Right,-139.18164278836048,-178.01295775809558,-162.3011779510707,-172.53100178338354,152.5814968900686,-172.75485812177067,-153.07197416591225,-177.6531632358383
2025-12-12 17:55:49.677203,Right,-48.859532049973495,-72.3392376298143,-58.21720192176872,-67.23820116507704,-41.48997099076587,-68.13913677018718,-49.28840653167572,-80.87022262287792
2025-12-12 17:55:49.681214,Right,47.20443082365091,19.814348041487392,34.182776498026215,28.487719383032527,-142.40867480278393,23.360299391351873,41.439012513976195,12.36842380251619
2025-12-12 17:55:49.685205,Right,-19.05182474835601,-60.19801529290271,-43.89324186311569,-47.246112399268895,43.43761896918113,-53.344088557496434,-34.6978105862363,-54.243247303995304
2025-12-12 17:55:49.689292,Right,-109.58550676441519,-145.2633482737001,-128.9588409695134,-132.72275245506899,173.9647193282217,-136.79116859985515,-115.49557816235756,-132.39656402837136
2025-12-12 17:55:49.693225,Right,-47.53424132037617,-65.42929325447767,-52.13579704228323,-56.432061699655605,11.516134103292643,-62.08048553401022,-36.44630830451206,-59.563028171425685
2025-12-12 17:55:49.698243,Right,51.44969277003838,33.09642479149625,43.62177876365604,40.60125369799789,-133.92935079584095,29.62400042041554,58.10092681595415,32.53132737017586
2025-12-12 17:55:49.702260,Right,2.571612611893215,-31.387784967024345,-21.37842108195764,-23.50848432467319,13.667663637255828,-34.62895583326463,-9.485082719183993,-29.18321515840944
2025-12-12 17:55:49.705265,Right,-95.17645674484083,-128.84385829244275,-118.91458575459546,-122.78363163207541,179.53378579017954,-125.4397877586598,-110.35985608205374,-125.23959212843329
2025-12-12 17:55:49.709263,Right,-44.18232509367226,-60.97294861348928,-51.641842403798364,-58.71235805458855,52.93998944503437,-52.803391763562104,-49.20248608318798,-63.908737704507075
2025-12-12 17:55:49.713278,Right,73.48804052791093,59.14870375744067,69.57910988852382,59.738260241865646,-130.23983907942238,67.17529365350492,64.62693399169075,53.25227377953706
2025-12-12 17:55:49.717277,Right,39.19181055756053,8.966240340087097,22.88525764021324,10.049825852707727,-28.228720317096304,14.224254714645213,14.031111703108763,11.770808792120079
2025-12-12 17:55:49.721330,Right,-97.28983100155892,-130.09170454301056,-113.56560598214855,-130.3340642163821,166.59033421413733,-130.0672120457457,-122.04647182999179,-118.74423077114625
2025-12-12 17:55:49.725322,Right,-104.90835949277971,-118.73238742214744,-102.71489301053225,-121.66567516812938,86.50202040772456,-124.35736270749476,-108.64115362041048,-110.8194681838504
2025-12-12 17:55:49.730271,Right,9.287691760458983,4.377741428994341,19.08636023121653,1.9280361580313183,-123.72638365457897,-0.7673431011062348,16.874747957859654,5.432719291216927
2025-12-12 17:55:49.733279,Right,24.747162588464562,4.982962327921996,20.05103978383704,5.455634681187803,-76.28647916618866,7.006199890369317,19.759857231358183,8.382984282652615
2025-12-12 17:55:49.736349,Right,-76.6393110746867,-105.67229206106276,-90.20589655614458,-105.80853508415748,136.1126022588578,-100.08800730807707,-95.29420944141748,-97.08799174515298
2025-12-12 17:55:49.741359,Right,-82.31069212588773,-96.93472055654274,-83.42976245934551,-102.16287527017994,114.85377314584002,-99.00669465278042,-98.34411432644993,-92.50712755328277
2025-12-12 17:55:49.745375,Right,42.11331681084994,39.37873764082906,49.95505055904505,30.90005207285867,-98.85540804322227,27.343623759850743,31.163145225305925,37.24037268938264
2025-12-12 17:55:49.749376,Right,77.45361346047139,62.81913130436442,72.47039297521405,56.56159506679978,-102.08660125680035,53.082972846052144,62.64812024201092,65.86842206428992
2025-12-12 17:55:49.753404,Right,-45.230872631742386,-72.3892443270015,-61.980974256031914,-75.40517693635775,114.13560784874608,-68.86762496131996,-58.057618776816525,-58.76582037308253
2025-12-12 17:55:49.758414,Right,-114.21018816791184,-130.34772936193622,-120.01427975407569,-133.66416294011287,145.8611558089815,-116.39235337190621,-110.67343449061445,-118.00651880919759
2025-12-12 17:55:49.761429,Right,-23.566145772128948,-24.85787254211027,-15.304333926178515,-29.873406556784175,-69.53422087500621,-9.43400549814396,-10.95168270765862,-23.46681152691599
2025-12-12 17:55:49.764425,Right,41.2815271942236,32.393066490098136,42.62445561705681,27.283840088697616,-135.72265817616244,44.766749702903326,40.25236272730399,30.043082369709737
2025-12-12 17:55:49.769446,Right,-41.71988046284241,-64.24025218811585,-52.45069846470142,-70.18317415023921,63.749495144480534,-56.931818002369255,-56.83031558964285,-61.21706947074563
2025-12-12 17:55:49.773470,Right,-104.43014068744378,-118.59936696704244,-106.90450972165854,-127.8358501631592,150.7625542293299,-118.63089859038882,-109.27449917740887,-113.4404476708878
2025-12-12 17:55:49.777458,Right,-12.702794503245968,-9.5960785697971,1.1849990546470508,-19.815802563680336,-38.48929120143839,-13.100022438869928,2.734161063825013,-5.625311013573082
2025-12-12 17:55:49.781424,Right,73.39162939359085,73.04822911319206,85.46036535578605,67.19857923113159,-148.12156458015124,75.31377487702412,89.51026620915218,83.20991814781155
2025-12-12 17:55:49.784483,Right,-1.7292937356833136,-16.96683102688985,-0.8078997669217642,-19.41510138689773,29.005981660713587,-8.280744501622394,-1.745947500996408,2.275433137983782
2025-12-12 17:55:49.788485,Right,-93.22922608382942,-104.2347772900248,-86.57743219136319,-110.3244713593158,161.51198815311363,-99.41387545497855,-98.80045124568278,-88.65928360116959
2025-12-12 17:55:49.792501,Right,-23.7654821096221,-17.36929782066727,-1.928245763250743,-29.18775078532053,-0.9579537082481693,-20.481644665371277,-18.691750165075064,-14.719457541199517
2025-12-12 17:55:49.797635,Right,83.71472035197075,88.80170117627131,101.54758507988299,77.10174178243324,-157.75031836066955,89.06553245900432,96.45672405151709,89.77429247974942
2025-12-12 17:55:49.801492,Right,31.218200008792337,18.182323583838297,29.64818688041123,10.323622647119919,-17.555186466388477,33.8041452653415,44.317583227166324,31.283098992571468
2025-12-12 17:55:49.805573,Right,-88.55169251128973,-103.37425980804255,-93.5881050691969,-111.33564714972454,156.98874372064893,-76.70502661951468,-69.32766319096845,-85.20001931455045
2025-12-12 17:55:49.809603,Right,-63.327736074861605,-59.519413116024225,-52.208536964899395,-71.53235649550334,38.90455236361777,-36.72827289349516,-36.8519996569521,-52.46941232007521
2025-12-12 17:55:49.812609,Right,49.28021991839341,60.49059564463096,67.48543720031739,47.02672330553469,-153.2121290600153,72.29462971186149,66.00902011168364,57.116223676886875
2025-12-12 17:55:49.816617,Right,34.62361937497917,33.12220563618757,42.96139930939535,22.03989464159531,-64.11528868194546,39.081001949518395,32.25964777749323,32.50916621858778
2025-12-12 17:55:49.820612,Right,-77.26506714848074,-82.79995703675377,-70.43316127007711,-92.69943594539654,135.07201087380963,-75.83130479017564,-79.54185461986344,-78.82269568392076
2025-12-12 17:55:49.824615,Right,-71.00285314954817,-60.70812420040602,-48.76740810208139,-71.41028955263027,68.46543669652146,-49.97536924272572,-52.034821404653485,-60.43651909653272
2025-12-12 17:55:49.829619,Right,45.98629568801698,64.28322203885182,74.99632601154735,55.65046993053693,-141.11691565900492,80.73961422465072,76.79360672723851,63.653102163218136
2025-12-12 17:55:49.833626,Right,53.63410408565687,58.0618201331672,69.33913205825957,54.46924295718782,-102.63146662093459,81.38620590904611,73.45216041884851,68.57921144904685
2025-12-12 17:55:49.837661,Right,-67.26158845047757,-71.74849230318796,-59.66443719861127,-73.37017010150885,110.89646476480175,-46.18167192937835,-57.35415862845548,-51.37195848758711
2025-12-12 17:55:49.840653,Right,-93.49632840554841,-84.02152359939646,-73.12722917564679,-87.6770038347313,99.02300340777583,-63.844856758420065,-75.61780912104587,-68.46327092800493
2025-12-12 17:55:49.844686,Right,27.420071071865095,49.271335886165616,58.556539317956776,45.83335231160163,-116.27802768127367,62.802583158627385,52.135435558782774,56.33193195617787
2025-12-12 17:55:49.848674,Right,79.68938276064,91.35165868114564,100.93088602710486,91.95065856150177,-131.1730737637572,102.24218607353396,92.31316985333979,102.22523804037337
2025-12-12 17:55:49.852621,Right,-21.68750947195076,-21.123267848532123,-10.93923310914397,-19.19315136471414,84.58646984265033,-12.924329643050442,-23.76327946773381,-1.3366384718974587
2025-12-12 17:55:49.857702,Right,-79.94164086422097,-68.1511915345036,-59.96749388091848,-69.94547973881708,130.74753884929487,-64.25205810295301,-78.28328294203675,-50.08246607138426
2025-12-12 17:55:49.861704,Right,10.52338692513149,36.55108455103618,41.13188574572996,33.03090090867772,-75.25167525658617,42.5141655730331,24.03851063802722,48.090329455670144
2025-12-12 17:55:49.865663,Right,69.76275214488851,87.09338397931424,89.80790271647129,88.19980915859924,-144.4814239246857,104.86232071483028,83.20275642731576,103.96694010970532
2025-12-12 17:55:49.868722,Right,-21.348831457828055,-19.288905028886802,-16.653820037288824,-13.182529758123565,55.502737154311035,10.2735893517347,-13.071915615626494,10.661099554194152
2025-12-12 17:55:49.872672,Right,-89.1957439439575,-80.24063723319705,-78.67668474212405,-74.87595125284861,152.7516130398758,-49.66528747825214,-75.00101355533843,-48.09078065016365
2025-12-12 17:55:49.876759,Right,8.439666431979276,34.42884563034022,33.782301218445355,36.60894836521766,-33.413422334661846,56.570625702086545,29.57445609231945,57.982603317028406
2025-12-12 17:55:49.880750,Right,108.10922943118203,131.2772585060593,129.82174524250513,133.3865628936037,-154.33489851628065,145.6487804954595,118.90274531636533,153.53929878053032
2025-12-12 17:55:49.884794,Right,35.246131800842704,43.714550472992414,42.734750461419026,46.71414514920616,16.198823485162393,56.105520979308494,29.75329255888937,74.99242950288647
2025-12-12 17:55:49.889784,Right,-75.85898180967342,-63.45258600242596,-65.71675348846111,-63.41216365372384,158.84813810756623,-51.03242313429291,-79.57043173176498,-29.60816652529593
2025-12-12 17:55:49.894831,Right,-28.989660348408506,1.1954953655476857,-4.4366403603198705,-3.2458617740339832,5.353140129221174,12.740427953973267,-20.33368566174613,25.868422877763805
2025-12-12 17:55:49.898807,Right,78.92350029672161,108.68565723985739,100.9734716723051,103.58109481120482,-160.20168022343523,120.43250488462945,82.16786157719616,127.85803280607433
2025-12-12 17:55:49.901832,Right,47.36344898052266,58.793235177705355,51.48305263783914,55.16199735386181,-32.19845125204051,71.48763018244244,28.681553541260655,84.11567605087475
2025-12-12 17:55:49.904836,Right,-53.85169709789261,-45.67525131743969,-53.16828499848634,-50.99843645776127,146.22611746835287,-34.69542262211053,-79.56347136745171,-14.965032904874533
2025-12-12 17:55:49.908842,Right,-22.291382399642316,3.3319978943127353,-6.574817734353019,-5.275596906445571,39.20773250462821,11.456520619523417,-31.456471272962517,30.649236322395154
2025-12-12 17:55:49.912869,Right,91.07597201995668,123.49631335184495,111.74549066276359,115.7659154944995,-153.3580318973037,132.8466328104314,94.68533096613828,150.00442129712974
2025-12-12 17:55:49.917815,Right,75.3566533649282,93.78428238360175,82.78772924361738,89.77038442822959,-70.81183340087205,107.0778546281557,72.77279101754539,129.48695751962805
2025-12-12 17:55:49.921868,Right,-41.26968480249707,-28.802614680908846,-38.82285835643975,-33.16189743451832,131.87539415801797,-16.533252090952374,-50.68316082777892,12.953523435193347
2025-12-12 17:55:49.924828,Right,-39.610342753103396,-12.141699049881481,-23.242793485886068,-21.32192622333241,72.84051969480049,-7.205854901044404,-44.367743255759706,22.178255890605215
2025-12-12 17:55:49.929907,Right,81.13846179897519,117.34572829514866,104.8589525657435,105.47497836418916,-142.02012150136954,117.24082715677287,76.13909872532531,142.90545663736702
2025-12-12 17:55:49.932900,Right,99.21071057919289,121.74197057114657,109.75824914850273,111.04659364517283,-115.41189720771291,124.34730150388168,79.58611205628404,150.0884182943555
2025-12-12 17:55:49.936932,Right,-18.65249087934535,-7.168655745914293,-18.045814986824553,-18.267513676044473,100.1881400747431,-0.03483218056499027,-47.584508776140865,26.262741955499223
2025-12-12 17:55:49.940922,Right,-56.7999872640321,-34.6465703312615,-45.606347585329786,-49.18382987003133,101.52881082429133,-28.392153912975118,-76.60805293312296,-6.375432782202552
2025-12-12 17:55:49.945923,Right,46.75066506809344,79.09045509361749,68.43300877818729,64.12795019858459,-111.9773554892937,81.35920001513477,35.42453076579841,101.17181662080839
2025-12-12 17:55:49.949965,Right,86.76562078988991,108.28590953832463,100.24277631466975,98.38044247654398,-138.80428888001825,109.44477712356274,67.39478022437834,137.63707359676482
2025-12-12 17:55:49.952971,Right,-21.39466070789149,-10.6377696392683,-16.02039951151528,-16.603737702916987,72.5914110989404,-8.512414513254043,-48.17356967017986,30.947648130859307
2025-12-12 17:55:49.956979,Right,-79.03260915515693,-55.58199422141115,-61.82573310085354,-63.67869020172293,127.61592129602309,-54.15886998537462,-94.98723447001248,-15.040069258444419
2025-12-12 17:55:49.961010,Right,26.757179197556297,66.90114951908981,57.24946327801081,55.121371206641925,-75.26312363377656,67.69928661741142,23.352625884726876,96.6179323655524
2025-12-12 17:55:49.964997,Right,110.5772935725611,143.52490257514364,131.86966884401772,131.4017656458709,-153.77496603549616,146.26365700883252,98.93700683573479,170.10875974091323
2025-12-12 17:55:49.969002,Right,30.57314805569763,47.062145175255864,35.44961608626545,34.72139714938203,42.84396469600938,50.68324123167622,2.1069897597189993,77.9430417970434
2025-12-12 17:55:49.973019,Right,-52.60089753713282,-31.833110552885046,-44.010976970133925,-47.858087158787384,150.56533998350574,-31.869653946359904,-80.55468647060843,-4.112174997688271
2025-12-12 17:55:49.977031,Right,19.076610200305367,55.41650229197694,41.791821383820206,36.22360147658219,-30.11645164458173,51.01399728580509,3.1354829114861786,73.47933668695623
2025-12-12 17:55:49.980042,Right,104.90777546245045,138.2468731930785,125.01990038648364,120.45353825657003,-162.02106617997947,133.78908084799696,87.54776454161765,156.36191058254917
2025-12-12 17:55:49.985077,Right,31.289278151450162,49.24941099694843,38.65441105255741,33.1412613314651,-1.8812020009322623,46.393175274508394,1.386642326189758,77.65729612844007
2025-12-12 17:55:49.989060,Right,-78.94952667924917,-58.246771502170304,-66.95134880536352,-77.87413852052578,145.5236125918625,-63.91386906362459,-109.36359239217563,-27.179137714061653
2025-12-12 17:55:49.993066,Right,-30.22800999687024,8.326757519222156,-0.21444300129223848,-16.550309221765474,-1.2316785654979867,-3.5065091796241177,-50.332460436951806,30.01957056594256
2025-12-12 17:55:49.997158,Right,84.55263995116002,124.08834574765933,116.61250158114126,99.10647969059835,-172.15438851094586,109.13408912382874,62.34245697775259,141.24785192466516
2025-12-12 17:55:50.001123,Right,59.061221457392094,80.80342562924488,76.19763374097238,59.24053717734887,-49.195576092752844,66.14599837872811,21.914229353449628,105.29273228169768
2025-12-12 17:55:50.004117,Right,-42.15007671081912,-25.167792692453077,-28.093415359035134,-46.55166088142414,139.83542246911838,-41.4872914892112,-82.70322151733126,3.1381614926067414
2025-12-12 17:55:50.008248,Right,-8.599516756841695,23.580811300045752,19.64843882992136,-0.34866433543538733,47.21378186699553,3.9248512037665932,-37.03974009341982,43.691630504181376
2025-12-12 17:55:50.013126,Right,116.81165762613819,154.38640905270586,149.66258483717684,131.26970785840604,-145.688821581635,135.6085452887055,92.06734772371601,168.78848784473666
2025-12-12 17:55:50.017145,Right,112.45281821952449,135.56606352322706,132.32662245595566,115.96794763965045,-69.78880642539616,121.79003204301989,75.9613226638121,156.84651799667336
2025-12-12 17:55:50.022158,Right,-10.84005665663426,6.525163244266878,4.5541086402663495,-13.636155452644743,139.26286408040437,-5.4083874294301495,-51.41989460016157,33.51911902114807
2025-12-12 17:55:50.025177,Right,-28.37802784433734,5.224263036347111,2.0785484639563947,-19.859432291930716,93.52358444402375,-10.930130531014584,-55.86317747512112,24.631841750539024
2025-12-12 17:55:50.031211,Right,82.98966879201907,126.97894491571788,122.69632415011438,100.13524310273351,-121.61358400376798,106.63278985480429,63.292283928334655,138.2147983389441
2025-12-12 17:55:50.034191,Right,105.95237332389661,136.68075300669443,134.22826175201044,113.74918885537409,-106.02395393068264,117.49158337438712,76.23497516299358,154.03873171293526
2025-12-12 17:55:50.037148,Right,-7.766138069659064,11.334146729001077,11.834031964230235,-8.527317149844748,108.38777684205752,-4.420636691480468,-44.006176470340506,39.13592151904595
2025-12-12 17:55:50.040220,Right,-46.91915646394409,-16.412002315570135,-15.139019591195392,-37.93750366845052,118.81662085439461,-31.195371471665567,-70.67903023042345,9.617742165733944
2025-12-12 17:55:50.044221,Right,61.33815431814946,104.37165635122074,105.12709310923674,81.08436014815379,-94.62662528949704,89.61557278555847,49.26867307874454,122.66892494530475
2025-12-12 17:55:50.049236,Right,112.85838977155072,145.90933957631933,147.6296862193558,123.94543833051284,-132.52365843375264,132.8091530514721,92.66368775115188,166.33219987705525
2025-12-12 17:55:50.053261,Right,7.97987744646889,27.664931611245265,30.925882330484455,5.424237564755458,75.56582131852315,14.396185579993471,-23.662139391864002,55.48966196090623
2025-12-12 17:55:50.057204,Right,-60.22751819728728,-31.27137169150228,-28.69182919638115,-58.62160742308697,138.57131722087206,-50.20082938081032,-85.86696396149205,-6.802518754033372
2025-12-12 17:55:50.060208,Right,36.645831533624005,81.47923382118461,82.08169473380258,49.57104253941361,-64.36330307917274,55.7367249657982,21.007513149766282,94.68918973286054
2025-12-12 17:55:50.064273,Right,124.21970906124261,162.92816751323699,163.58244901581202,132.0883025747753,-156.33421584098028,135.94175664243085,101.06707499371322,173.6892937268276
2025-12-12 17:55:50.068295,Right,49.34673792445392,71.71868913952494,74.28831404710945,43.529740034544375,34.14342665045638,47.37415705869353,12.502326672906065,88.5394529903715
2025-12-12 17:55:50.073313,Right,-39.56568877385507,-13.803758903959533,-10.659265592461452,-43.482434957757505,153.11407397091534,-38.489460077515105,-73.36100393526885,1.440992017625831
2025-12-12 17:55:50.077310,Right,22.541640037070465,63.82102916733129,65.87697268428747,31.196736302550562,-17.73091913872554,35.357919749993016,0.46658980752363277,69.05251951393439
2025-12-12 17:55:50.081328,Right,106.66981399002543,145.33267994585913,147.62176456484303,114.01930393231305,-154.94517708963372,115.28350819123443,82.3024567752891,149.08034630675684
2025-12-12 17:55:50.085333,Right,37.356256171755376,59.31444433332945,63.556406180301565,31.853398481711338,-0.2697692324768468,31.77945351229573,3.375570863961002,73.46799161029048
2025-12-12 17:55:50.089324,Right,-68.95809752487548,-47.31097852041421,-42.877318137398106,-74.04603094323829,156.0059363054727,-71.91713754484954,-95.96493119279876,-27.956998039764585
2025-12-12 17:55:50.093376,Right,-14.97367762740032,22.03301353122515,23.54062105277262,-6.5234006238752045,19.249129008805312,-1.8095812497485895,-24.40065861180301,34.12275205492915
2025-12-12 17:55:50.096381,Right,106.96448110872007,144.13469071107102,142.98046184252598,116.10450971381215,-156.68564338112878,120.35190597346082,97.2164874617647,150.9546113503602
2025-12-12 17:55:50.100371,Right,80.86328984436113,100.08479480468668,99.02291716021136,74.48878452106146,-43.046830028832346,76.94063662862027,53.59780432071602,112.43829491976066
2025-12-12 17:55:50.105401,Right,-33.746431070736435,-19.425161843799287,-19.955944012195687,-45.27485580272332,149.11985234120357,-42.60297367852036,-64.9864654783305,-3.131161607816466
2025-12-12 17:55:50.109402,Right,-13.299616383010289,16.68216168123763,14.633984776519355,-11.272779542538046,63.246859096666185,-7.256029495634721,-27.733231466978395,26.15891447471222
2025-12-12 17:55:50.113416,Right,113.83979601514875,150.1123127633473,146.2293751991092,123.55443138995906,-136.3255825962192,126.8535695172177,109.47552830903078,153.76959367726522
2025-12-12 17:55:50.116425,Right,120.98435850374517,142.63814759120578,138.7765048192814,120.31841738524963,-72.0364823163768,120.50457651289616,107.08556704117291,151.22913961629092
2025-12-12 17:55:50.120389,Right,3.234253271781199,17.27981358850957,13.69807195298199,-4.480291787585884,140.40065933906521,-7.8796991085473564,-18.715210957794625,29.6270355800807
2025-12-12 17:55:50.124450,Right,-18.927793283022766,9.009781861270312,4.1220104979292955,-16.377352454976062,108.02105777014572,-22.842303061996063,-34.35067250234715,12.548674895238946
2025-12-12 17:55:50.128455,Right,87.25591010594508,124.00154679040133,118.22857725596987,97.96906499802571,-104.77805695831034,89.64586593190324,75.58567340736045,118.0607168902643
2025-12-12 17:55:50.132473,Right,110.70918113132939,133.18825011639274,129.1770986919728,112.07660785820917,-96.95865096193756,104.69364358759776,89.5700969897589,131.8250820354442
2025-12-12 17:55:50.137490,Right,-2.475995967295603,7.533054843341233,5.791125034244033,-9.325248085180647,118.83908936873274,-13.107446395973966,-26.21007017242664,15.695309966176865
2025-12-12 17:55:50.140467,Right,-45.693731686078536,-24.340489186739433,-26.424428479469498,-41.784180132934125,139.55393230136872,-43.069392978723045,-52.17042234743349,-18.39568479936861
2025-12-12 17:55:50.144503,Right,59.227930673710944,94.12587961064128,90.35229247694951,75.22291268243862,-75.03607290650677,72.07703555025364,67.58321435974358,91.2549580969935
2025-12-12 17:55:50.148531,Right,111.92097957979422,137.627920895422,134.00995595603308,119.74736580852186,-127.40910249684134,112.29286268866417,112.38354848122617,135.26464799015957
2025-12-12 17:55:50.152541,Right,6.8533375296901795,18.504322797365603,16.330094218763406,0.632946443707624,74.82174639171967,-9.154974729433889,-5.935714700859535,22.676918111697887
2025-12-12 17:55:50.156598,Right,-67.87823350240069,-48.44316015900404,-50.80823851165769,-69.71905196364969,147.59448912900712,-78.83992890015361,-75.7308656301866,-47.27975728166348
2025-12-12 17:55:50.160603,Right,20.469580851160572,54.72798843239434,50.78470730369736,31.65300255944021,-49.81867489600131,23.641686845818185,24.59009219435029,45.44738891994348
2025-12-12 17:55:50.165592,Right,103.26076168195141,130.62016027214122,126.41050870761683,111.24628582391597,-151.0074314565868,103.339397341726,104.62881319634471,119.27659303361725
2025-12-12 17:55:50.168610,Right,26.733454915469338,36.86477607281995,33.46775381700718,21.53784335963428,31.877201019854738,13.67352067722095,21.102655889269954,30.883794593217317
2025-12-12 17:55:50.173607,Right,-59.724150872694736,-46.373549061172525,-50.67975363691221,-62.98292088904418,155.92270643993243,-71.09691123752418,-52.987983627666836,-56.132776493250276
2025-12-12 17:55:50.176610,Right,17.889917889282515,47.84435620352451,41.038965279221884,28.50854525557952,-11.782829113963317,17.93157582951244,47.436471101798816,24.438714617324877
2025-12-12 17:55:50.180629,Right,131.25026155845262,159.48529020385467,151.82723166697542,142.29514585984725,-158.34348406443246,127.770782277119,165.8482845732251,130.3266821323923
2025-12-12 17:55:50.184636,Right,83.96827356803988,94.72581823119253,88.47080470969377,81.79453978921083,-9.625049837755796,65.22152110042953,106.65139115392958,72.06262145630899
2025-12-12 17:55:50.188643,Right,-28.35180867973395,-19.370453981493483,-25.080566289376293,-32.613876735085796,157.2191665977457,-49.03039532410912,-9.397602032815485,-39.726610887926654
2025-12-12 17:55:50.193662,Right,-0.5133957735451986,23.444382824236527,16.2603956821913,7.004261873924406,31.514269350873974,-10.104191555801663,25.737894988484186,-5.0878576455579605
2025-12-12 17:55:50.196694,Right,101.99727179319598,126.32809963822365,118.43684969755122,110.89018063966796,-150.81710275746082,92.11678706633393,125.74912476284953,94.5715129984892
2025-12-12 17:55:50.200670,Right,75.11925870835694,80.54796482925303,74.02895159152831,70.11945251125871,-48.99478657289683,51.81981902561529,86.1428315960693,58.18890362670936
2025-12-12 17:55:50.204757,Right,-33.3886310379894,-34.8087721469783,-40.796069278148934,-43.03826453617512,145.8006264743617,-58.77488043780613,-22.096556709428114,-50.81026788367308
2025-12-12 17:55:50.208686,Right,-13.594342095289903,-0.6739832130697323,-9.033414893776353,-10.464412687040749,69.27645097955974,-24.833310129448364,13.057579491774959,-24.552102011599345
2025-12-12 17:55:50.212707,Right,105.59665439793753,124.1269110309222,112.87474035194464,115.20043457167048,-133.65871441836543,100.65481458901195,136.76039845398918,91.49101772300492
2025-12-12 17:55:50.216675,Right,102.94364597062668,105.388580573941,93.11026347632287,101.0127761180338,-80.06220621217835,87.57831490777608,119.99166796992358,76.53084245324862
2025-12-12 17:55:50.220681,Right,-22.481463200077997,-29.71015296454425,-42.86361077148467,-32.12272665263299,133.67720651112222,-42.6661573753081,-13.40241877947119,-52.33194539330725
2025-12-12 17:55:50.224747,Right,-44.84193515646621,-38.942582151139504,-54.78285870503896,-44.233445528407174,110.79792589539102,-53.33536199372611,-25.357424760128197,-66.4684284771065
2025-12-12 17:55:50.227763,Right,72.20600159005699,87.83212242049922,69.68991784852551,80.54565303568961,-104.59945598513514,69.24771568775759,97.74587431511463,52.29662804809777
2025-12-12 17:55:50.232762,Right,108.79194770755566,110.8650379194878,93.44190474866627,105.73131392835785,-110.18715433896614,91.29818806766707,121.11796470997069,78.01355380211317
2025-12-12 17:55:50.236776,Right,-5.340393292666704,-16.30487344481662,-32.153446057986,-19.34716812975239,102.44574943343423,-33.42268580563541,-3.1603943665104453,-42.22635603405797
2025-12-12 17:55:50.240780,Right,-65.25611261144513,-65.36518162989523,-82.41117074398062,-68.99021070116578,132.4185627022539,-79.43857214458694,-50.517909985905135,-94.21366257712361
2025-12-12 17:55:50.244810,Right,25.309305262810085,39.526315575458284,19.70830464999017,36.942170774891565,-80.34534516362328,28.70315200136247,55.78927616926012,3.1129935892822687
2025-12-12 17:55:50.248814,Right,77.65721110350569,83.38554555161681,62.98305980600708,86.00216697212454,-142.11185813412658,76.14946232492366,103.01916440812784,49.34502007550327
2025-12-12 17:55:50.252813,Right,-23.468936094919627,-32.86469493342156,-52.00153736817447,-25.934238794070552,59.24179649791358,-38.94638945954648,-10.647023139652447,-59.06681417147047
2025-12-12 17:55:50.255831,Right,-98.95321303693709,-102.32928144240577,-121.80130628174084,-95.97948614195775,145.52478546075554,-111.50193251193559,-82.35496203997536,-131.57580308111937
2025-12-12 17:55:50.259837,Right,-8.10400836336703,3.3304376094820327,-18.160814459071844,8.338406002512784,-43.9480922135308,-9.444487704149651,18.433081950988708,-37.64311310785706
2025-12-12 17:55:50.264844,Right,84.90945828961048,91.39392694345588,69.58438325550378,98.92283262815181,-152.35952496300752,79.05972738663331,104.85825954722532,48.10391758468177
2025-12-12 17:55:50.268867,Right,11.363273288690834,2.573265989907668,-17.2101022879433,13.193055063587963,25.796842327700688,-7.471859292156296,17.912002132012276,-31.243260451046808
2025-12-12 17:55:50.272883,Right,-92.49437544657121,-96.97224472412927,-115.53987869817502,-87.69204694356449,158.6345278215931,-108.20043941402037,-81.42592742085981,-126.07552049008518
2025-12-12 17:55:50.278922,Right,-42.158760571244784,-28.960715284491016,-48.23346283434512,-22.58935911608569,-3.571116022512797,-43.46890608144167,-15.449198829821398,-63.07385305590287
2025-12-12 17:55:50.281866,Right,54.87896246143646,67.39719527929992,48.184222630778095,75.19409805707983,-161.30482050070077,53.909580492469104,81.93094241743165,32.88781375489634
2025-12-12 17:55:50.284903,Right,9.15058365544246,4.0638006036460865,-13.282174232219404,15.995216543749848,-24.811837393321184,-3.008620973683719,23.280307333974633,-21.197221770598844
2025-12-12 17:55:50.287924,Right,-89.80499795155993,-97.52162594219408,-113.86174909079273,-84.68455828772858,145.52907403651625,-98.30071277857496,-75.95450268321292,-118.3177899901566
2025-12-12 17:55:50.292936,Right,-40.49260881320879,-32.58842093029671,-49.82858073098032,-21.52591776377085,27.33304648838839,-31.133137474334944,-12.896788941638079,-59.88822598152183
2025-12-12 17:55:50.297950,Right,87.18099556738161,98.19569135703205,81.21214054587108,110.13585717276146,-160.35798564882225,99.24466399089579,116.93689289933172,68.2306573807
2025-12-12 17:55:50.301963,Right,71.53087457305082,66.25974895321269,52.432500841743604,81.35693205979624,-66.88195608792012,66.2958036778291,86.88874889145882,46.070010293984524
2025-12-12 17:55:50.304995,Right,-55.874018277310824,-67.00120965331735,-77.75580794693087,-51.83140270459262,133.5437265080709,-69.2142509975638,-46.919612053661695,-79.14780855553545
2025-12-12 17:55:50.307977,Right,-70.57271248280449,-66.48106364624982,-76.75491149936715,-54.08057320442458,66.77980777371977,-71.52894452502369,-51.20769147802639,-83.37069718114435
2025-12-12 17:55:50.311929,Right,33.509289371431805,45.456961257405055,35.504417649426614,58.20192926745949,-142.0619825757467,40.76612395135817,58.46763742807161,23.740894372400362
2025-12-12 17:55:50.316005,Right,45.509456858086196,43.579765332018724,36.635842118470464,60.16571177939477,-102.70032643680315,43.09550464160202,60.79314438554866,29.790389205172687
2025-12-12 17:55:50.321004,Right,-58.98342167382725,-70.17947466209444,-73.39284327734276,-52.893559168383945,110.53503892334174,-67.93721869945512,-48.86846939803945,-74.4684121591381
2025-12-12 17:55:50.325013,Right,-72.37350211178637,-70.85816509106371,-72.83853968082985,-57.80771154523245,97.91025066166458,-70.71811590906327,-52.019864856178174,-78.69029903565752
2025-12-12 17:55:50.329057,Right,47.69301164593708,59.383425765692664,57.197681774938246,69.848336169096,-118.08017567285151,56.89473950305728,72.94841244841155,43.99573255289215
2025-12-12 17:55:50.332066,Right,87.76280958944335,86.53846152436745,85.46983884518704,99.38315394763049,-135.13158111320445,85.36439789312499,98.22732829498273,75.32876219679747
2025-12-12 17:55:50.336061,Right,-27.376271430101042,-42.14717823664978,-41.71563856521607,-27.662901567957306,76.07022543794847,-41.36849825675927,-31.02137166594548,-44.428309340553824
2025-12-12 17:55:50.340017,Right,-90.41212163741147,-95.22801079780402,-95.52957345872346,-83.77818725270481,117.3753995919642,-96.66153243037661,-87.50928670765279,-100.44137562798642
2025-12-12 17:55:50.344081,Right,7.678707183824372,17.07662939650254,14.893912042931333,26.01291378415044,-91.0490161562193,12.082105778406913,22.131783599244955,1.9948635395812744
2025-12-12 17:55:50.348092,Right,78.55075509295784,79.46370342847877,77.40831144950062,90.85457569600112,-160.36980546402992,74.86617228177965,86.91255879681921,64.84373766716817
2025-12-12 17:55:50.353107,Right,-9.306924496979263,-24.198592957789515,-24.477234473029966,-10.163871507174917,40.01131128612269,-26.07325155158651,-14.291729529431905,-30.443841554599203
2025-12-12 17:55:50.357115,Right,-85.87767386663472,-95.23269817413166,-94.86484421601926,-83.40344652008207,137.81448019001527,-97.00450790647301,-89.21949016693543,-101.78182009659758
2025-12-12 17:55:50.360109,Right,-1.0462287888749415,4.83516947483804,5.232439478877495,13.800532787106931,-46.7203279939622,1.1432994764163595,4.8392958421536605,-9.195618571235173
2025-12-12 17:55:50.364067,Right,92.4129255242533,93.60069757277597,96.50719021021905,104.60227740855771,-165.44815007916532,90.21546481685073,93.97017231430436,82.16575805697903
2025-12-12 17:55:50.368151,Right,24.968366337927364,10.070309155562427,17.56432017259067,24.63263544117217,6.419600252819691,9.459424490823949,16.205201831155136,11.619101832049637
2025-12-12 17:55:50.372168,Right,-71.48594294260329,-82.88694013424538,-72.63515130276573,-69.02191846750793,150.39491094008736,-81.8359325561496,-73.53012861265233,-76.09128910335494
2025-12-12 17:55:50.376167,Right,-11.411414273825358,-4.765457380854059,5.338245308555997,6.765163785395998,0.795454598467586,-3.8527322975387506,3.562210935568146,-4.323534265635317
2025-12-12 17:55:50.381175,Right,95.00120293188593,101.82901243902961,111.84451004748735,115.35890153640503,-158.44576193106877,104.38395792189476,111.01998071372145,100.99714049357135
2025-12-12 17:55:50.385189,Right,47.124591248866636,36.67133750943685,47.87379305207651,54.52124974918479,-25.238743798385258,43.45222981619008,50.75758923304602,45.474159534846876
2025-12-12 17:55:50.388200,Right,-70.49060332860608,-82.99069144847454,-71.81022360267707,-65.07788052661272,155.06970100128365,-73.99197916404228,-65.89579535015582,-69.31653562619522
2025-12-12 17:55:50.392209,Right,-45.009958370004824,-39.88210112373781,-30.856518289179803,-25.461857578418858,47.841678044602304,-32.52361211282641,-24.64427918958245,-33.757772621594995
2025-12-12 17:55:50.396242,Right,68.26988477960003,78.81029767003747,86.67954740015739,92.50885800678952,-145.4679974437604,84.92777688635033,92.1047611217491,79.67729641647838
2025-12-12 17:55:50.400270,Right,49.281687707757555,43.92029638443637,53.70123135951144,59.811571623617056,-64.13078944859444,51.11487559221723,57.83088537657932,51.535899756004255
2025-12-12 17:55:50.404291,Right,-76.06729656027619,-88.5857073883526,-76.32474323262886,-73.3596339091273,137.4398988094863,-81.82771546569347,-75.29341567834126,-75.27581865293223
2025-12-12 17:55:50.408352,Right,-83.21786111285928,-81.18181300570359,-68.44072618156042,-69.69069748472975,79.02654113295102,-77.67896366222021,-71.20749475641423,-74.4405700718587
2025-12-12 17:55:50.413297,Right,33.53480011518059,43.902976944926195,56.60609194039171,54.62837300874162,-133.55135107463275,46.02054517622446,52.486345822744624,43.19480622801112
2025-12-12 17:55:50.416300,Right,51.532979405948026,47.79098186704687,61.72752731001265,61.544496856491605,-105.80678171670479,52.75427614453065,59.013218540687376,51.301652002365245
2025-12-12 17:55:50.421346,Right,-65.30546133173812,-79.81209943540125,-65.34580412197283,-65.52841193146014,107.78546157895698,-72.33795750730377,-67.42762253107321,-70.05841452685218
2025-12-12 17:55:50.424348,Right,-101.5280693542727,-104.25200121480975,-92.04234425403911,-93.73258442225051,105.57063122032196,-98.34885383558401,-96.55829513463686,-99.9532883191273
2025-12-12 17:55:50.429348,Right,6.3352318281094995,14.436317371905716,23.890926844137766,23.363756729166198,-110.24872113350875,18.340304788129743,16.795625123922946,9.652058178761763
2025-12-12 17:55:50.433363,Right,52.26191109754609,48.20870519726759,57.482603056911216,61.06148854140338,-137.808806510875,54.58890982487583,51.8007537390622,45.72960444954333
2025-12-12 17:55:50.436389,Right,-52.554990560538954,-70.49924967075503,-60.44245356242823,-54.0076800668794,72.97431878814405,-59.31648788881739,-61.753224225873055,-65.62597557327354
2025-12-12 17:55:50.442367,Right,-112.33724542249229,-120.59315087083587,-112.28947894711837,-105.32530686800601,127.20894639296966,-107.37352753653659,-110.36307684598978,-119.59608883231977
2025-12-12 17:55:50.445345,Right,-12.285648561633025,-5.334030604698,-0.48685330517810144,8.233054656622699,-76.00667002825367,7.650481031738764,2.9518081379028445,-15.343901785288836
2025-12-12 17:55:50.448418,Right,66.93780295325496,66.2241981485862,69.60379664371976,82.03058482104097,-154.94328258280893,79.98325675539445,74.42508717167766,54.95944015545865
2025-12-12 17:55:50.452414,Right,-13.710453976183544,-31.322407370881848,-27.12403154538515,-13.319255231170246,40.490157324372376,-17.41500594801346,-22.669304670984275,-35.777180023107576
2025-12-12 17:55:50.456360,Right,-95.10409408482235,-108.87985177403141,-104.46535287065763,-93.17248469387778,147.664594798586,-98.74208931627618,-104.50442890592421,-115.05896930933704
2025-12-12 17:55:50.460426,Right,-22.096623588070997,-20.640467673754756,-17.01367486314666,-7.41994420037372,-31.027536950899048,-14.342400530555096,-22.402771904504334,-36.53307065819172
2025-12-12 17:55:50.464446,Right,64.8035924889736,62.35696007500974,66.62316070152792,78.78336092303653,-159.01702057955617,71.94317303561547,61.39621732044998,46.75392685892621
2025-12-12 17:55:50.468443,Right,-3.2878461276643236,-23.022221551488656,-16.796784721735094,-1.026579187149764,4.888499697887255,-4.840907546888047,-16.22676105570281,-26.129196394960672
2025-12-12 17:55:50.472454,Right,-99.86984370063061,-119.07436887321,-112.78223861099286,-96.14165462387245,155.84831281173194,-96.5732905928553,-107.54553990758359,-116.3992148764064
2025-12-12 17:55:50.476420,Right,-35.440402952534896,-38.04549867490459,-34.144476399978885,-17.576606292961515,13.820498710555114,-18.67638892688592,-29.463038529487676,-43.148869875665696
2025-12-12 17:55:50.480467,Right,85.39781196079434,84.33336590337512,86.89560262539271,105.03354275172387,-152.36408300148184,99.61785288223382,88.48664048990804,74.10550910416896
2025-12-12 17:55:50.484493,Right,52.7964874667623,36.17077315071492,40.139520374214044,59.12190805033424,-28.074102443023946,50.870110441493125,39.6552503009234,32.379451262240764
2025-12-12 17:55:50.488516,Right,-62.48472422602458,-81.15371998468345,-75.7569556623821,-59.416268393335486,158.12453272519159,-66.50609743422137,-76.93138356803593,-80.02459655863277
2025-12-12 17:55:50.492518,Right,-44.360179825603836,-46.27527647691386,-41.26566607771201,-28.278910313312736,61.470249913964324,-33.08728188596615,-41.78888181472075,-49.913169208388354
2025-12-12 17:55:50.496551,Right,66.86368887672234,69.77807224213757,74.84645368572092,87.7164413467417,-134.44923312690037,83.60192436994839,77.28487042881534,64.59607736233738
2025-12-12 17:55:50.500577,Right,55.6527826213478,41.95239365931229,49.21967723549642,63.42189460552436,-61.053694846827966,59.57205933467594,55.36095061687729,47.210350441833725
2025-12-12 17:55:50.503537,Right,-61.18812900411285,-83.06591436566669,-73.849912206726,-61.119163543833565,146.082630490636,-63.70567624958494,-67.67675061342447,-69.26027313493978
2025-12-12 17:55:50.508583,Right,-65.8093554866864,-73.25092447586576,-64.5459561884436,-55.11852982951859,101.11812148893932,-56.906403224664245,-62.69998711360836,-65.15642397294505
2025-12-12 17:55:50.512584,Right,50.86201436085048,53.242204258347556,60.97701497524395,69.59001491559866,-110.20275630272727,66.57901750617748,59.43329831815322,53.088933845730935
2025-12-12 17:55:50.516599,Right,70.66728438072687,60.946524640208736,69.64180576037143,79.61598236772625,-90.97817654588448,74.89847327561802,69.10648297927708,64.26853788692824
2025-12-12 17:55:50.520603,Right,-43.65432258322198,-62.58527561656956,-52.87712844688758,-43.625012529770174,124.36837407026132,-48.35693131591506,-51.23277137829723,-53.363606389113556
2025-12-12 17:55:50.523596,Right,-77.72371234617094,-82.95888820212713,-75.03595336616854,-68.80624809469919,134.39215083525664,-73.0699930454557,-73.68150459893194,-79.93164804899789
2025-12-12 17:55:50.527607,Right,34.643470212867214,43.11899016900861,48.021081217342726,53.02373513719067,-78.62391313738908,47.1436833715361,48.22913413141737,36.5667988089408
2025-12-12 17:55:50.531627,Right,87.23235891970671,85.77650265830925,89.95277285644988,96.1763292769956,-115.60586492807033,87.60951257301895,90.85419000195373,83.09868888507117
2025-12-12 17:55:50.535659,Right,-15.548613774692058,-31.218623450204177,-25.860742105185636,-19.747583008406764,92.95754689341038,-28.902011799067623,-23.838333370997134,-22.28612211037398
2025-12-12 17:55:50.540656,Right,-83.26815051654103,-91.3293515477053,-85.8684585871597,-81.9463527328935,157.00350837759925,-89.8781960443066,-84.69565090685978,-80.9217745574133
2025-12-12 17:55:50.544670,Right,3.2661434646206544,9.114934632871154,13.75733666629094,17.25092514287371,-43.84363716451844,9.129342410942627,13.632076157797428,12.555410021475836
2025-12-12 17:55:50.548670,Right,71.62052360155121,70.34178490539853,75.92285686225296,81.77195281376407,-135.43819796229445,71.79791724730603,76.81857818968138,74.54309573484716
2025-12-12 17:55:50.551685,Right,-15.305483707117673,-31.983302304914105,-24.01763461673181,-17.285313292328283,51.131480147492766,-27.663260576437096,-21.044323771849122,-19.662887555965426
2025-12-12 17:55:50.555699,Right,-98.74424776579053,-109.54616131999865,-100.84279848771621,-96.87777474232053,163.88468572180545,-105.62119723911383,-98.00295991794383,-97.48254907100636
2025-12-12 17:55:50.559723,Right,-19.830446352641957,-12.4145910506777,-4.93759918626165,-3.732027337796808,-11.398181643498901,-11.693220840494178,-3.858020191655669,-9.586500855195482
2025-12-12 17:55:50.563736,Right,79.16795348379765,85.71009968149156,92.8578958986036,94.06420910417455,-150.26340139207286,85.35273282943672,93.72188426598996,86.78928069901667
2025-12-12 17:55:50.568727,Right,14.119561459604483,4.410667848042067,12.67271862157213,13.694500709242902,3.5392609104237636,5.429462009204144,14.352515677584961,13.89466869548778
2025-12-12 17:55:50.572734,Right,-99.79899397611734,-110.1459110240794,-102.02421822148244,-104.02266524596075,158.61031652866723,-110.1029186515043,-101.77886656506416,-98.68842811093054
2025-12-12 17:55:50.576777,Right,-60.06961016943205,-55.25854585831257,-49.0269570710916,-53.73889163992868,21.11539286450852,-59.238122872280655,-51.666176901465406,-52.8632065467682
2025-12-12 17:55:50.579752,Right,51.61938535753961,57.27683882535712,63.041115078052826,59.28815881439343,-154.9242537480518,51.038542006874195,60.181578248015285,56.39491050640572
2025-12-12 17:55:50.583794,Right,27.17112989357065,16.656274881028367,24.6106651574446,22.736049316047456,-42.08031703953611,11.226689304658066,23.96977130974119,25.61962209779813
2025-12-12 17:55:50.587733,Right,-79.51333636152958,-92.4311103446853,-82.91076212696134,-85.79610364105497,147.90469562521457,-98.13483405036095,-83.17332882400115,-76.51882518027924
2025-12-12 17:55:50.591794,Right,-58.62729591654352,-53.55705014502382,-45.567014346761425,-50.08768102826821,59.22652212445428,-61.52166785215377,-47.39811755557639,-43.73259708507976
2025-12-12 17:55:50.595827,Right,57.40249708889678,69.84062718898349,75.38485208151906,72.64649542342522,-143.31107368373796,62.25569741158688,74.7990366804388,74.40110111263857
2025-12-12 17:55:50.600764,Right,52.34424567195492,49.737112329476076,54.45203369748924,54.97484038779612,-82.62983183615415,46.3678727312581,59.031570560255204,61.37809173357891
2025-12-12 17:55:50.604891,Right,-67.38613489910495,-78.52725385375379,-74.41601601143338,-73.8323005163561,125.96057326943946,-79.58391761184248,-65.88529791109613,-59.70701354097764
2025-12-12 17:55:50.607845,Right,-82.2165844651663,-79.7981606684989,-77.99537651460923,-79.5725828585355,91.20556970717143,-83.9425056049331,-70.07437729247886,-66.61984150430362
2025-12-12 17:55:50.611861,Right,29.408362406073138,41.00032362010461,40.43316468897683,39.433338055428976,-122.23524330232749,33.08770613314118,46.58943400440512,46.15750777783251
2025-12-12 17:55:50.615853,Right,48.983007238257414,46.951277401803964,46.08926298655206,48.57508208867057,-115.69570495951712,39.40885722879466,53.13093704582934,55.84928066094653
2025-12-12 17:55:50.619830,Right,-72.12258397695223,-85.88551324934451,-86.56864138051606,-82.46086312512125,96.479490095649,-91.72869217237894,-77.94812048528183,-69.8829525482397
2025-12-12 17:55:50.623887,Right,-116.54798353039587,-118.07723833420823,-120.51290591177894,-117.86043814752611,113.18000101060306,-124.77151875664276,-112.70385393606557,-106.51629187069193
2025-12-12 17:55:50.628917,Right,-1.8791783098622545,11.173926863772067,6.598138303008454,8.54119649396398,-102.28674176414734,3.616184983991843,12.743523911643933,13.377005236343393
2025-12-12 17:55:50.632921,Right,66.41347589912948,71.23373627207911,67.11603798050055,70.14970304867256,-151.55693171508665,65.71232461253021,73.18865072249719,75.05979993556684
2025-12-12 17:55:50.635930,Right,-25.160577397391535,-33.98568089291439,-36.059156617324334,-33.72090722326266,55.411465968157245,-38.289274962739,-29.94385928747033,-21.94587556487386
2025-12-12 17:55:50.639932,Right,-92.05263659218872,-93.75303717905263,-95.65879878950363,-96.33226119839674,132.3579210874541,-101.71520817870623,-91.2092821433107,-83.28144916868769
2025-12-12 17:55:50.643940,Right,-0.6582482245303254,10.709332454574906,7.025398251520528,5.810893151847267,-61.67731730403739,-1.8663526711789018,10.602784726883328,12.144286037124402
2025-12-12 17:55:50.647909,Right,80.67824884420406,83.11554942196744,78.7030575504541,81.31072357761877,-160.05775650665964,71.41367453229395,85.23363521765896,84.80962389216074
2025-12-12 17:55:50.651978,Right,-3.27535638477093,-19.358340290709748,-23.095896352126147,-16.86929038010385,24.56300745465296,-26.029709774942603,-11.972158934007894,-8.335702418677101
2025-12-12 17:55:50.657004,Right,-102.1932368269936,-115.30302102359565,-119.73008455939271,-113.1225278799684,148.99814599759475,-119.10035551034525,-106.53720240327675,-103.0851372779216
2025-12-12 17:55:50.660016,Right,-36.44598259389022,-32.66303671976493,-39.479634467788856,-32.414477523550886,-19.00890073882374,-36.69046525672093,-26.17681722155794,-29.720994462652015
2025-12-12 17:55:50.663022,Right,72.26960370092638,74.43066634218121,66.63899403910182,76.84999707335737,-166.0167995720526,71.23871057368888,81.51724393438417,74.71920015809155
2025-12-12 17:55:50.667972,Right,30.478428284525762,14.884691352173832,8.398227747857163,20.94843882600253,-18.171727329507576,13.925906242759083,25.906471944526857,24.113407173099404
2025-12-12 17:55:50.672043,Right,-68.13973920091394,-85.61143801988146,-91.75241346736584,-80.8352174650554,147.51049588516526,-86.91421802579862,-73.89046197864991,-72.19000629727088
2025-12-12 17:55:50.676032,Right,-24.563067444099033,-26.3224323656832,-34.734624707503826,-25.99917246414043,21.728616295245047,-30.387679308205406,-18.469895324353274,-20.737283972826845
2025-12-12 17:55:50.680107,Right,86.63060547793339,86.84863500739448,76.36317780515674,86.72582032511491,-158.83800479812726,82.39950367983329,92.68908398762323,87.60517147323117
2025-12-12 17:55:50.684085,Right,54.13058549529342,37.342489356033184,27.059296288352925,40.80382296416792,-55.08148734761107,35.37613864305604,45.39072535150626,45.194040679503814
2025-12-12 17:55:50.688032,Right,-72.46929142474619,-94.3032052880335,-104.38961483955063,-89.78270518437785,139.3140396488643,-95.88252451237713,-85.43664863744743,-81.23352278927632
2025-12-12 17:55:50.691054,Right,-69.86340005362854,-75.49641913157393,-87.46094023303158,-73.27386036817006,59.749120139436855,-79.60299832787496,-69.68690068117212,-69.46530229031487
2025-12-12 17:55:50.695132,Right,47.012373116322124,48.84961506808759,35.14950544718886,51.34826031954617,-146.7885732326531,44.96237435754301,53.34271384918247,48.17750226219505
2025-12-12 17:55:50.700111,Right,54.33996759848105,41.26973564034779,28.456759792316006,47.513911072848714,-95.46687880987247,42.400425087867916,49.17547128342994,46.205556468361465
2025-12-12 17:55:50.704147,Right,-66.76953245874029,-89.43001721722248,-100.60890248790383,-82.09216408565408,117.42557486705118,-84.30474903515642,-79.31696094550716,-77.53841850000026
2025-12-12 17:55:50.708143,Right,-101.08359447606472,-110.96996703169134,-122.73325618516537,-106.67170884346342,94.36357360034526,-107.03354586110436,-104.33196991339173,-104.03199720634439
2025-12-12 17:55:50.712157,Right,-1.9640481694004848,-2.0558533653093036,-15.606922731130908,1.3793234712629783,-120.82008545247754,-0.25146344343738747,0.8002249844994367,-2.7721519557235297
2025-12-12 17:55:50.715174,Right,29.02002321434429,15.593101531270804,1.7718713864451274,22.944974096937585,-125.60495136422651,19.55274728225413,20.50501001252087,18.757446520037774
2025-12-12 17:55:50.719117,Right,-70.63186303740804,-97.55987526078388,-110.76535282778786,-87.4633300037458,88.70701159115924,-89.43092170228192,-88.37356849646494,-86.70799327803252
2025-12-12 17:55:50.723189,Right,-101.7141514339437,-118.858181100215,-132.94410115766368,-110.89683236271776,122.06759172222701,-109.47723513487654,-109.76164544296262,-112.15925522964244
2025-12-12 17:55:50.728199,Right,21.228030397996918,17.481602324798587,1.8584524469697499,23.4785446430069,-84.71597237237529,26.32688184385188,24.108435142017697,13.987820780421316
2025-12-12 17:55:50.732152,Right,99.91380121369093,87.28273784169869,72.22754196153983,95.53746934581432,-138.92056748966024,97.61929066055745,94.90691154892738,84.79898990727088
2025-12-12 17:55:50.736208,Right,11.69538228095098,-15.92765141225027,-28.971845227984886,-6.020785111883015,68.59097104047214,-3.7987700634221255,-5.84275440339843,-9.093780519731808
2025-12-12 17:55:50.740229,Right,-68.15115588739445,-89.30214217650791,-102.2291655595327,-83.19456962366348,157.38767847216695,-79.12841511262741,-81.48544224019679,-82.6635859031012
2025-12-12 17:55:50.744254,Right,5.039598993517757,-1.117877959386533,-15.929911949300731,0.18340191491915903,-32.828201050754615,5.303623052470357,1.5967961731439573,-4.305279224048718
2025-12-12 17:55:50.748247,Right,80.41279240732138,68.56012348426884,53.239754004156566,69.96380590894842,-143.3264614462205,74.37994920223355,70.46762139076782,62.98452083796292
2025-12-12 17:55:50.751260,Right,3.212797954075995,-25.579025974395336,-39.20902298820147,-22.33423278162809,32.946549778028384,-18.00995804303966,-20.7346123796342,-23.91052736104757
2025-12-12 17:55:50.755272,Right,-88.19824661146322,-114.37654870121332,-127.13505903716577,-113.45310805934969,165.0948758115428,-107.2336695915019,-109.65983367843182,-111.75821391573845
2025-12-12 17:55:50.760229,Right,-19.09089794054671,-28.23812485018061,-42.11111513500509,-31.336005385561293,4.190583728248384,-23.155084923924733,-26.995301166329227,-34.338994099991396
2025-12-12 17:55:50.764296,Right,92.32259181410973,83.18489908678384,68.84293862852064,80.30856024489913,-150.54711850611238,89.23570406829276,84.0556052003958,74.06499528959102
2025-12-12 17:55:50.768317,Right,51.46220567400542,26.01084567806538,13.130726215153118,25.787104372197064,-11.0624311831034,35.7476228505202,30.33156173950192,24.05552200364764
2025-12-12 17:55:50.771386,Right,-53.03739529971335,-80.01077987665485,-91.77052494949021,-81.10787753077238,161.04779701084408,-69.41579765032839,-75.16178413865782,-80.08310801417974
2025-12-12 17:55:50.775333,Right,-17.902960351846332,-28.416551938062184,-40.484564233367564,-32.526330841037634,43.89543533934375,-20.896420720941023,-27.58067544001733,-38.075213265146886
2025-12-12 17:55:50.779347,Right,93.15562556737495,86.48007393682565,75.05248001178916,83.55693086255087,-142.8103797056774,92.41627261964277,85.84108704593291,71.52058049626066
2025-12-12 17:55:50.783367,Right,68.39098231994672,45.96723895102696,37.20866709521579,47.68664163367066,-49.030189476688975,54.382659120972676,49.54350975066882,39.103507074287336
2025-12-12 17:55:50.788356,Right,-53.6587398570116,-81.57732867058803,-88.5787495416771,-78.76147104823212,150.4737551597209,-70.88257396588233,-74.74530156457604,-81.65828323759342
2025-12-12 17:55:50.792401,Right,-52.68332586189376,-65.04247451465926,-73.28247793284027,-65.52192219532299,82.75353183378502,-55.46025780452874,-60.757669155096664,-71.71778768692457
2025-12-12 17:55:50.796430,Right,62.84312044046408,58.65485400127727,48.72457796044546,56.942049283452434,-125.69846808795774,66.6263173693369,59.54221523816068,44.07084513331938
2025-12-12 17:55:50.799411,Right,71.13614189959083,53.453992520153406,44.24056621985801,54.24674021953797,-85.37241312272636,61.950734040870884,55.297629243082156,42.97785488697264
2025-12-12 17:55:50.803427,Right,-49.1514423782877,-75.26596088344013,-82.81140451559259,-74.1331186720854,127.8100857103891,-66.56514986819093,-71.60506713466566,-79.35018057507114
2025-12-12 17:55:50.807411,Right,-79.85496277325387,-91.72551268871393,-99.14550839442381,-94.42581413550397,114.60938476018055,-84.74901975528519,-89.8266421908911,-100.8238475625185
2025-12-12 17:55:50.811457,Right,30.380925273383838,30.710073430178454,23.114775028017903,25.994815883828778,-100.58889777622244,37.7465279254011,30.75400185275703,13.608453830274811
2025-12-12 17:55:50.816442,Right,73.11445549557462,62.40187049965243,56.619212892706855,60.52710474711239,-115.14876948896199,73.76648485501028,64.79070644739932,49.02886134920118
2025-12-12 17:55:50.820449,Right,-29.217838467844985,-52.45894168318773,-55.97141031212959,-51.99839438680101,98.87929421404624,-36.65232620807001,-47.40999640000791,-56.95318770162703
2025-12-12 17:55:50.823415,Right,-80.04138593985044,-93.20107863476733,-96.87629513346474,-94.5389969765256,142.45654213114358,-77.21040360629468,-90.22236445119961,-99.10994796540035
2025-12-12 17:55:50.827487,Right,20.473766414684235,21.488608085339365,16.34413407444299,18.866755193588688,-64.3405006142766,35.86120663565089,21.398894636071418,8.535580549840233
2025-12-12 17:55:50.831496,Right,85.76786542942602,78.66128471381671,74.05299694121277,78.92205129131798,-133.14390573978017,93.90355623548294,80.64701953827353,68.71866860714363
2025-12-12 17:55:50.835506,Right,-8.150261780448318,-30.422344719547254,-32.79424982800265,-27.894429150630458,66.19198540036632,-13.590199396495336,-24.021701021672015,-30.831798008777696
2025-12-12 17:55:50.839588,Right,-87.45903630906321,-103.58906083490365,-105.14036303320972,-103.89348673810855,162.19595400081016,-88.38639434745983,-97.32751215759345,-104.90326676563927
2025-12-12 17:55:50.843585,Right,-2.4078147008424367,-2.857600961393473,-5.163642737246846,-6.582673929171506,-23.390383644058602,9.804946094754087,0.22400653723207142,-14.363766352136736
2025-12-12 17:55:50.848584,Right,92.89804426527257,87.7706640493816,86.07142169057988,85.57249343046169,-142.21351664549366,101.90091312421055,91.51517105484436,74.1468244339012
2025-12-12 17:55:50.851582,Right,26.45458851796002,4.54975198125976,5.355382924819423,5.215683069849547,29.025275486539613,22.13622599877317,11.918675167738911,-1.6269380926023587
2025-12-12 17:55:50.855576,Right,-73.08398774495595,-92.3597322822061,-89.91568268604169,-93.62215067052057,170.8354249397962,-75.39760470675128,-85.66666015852388,-98.21597945244139
2025-12-12 17:55:50.859581,Right,-18.771151546385,-19.792315862836404,-17.467655193588143,-25.09773811721061,18.599721849301204,-6.995554993100086,-18.023866606087267,-35.55348859829974
2025-12-12 17:55:50.863600,Right,86.6662699153519,87.61861140876863,90.5109396855114,82.75043928211926,-142.34342122106318,98.80137566861868,88.06180048884107,68.63899105290693
2025-12-12 17:55:50.867592,Right,46.86726531083377,32.76897754659876,37.715952302736696,31.384248171481886,-10.349620311986655,45.79160709527105,37.14062580151494,22.98572254654937
2025-12-12 17:55:50.871599,Right,-59.95260956625498,-75.16265310856579,-69.46104598578313,-76.43902117458674,168.2001965335876,-62.0273121929381,-68.88614098877338,-79.66577765114198
2025-12-12 17:55:50.876623,Right,-31.973320835305913,-30.302513864988214,-26.465280356937,-34.31013922297461,59.34054831119283,-20.197089527776143,-27.099715758341972,-42.16717975361462
2025-12-12 17:55:50.879720,Right,73.11501378870753,79.176385186478,81.52309292077553,75.55666274216856,-134.36082848502338,87.65327383200781,80.33163663767118,61.57331220040214
2025-12-12 17:55:50.882650,Right,44.322554789388505,34.73075279724071,38.50667479048025,34.3313490561377,-53.05744341080208,44.65862642589792,38.19060400197759,23.654070243072056
2025-12-12 17:55:50.887749,Right,-84.3914281564821,-99.52443547734401,-93.2316098487754,-99.89208291320938,147.21869618469464,-89.2818415861669,-94.35603858900708,-103.5887587542893
2025-12-12 17:55:50.891637,Right,-88.69780020031521,-87.26099152976167,-79.88331507381372,-90.79292710300615,86.70059520629911,-79.7148134884168,-83.91997850659288,-94.82921476066258
2025-12-12 17:55:50.895638,Right,35.12618185268184,46.553473094272704,54.54964982549245,43.17425785144951,-126.7639491750324,52.64219512129853,49.5132293415578,35.653934256868524
2025-12-12 17:55:50.899681,Right,64.44689123231228,62.88655072736765,72.52761146625198,63.730272266391694,-97.89323750756557,71.18230682598244,69.84274824434522,60.25680514951455
2025-12-12 17:55:50.904700,Right,-38.553680073526266,-50.19081570477465,-39.726381343381945,-48.217597330243734,117.87408314385539,-40.221969049518975,-40.68575795778543,-43.97092728583448
2025-12-12 17:55:50.907717,Right,-63.94581736820828,-63.385101834124725,-54.81769064137097,-65.84678482710115,118.20596095324436,-55.63051769590879,-57.24499414817706,-61.81428714829235
2025-12-12 17:55:50.910710,Right,45.615989830615945,57.28652119967046,63.658910631043,51.53002441499302,-94.77237212072396,62.52509181076107,59.6797394396051,50.16730639064917
2025-12-12 17:55:50.916717,Right,84.32409812550486,84.21167019238055,91.32641876586877,80.14530971367822,-120.44172769620491,90.37453475940947,88.37957225034302,80.62740198419851
2025-12-12 17:55:50.920741,Right,-28.937885128030302,-42.371181097732915,-33.119590718783,-45.341521731628745,89.44849786731538,-35.263807238795835,-35.42903798965199,-36.97786455411915
2025-12-12 17:55:50.924735,Right,-92.94571018164015,-96.22812662516117,-87.15310362405035,-102.82226073976108,140.38467905605648,-92.37621522953305,-91.87198846885894,-93.46257827290538
2025-12-12 17:55:50.927756,Right,4.6764841718627395,16.767418172907128,23.803174801411842,7.073736242686209,-65.95608992303823,16.73992457687791,17.27934349661564,9.833403332551825
2025-12-12 17:55:50.931771,Right,79.20136916087085,83.95044168952427,90.58770132797508,76.56497332709296,-146.46994880059356,85.1237231026671,86.71644176951168,78.0314214234495
2025-12-12 17:55:50.935794,Right,-7.243152171218753,-18.542186203352685,-10.217683960793693,-22.790277426251123,47.62828964471737,-13.229833482916547,-10.243036240033689,-14.463472746221669
2025-12-12 17:55:50.938777,Right,-90.46393645945318,-96.94391325264223,-87.60819324320005,-102.87797851923096,152.51371415217727,-90.89245736060639,-88.13152649346057,-91.67264252789755
2025-12-12 17:55:50.943794,Right,-12.686231514896463,-3.3108077068472994,5.653685635897432,-12.287747365712676,-28.414849880156908,-0.13242469658871414,1.0841584810323184,-7.065519621197382
2025-12-12 17:55:50.947828,Right,83.31165088094167,89.18459876562974,98.34718128781427,81.59645155741327,-157.53839146706196,90.55620203327089,91.27643594148867,82.35590933880849
2025-12-12 17:55:50.951823,Right,22.66623386104584,11.730468865240255,21.679284677301098,7.242303305871246,5.309799052571179,12.810272916250142,14.717084304312266,10.657747944322182
2025-12-12 17:55:50.955838,Right,-74.56712724716363,-84.59101951273533,-75.66649619588907,-90.13351216314732,153.9348047096537,-85.6344886972538,-83.00243105902155,-86.19984576887327
2025-12-12 17:55:50.959804,Right,-17.924807905077614,-11.547111272376696,-5.4208294953377845,-20.124560358246526,9.025331624079627,-15.57470581022335,-13.969163779198425,-23.366258801346703
2025-12-12 17:55:50.963863,Right,97.1948666046028,104.23118898395933,109.11362759338226,96.59099493462872,-158.6698076681696,100.72902694965887,101.1401540496554,88.66071162061598
2025-12-12 17:55:50.966887,Right,66.3310669356124,56.89840781342127,63.24858391635553,52.22859881036993,-34.111108956967655,56.36272041448683,56.84219561478949,50.01968659772501
2025-12-12 17:55:50.970882,Right,-44.37000454781264,-56.022861620677304,-48.486333460286914,-62.21731631401917,152.71722787598446,-57.05839954076782,-56.298829568991096,-57.643965987726915
2025-12-12 17:55:50.975893,Right,-26.10658475395303,-20.551423991756337,-13.911844859388111,-31.319500558195614,56.00180026896669,-25.835095411609473,-25.82855656967058,-29.15449109617839
2025-12-12 17:55:50.979938,Right,78.03692260704247,88.70476643793359,94.67071727166604,77.91928714363735,-140.52008195274084,82.10797194647694,81.11045140625902,75.06249809193469
2025-12-12 17:55:50.984927,Right,54.34193194653653,48.02519812028993,55.219791604566126,42.17292495220113,-68.30656060415276,45.521548113853896,44.32708838851795,41.72487385013301
2025-12-12 17:55:50.988964,Right,-75.01320649908394,-90.09439831831574,-82.17251074461456,-93.44093354313884,136.54465586862443,-88.86799113515917,-90.17688953966444,-89.47274705548625
2025-12-12 17:55:50.991949,Right,-83.35461347293767,-84.1825424100582,-78.17024782150202,-89.5291152454746,88.87811119111575,-83.48352600361704,-85.70098748391229,-89.23406787277963
2025-12-12 17:55:50.994909,Right,43.67227353556609,52.62913429866728,56.4748342863586,46.78256776189906,-123.56442309277281,52.39347038139749,49.50227216998428,40.32490413835694
2025-12-12 17:55:50.998917,Right,80.46756893317706,76.81449441649079,81.34188496338174,74.18087306280569,-103.39249261542682,78.52925534897986,76.35641368092456,69.21200831900933
2025-12-12 17:55:51.003977,Right,-25.024621553807265,-38.79200755724446,-32.00063432176103,-40.027506915642334,112.7173124671317,-35.80075693080107,-36.976117388137936,-38.690093124242594
2025-12-12 17:55:51.007989,Right,-64.65408826327803,-65.5876431370043,-57.987365789336764,-69.51864099421687,121.34694650988331,-65.08753578354117,-66.54681956371678,-68.91144749735668
2025-12-12 17:55:51.011958,Right,35.8518849923812,48.03443699278296,55.31747370977064,43.017248213918265,-94.24858893548662,46.23526974402739,44.29437853947093,37.774265478472444
2025-12-12 17:55:51.015029,Right,81.85487532639127,84.04931577860953,91.95831072722467,82.5242222341576,-132.96296953004367,84.12577026163308,83.62038806553755,78.61313904434428
2025-12-12 17:55:51.020094,Right,-18.783305650007605,-30.00728628219349,-21.441089740363168,-29.311361112747363,74.86249550313096,-27.548069934990053,-25.565656628386932,-25.23788975289699
2025-12-12 17:55:51.024041,Right,-78.05407600742365,-80.32476066359959,-73.45543691351668,-83.05617678986528,138.3819946049298,-79.96315297210458,-77.48216196139765,-77.6935703486597
2025-12-12 17:55:51.027051,Right,21.18794177422933,33.68451487076072,37.66515740109389,26.82444156761312,-62.00189948262505,30.06373943033759,30.360977600579645,24.534733942183493
2025-12-12 17:55:51.032085,Right,102.13253625895959,107.15229349239326,110.4293135208136,100.65494329770581,-150.90537380073874,102.98611534819975,100.72980114531856,94.54162530408132
2025-12-12 17:55:51.036075,Right,19.638126264806488,8.12649634920399,12.701676477683577,2.9180652128898146,39.61550228321539,5.570244891092443,1.9713451443967642,1.3330686108266008
2025-12-12 17:55:51.040093,Right,-70.76401622683716,-77.38262685105383,-72.68471268075518,-84.94336473099975,155.52169840774877,-80.78169431004062,-84.96369930808396,-84.45794059640605
2025-12-12 17:55:51.043142,Right,-3.92914076604211,7.326231146207647,10.847698914274588,-2.4034854553137848,-17.62071005047983,1.6861824730967783,-2.3155592109978897,-6.6944897256091735
2025-12-12 17:55:51.047111,Right,87.10291329170559,97.93153241641994,102.10093124484774,91.26826201475524,-154.2948754765066,92.99775109485381,90.81616625699462,86.2229340370236
2025-12-12 17:55:51.051117,Right,23.855665218176,19.833362038561972,26.760407548714284,17.511134817496895,1.7250355831711204,17.32760403458269,17.728708804572307,20.856063866001932
2025-12-12 17:55:51.055079,Right,-78.18122610710543,-80.76266858224244,-72.53053439213181,-84.02375449620922,158.4333949825841,-84.04094750027434,-82.87040585949217,-74.68737614483234
2025-12-12 17:55:51.059131,Right,-23.402015075274903,-9.099418298614182,-2.366317836633243,-16.034666812056457,22.48816917322165,-15.46472292020917,-15.95257346517792,-10.959376105016418
2025-12-12 17:55:51.063102,Right,95.08451205577603,110.6607355440101,116.0688582111652,104.34698839300017,-151.59908256555718,104.79364290008925,102.53461700491789,104.84793483220074
2025-12-12 17:55:51.068174,Right,63.80568615228185,62.42965377591463,68.44370715248078,59.92855908891488,-37.561267774197404,61.306779831571475,58.50057211847161,64.88912100061316
2025-12-12 17:55:51.071189,Right,-57.08539745109374,-62.04198032255408,-55.90172304789667,-64.37318781984959,151.8096180958364,-60.04817929089586,-63.74772074151042,-54.10019442873727
2025-12-12 17:55:51.075204,Right,-47.31018936230066,-35.2439345570383,-31.161668228734925,-40.90286853866837,62.144901704465155,-34.383859992345606,-39.94009341196761,-34.46754645805595
2025-12-12 17:55:51.079351,Right,65.41901561293162,84.2851420201132,86.55877732240333,78.4529328012868,-139.66107467754227,83.59378181727152,77.81748849598625,78.92129299041699
2025-12-12 17:55:51.083156,Right,62.14343915430163,65.85905284612818,68.87417742624166,63.86143164265013,-77.06312040410194,65.42532946547726,62.5482871821514,67.21319504460462
2025-12-12 17:55:51.087271,Right,-55.55638662137153,-59.945731047449954,-55.40781859026538,-60.269054840395256,132.545506029649,-61.2906077770258,-61.12719786248272,-50.66764439019062
2025-12-12 17:55:51.092235,Right,-68.91124337511974,-58.73734856837473,-54.28552219840276,-61.15642813907107,97.687278828138,-63.37705983675187,-63.4725079579257,-53.78261741355345
2025-12-12 17:55:51.096267,Right,48.345549681516786,69.20908940965455,73.21008401079234,66.48949231180814,-115.53525390789991,63.0871605917946,60.454236104405936,66.64695644214953
2025-12-12 17:55:51.099252,Right,81.2382827542051,90.0615926715891,95.38573941901632,90.62807032994169,-107.93398947110563,86.43235490772167,82.55445663083083,90.62924880235732
2025-12-12 17:55:51.103273,Right,-24.289024521822284,-26.45931433255828,-19.560223129308724,-24.742943990489948,105.88657662329979,-28.58439581762832,-31.286789907622733,-19.497470189289743
2025-12-12 17:55:51.107250,Right,-61.14081075109334,-51.995909616589415,-46.133085327561275,-53.705066677865034,125.46334173365176,-57.526806408324774,-58.38089567781935,-49.52843650567229
2025-12-12 17:55:51.111278,Right,49.53655710250132,70.69103512591937,73.82485645778797,66.91862259003938,-85.48763390457816,61.333657833512916,61.62950617493334,64.2851185541549
2025-12-12 17:55:51.115243,Right,107.5100490277955,117.31992047428321,119.04646725670682,116.53601039033128,-130.59411573028,108.82651179717323,109.93417527965539,113.27464606525245
2025-12-12 17:55:51.119311,Right,5.6675091950446586,0.08422245064139133,1.4048523706187552,1.960164592570436,77.395847158773,-6.183345310997538,-4.073834513052134,5.049824297282612
2025-12-12 17:55:51.124310,Right,-68.47167964365417,-65.93868690903764,-66.60518085504373,-66.34362130631234,152.22203406984227,-73.85700985715084,-71.05673867346741,-62.27430090166854
2025-12-12 17:55:51.127332,Right,19.18035692169542,37.97297719395647,34.45289467541079,34.935657150397674,-44.57080645482938,27.31342692627186,29.974560614100483,31.63429799509504
2025-12-12 17:55:51.131335,Right,99.22327076787587,112.45945893074168,108.5518656266322,111.64142326464025,-145.12967923760925,103.84365865578548,105.7110932053547,104.31781650399716
2025-12-12 17:55:51.135299,Right,14.301450638095048,10.964233353937743,9.041718748474523,13.43501886166814,37.063193081328336,7.750749637401896,7.735571046585392,9.945537746532864
2025-12-12 17:55:51.139405,Right,-87.34679774041433,-87.33991335810788,-88.6085690050495,-86.12213457046892,159.38141123223068,-87.78864692155912,-91.63950039126757,-88.6344993625753
2025-12-12 17:55:51.143371,Right,-27.223219234182125,-10.70119626626365,-13.675183518185804,-12.375137544708195,-7.968963650544083,-11.598542521483978,-20.10066865445151,-21.798454292145834
2025-12-12 17:55:51.147387,Right,73.66610978662993,88.30507567825225,84.34744218537526,87.88434540380331,-151.52111824702502,87.92214566834627,76.82286182751704,74.58865439289366
2025-12-12 17:55:51.152405,Right,24.21185072880826,21.25802453137294,18.479043944545992,24.20336912851235,-0.914777834826964,22.514140341536404,12.17154609588215,17.001492491986937
2025-12-12 17:55:51.155421,Right,-79.8937928125024,-84.42025378588733,-86.33233386929714,-81.65090926681114,164.64151861471169,-84.03361317220879,-91.82329763876442,-82.7927318054717
2025-12-12 17:55:51.160442,Right,-38.50111880101667,-27.228524254136573,-30.069081155757885,-26.587519567247,37.344565148065385,-28.95800634861189,-34.68947977694734,-30.397839071782073
2025-12-12 17:55:51.163445,Right,74.97232001258999,88.12405159605987,84.5738688938145,90.5804137152154,-144.44743232946172,89.0621682199453,83.85451222761003,83.30089367354776
2025-12-12 17:55:51.167463,Right,48.447772748067564,44.59919727936722,41.689882947215665,51.678987453016816,-42.17174677692614,53.40749587953542,46.85359872871413,48.70715649462727
2025-12-12 17:55:51.171482,Right,-72.29642939630548,-80.98974935912884,-84.19110933443517,-73.12091827436598,150.19448598112933,-66.45326115994249,-76.42156171814531,-71.59287553941977
2025-12-12 17:55:51.175482,Right,-66.57885692768059,-58.93303678357006,-64.64398379351405,-54.34608565493727,69.70925682661277,-44.907590152262856,-59.169538680762344,-57.66040304461421
2025-12-12 17:55:51.179434,Right,52.47343640370377,67.21548915044332,59.52837425792677,70.77649236302568,-135.988956274234,79.21770322794146,61.77396069263159,60.16568413541245
2025-12-12 17:55:51.182510,Right,65.86219796160731,64.59084946407711,57.836989536037436,70.51056339947172,-84.35778244991798,77.74946063068273,58.31072706213308,61.05787625384983
2025-12-12 17:55:51.186598,Right,-40.97978751451683,-53.28289490142379,-58.22094613812078,-46.925201050433316,126.88398432225426,-38.11366656863902,-59.21226421564279,-51.97673819643751
2025-12-12 17:55:51.190564,Right,-55.20161440187917,-55.67471640122676,-60.61261141110663,-51.29399455152816,102.65849137148962,-40.760938939656626,-62.10346876109725,-60.10871273250814
2025-12-12 17:55:51.195568,Right,58.465429371577784,68.27722979136706,62.887713379386696,74.2274951964664,-111.02458085786702,83.06783587473183,64.13526658605042,57.48792019816756
2025-12-12 17:55:51.199559,Right,88.50934777669659,87.528692494996,83.85963164386703,99.60745416236205,-114.14319511149574,105.0280635068284,89.63551563571673,83.20438603289949
2025-12-12 17:55:51.203579,Right,-26.106441021337787,-36.62391766629116,-37.53909514022598,-20.83180096315664,98.33219170721031,-16.466735794130727,-30.151322305260692,-30.4934606146453
2025-12-12 17:55:51.206576,Right,-79.65187082204568,-76.84433757357328,-76.83050660194567,-63.263587057663244,126.8039104897548,-57.41711546357692,-72.18744779450753,-72.21513412153217
2025-12-12 17:55:51.210573,Right,16.764879165221245,34.88270118143919,34.5784901866391,45.8342355852601,-85.26093069773833,52.69722191071014,36.36589306539463,31.572939976951602
2025-12-12 17:55:51.214609,Right,71.39222428401345,81.43954588332781,82.21555686095962,93.57246528088399,-144.72381597040794,100.08005225040506,84.49098538545695,79.90135627095151
2025-12-12 17:55:51.218592,Right,-25.975782055691866,-30.16005586886422,-27.341927064127958,-17.467969818806523,57.20076136300531,-11.075174401552431,-23.99815885911994,-23.454842922586977
2025-12-12 17:55:51.223613,Right,-95.45629583393952,-92.22421940512686,-89.08275856668115,-83.76505521918989,142.55837617476618,-77.00657757024965,-88.00653082850113,-86.66271141080506
2025-12-12 17:55:51.227608,Right,-3.359503133944827,15.698679999582964,17.769043512384087,19.633315562585267,-46.16558045802822,25.64150062759836,14.91508910432458,12.689585132979118
2025-12-12 17:55:51.231633,Right,85.51798551800107,99.57872163296997,102.26189466903088,104.03050450867886,-152.13107396306395,107.94999077452849,97.81169370019234,97.09815634109327
2025-12-12 17:55:51.234643,Right,12.786890142291213,10.656603136992999,16.03651710503982,17.50867402085896,27.236175782689315,19.894941205292525,11.88873075148149,18.055636009030422
2025-12-12 17:55:51.238661,Right,-78.22701056538381,-77.18377340318693,-69.9581267184185,-71.37672673147244,160.41730150340572,-69.07839576123115,-75.15577333336114,-67.37105302682903
2025-12-12 17:55:51.242676,Right,-7.81325051679778,10.157787329591883,17.280397447015275,13.730237503734315,1.6753374495410753,15.611224954055615,10.307594716698077,12.015744484539027
2025-12-12 17:55:51.246680,Right,106.53334182982462,123.95492472376645,131.14756107144785,129.0309048022118,-148.87897363761203,128.91025474436447,125.5448144795937,123.94063196166462
2025-12-12 17:55:51.250636,Right,67.85967375084874,68.7153952528115,76.8808850867863,76.57172463606003,-6.035445351022645,74.54739423687352,75.27025442892591,78.17640977295014
2025-12-12 17:55:51.255711,Right,-38.95686006121878,-39.47735844624549,-31.621715777106147,-33.32762856239606,167.2603808741651,-35.76117463779974,-31.68932117890472,-25.026935758232867
2025-12-12 17:55:51.259736,Right,-13.907247257892323,1.9148892697758129,7.632459811971785,3.773423380296663,51.13303432076191,0.7239576967813264,5.542625731670341,9.334384643992962
2025-12-12 17:55:51.262750,Right,82.0601237667288,101.3299558199451,105.99108240280111,102.91250503708488,-134.25619168701178,97.51640669508288,102.4499985304592,104.2603054688152
2025-12-12 17:55:51.266749,Right,48.2128727019458,52.04515625340173,58.236390688871325,56.68776710636121,-41.71401808256451,49.087528934752754,55.19849504211925,62.080170362223726
2025-12-12 17:55:51.270761,Right,-68.37978379415472,-68.63512312762032,-60.99859216000914,-64.44658769110993,153.35635479566372,-72.03084484615965,-65.1425847570772,-53.44012416289115
2025-12-12 17:55:51.274771,Right,-52.60812334894126,-35.84322246209922,-29.087276768150332,-36.2599115733974,81.90351637571712,-42.97396429536957,-37.06209673500416,-27.935176872400916
2025-12-12 17:55:51.279839,Right,74.78671358276915,99.9458655229464,105.37948063346266,97.4497782926419,-126.90968994440482,90.28747257213718,95.50991732251077,100.9909918353078
2025-12-12 17:55:51.283802,Right,86.95754206643778,97.39217826787535,103.28400517701448,97.30051662478945,-85.83133161968453,89.01306239564383,96.52738581282847,104.88909648697518
2025-12-12 17:55:51.287811,Right,-33.019578790416745,-32.817284482091054,-26.2160576207134,-31.855985377316756,126.53926522946495,-40.453716962256124,-28.704729670110282,-16.431306953039893
2025-12-12 17:55:51.290838,Right,-61.950514179178754,-48.886942697998165,-43.4919229295956,-50.725030589349444,111.90892524295668,-59.51401451402546,-44.85719936777423,-35.65797638718141
2025-12-12 17:55:51.294833,Right,49.46376029544808,73.9244862388241,77.78562238918494,70.56035625376308,-104.01604046778084,60.78853495680255,76.07569768866233,80.3229297953767
2025-12-12 17:55:51.298832,Right,86.79553444426801,99.71647169323842,104.38326421404417,98.55345504158868,-120.3511461449707,88.58586370130888,103.63102479135705,110.33394751551168
2025-12-12 17:55:51.302865,Right,-28.445069026128294,-28.280100689658866,-21.583588133806188,-28.72181368858446,89.30819510463516,-36.62311509930487,-21.892944502074897,-9.280189655128197
2025-12-12 17:55:51.306864,Right,-94.40546452436047,-84.25540266758708,-77.11031145945708,-88.37884453322431,128.32765950983048,-94.01634608914856,-79.58829249450446,-67.88149981931565
2025-12-12 17:55:51.311874,Right,-5.29781748620735,18.778400555488588,25.455435469018994,11.92174090530807,-80.08368682075525,5.882799050359608,20.868320277970724,27.343859818185592
2025-12-12 17:55:51.315890,Right,55.314350427506724,71.08936649385123,79.0617858606729,66.5244850838684,-148.67925983900568,58.56446808592955,75.37709977168697,83.2434421300095
