timestamp,label,FC3,C3,CP3,Cz,FCz,FC4,C4,CP4
2025-12-12 18:25:29.334611,Right,2319.9486992839893,2532.563559421751,2332.817180167702,2227.0549480601894,1569.947714105335,2320.8903964186943,2328.5644068842685,2422.2361101039437
2025-12-12 18:25:29.351622,Right,12502.192472260094,13643.500088906996,12568.99762790733,12000.831737190274,8437.983643486157,12504.25447621087,12545.18213276711,13050.568440521249
2025-12-12 18:25:29.354688,Right,28665.457306568715,31266.31450217944,28808.13710004543,27516.19348895643,19323.264631690316,28657.41953290046,28749.706853001793,29911.792459686796
2025-12-12 18:25:29.358644,Right,35867.633415073564,39084.86453563503,36020.4299886206,34432.42819256871,24280.101041662805,35823.655378814496,35936.82294298993,37401.01734067983
2025-12-12 18:25:29.362648,Right,24314.742385262223,26424.87185727044,24374.356974931623,23333.594608287945,16848.224666273032,24218.08575635516,24295.815813249945,25308.317271110427
2025-12-12 18:25:29.365619,Right,2850.2917462368205,2957.2073693424754,2787.8133261677576,2677.486362985568,2674.9672047254426,2716.0563714513264,2736.4116310776735,2887.344488443079
2025-12-12 18:25:29.369678,Right,-13232.19962106424,-14619.842280425713,-13363.303449798696,-12840.618839489063,-8430.113796263904,-13370.277750660229,-13387.209640573274,-13896.42484703788
2025-12-12 18:25:29.373819,Right,-17210.356328323018,-18959.945946917636,-17347.556080735405,-16690.212638477737,-11695.608424009843,-17329.6040751267,-17356.587778488465,-18040.708367904066
2025-12-12 18:25:29.377708,Right,-12269.851782334095,-13534.665527347417,-12379.906814320362,-11897.034256827552,-8500.167354603473,-12367.38181483018,-12387.652942243149,-12875.83945408446
2025-12-12 18:25:29.382670,Right,-5292.179962185561,-5878.758590193815,-5363.026687586738,-5141.196147033013,-3427.286462723103,-5372.948301914788,-5377.172061269346,-5580.474902697373
2025-12-12 18:25:29.386772,Right,-1479.0471768777352,-1702.6728564200457,-1517.6706313772593,-1483.7513702916913,-705.7589406860061,-1548.1709319535876,-1537.3151045289123,-1588.3056857658084
2025-12-12 18:25:29.390791,Right,-2233.511571574607,-2533.567816816736,-2268.876229501795,-2231.580707371235,-1499.7735850345343,-2298.225513937534,-2287.0166827057255,-2372.642358209123
2025-12-12 18:25:29.393807,Right,-5432.088842514902,-6021.710476498469,-5489.473821360036,-5284.708665833226,-3780.3316079921788,-5498.449006439652,-5500.213644691161,-5712.759930408443
2025-12-12 18:25:29.397797,Right,-7551.890439448995,-8315.452489992487,-7622.150413132738,-7289.599044795032,-4939.964746379352,-7616.458193688304,-7625.632411572267,-7919.395461218664
2025-12-12 18:25:29.401806,Right,-6750.260870235506,-7428.001516910037,-6805.45708681189,-6530.972062044311,-4301.813990893657,-6803.627367410925,-6805.388616290293,-7070.744431046303
2025-12-12 18:25:29.405828,Right,-4374.959980414831,-4837.646898683859,-4410.8385990432,-4271.924717788701,-3025.606580057647,-4415.460201420705,-4409.316683224984,-4586.833018310368
2025-12-12 18:25:29.409795,Right,-3141.1334548793966,-3486.0315848684404,-3179.1703871764475,-3060.0725654112175,-2357.676890413626,-3176.518430162221,-3175.880452355952,-3302.780002994463
2025-12-12 18:25:29.414792,Right,-3932.029367515235,-4329.728934513405,-3980.779206382693,-3770.7737755739363,-2568.1601136530517,-3966.0193773073843,-3975.9299334235257,-4126.8125635273755
2025-12-12 18:25:29.418822,Right,-5066.725920503726,-5555.809745424427,-5109.465859016753,-4856.2850763838505,-3109.8701458584983,-5093.809398718877,-5104.955500129727,-5300.426767259953
2025-12-12 18:25:29.421858,Right,-4773.724923308124,-5239.9124003748875,-4799.685576058342,-4596.569021458272,-3221.37555741868,-4790.448883654899,-4796.853564507794,-4987.617621722864
2025-12-12 18:25:29.425857,Right,-3449.733691279427,-3793.494369226042,-3471.0650893220445,-3302.591967016575,-2627.1525815211935,-3461.40053977957,-3468.685815313249,-3609.1377934495686
2025-12-12 18:25:29.429873,Right,-2814.9271577086765,-3082.7489356850274,-2842.6375627347734,-2638.9159131465713,-1951.4926636320306,-2825.8888698526425,-2837.8525025522104,-2949.0130419298075
2025-12-12 18:25:29.433870,Right,-3437.493397951941,-3749.191844340414,-3463.5770347835496,-3229.4878290565684,-2044.3319537228672,-3442.9819810471963,-3454.037329096347,-3591.4531982288463
2025-12-12 18:25:29.437879,Right,-4105.312503245543,-4483.847568323137,-4121.028711338295,-3911.9977164574666,-2708.165870878496,-4099.448628704529,-4106.3874937488,-4279.927342838491
2025-12-12 18:25:29.441871,Right,-3658.2291941074654,-3999.139027626952,-3669.947859152453,-3491.5803621013183,-2791.688603503513,-3644.1287296857918,-3652.746857930906,-3812.4230567917693
2025-12-12 18:25:29.446853,Right,-2546.3214597441256,-2768.1397014295217,-2560.058202445274,-2381.8347515005153,-1915.3507775748149,-2531.8064514294965,-2544.6985511003295,-2652.1536775256973
2025-12-12 18:25:29.449924,Right,-2083.149520002422,-2244.4037992144004,-2091.737753973808,-1919.183369805105,-1215.375904425513,-2071.158598220558,-2080.7140643605962,-2162.9147911466425
2025-12-12 18:25:29.453853,Right,-2638.0566260737833,-2854.1717036529444,-2637.3561331977835,-2489.083894409705,-1651.6392395223957,-2627.3994268745882,-2628.8781766589964,-2737.7340582639445
2025-12-12 18:25:29.457918,Right,-3228.5367395579815,-3509.4151655416936,-3229.0562270683004,-3081.103460585,-2433.0890920648817,-3219.6951602196787,-3220.1395675949752,-3358.9323820550926
2025-12-12 18:25:29.461932,Right,-2889.4829743948067,-3130.3194822476944,-2897.3883012459846,-2729.349963679444,-2209.769759667455,-2882.4445311238524,-2888.305942067411,-3010.6452843333827
2025-12-12 18:25:29.465970,Right,-1914.9336263776058,-2047.3058198550716,-1917.986019855016,-1773.9735808556434,-1209.7320770182414,-1904.2618275185814,-1911.131829462247,-1988.8438493737485
2025-12-12 18:25:29.470952,Right,-1415.5258756066905,-1498.0737950394396,-1403.8708124017576,-1323.779661876848,-850.9114944402827,-1395.4861790196737,-1399.120779359946,-1458.5442382238107
2025-12-12 18:25:29.474975,Right,-1852.1110256095417,-1979.5955356211634,-1837.4996503540315,-1768.5518673681654,-1483.6015283380402,-1825.377604306792,-1831.8605536611285,-1912.1661271908088
2025-12-12 18:25:29.477985,Right,-2451.9903632339556,-2624.7144247577526,-2448.1486427923664,-2319.509374742629,-1941.8948754775338,-2425.9182315112557,-2439.830943746143,-2540.0403598180274
2025-12-12 18:25:29.481986,Right,-2246.7923367127078,-2382.1828114766395,-2244.9342767156195,-2094.461169521557,-1476.4591118961107,-2222.2832816881128,-2234.7120100414613,-2321.523901757202
2025-12-12 18:25:29.486018,Right,-1365.811890564626,-1419.1967035759008,-1350.8215954226907,-1269.436903869966,-805.9843801720999,-1337.4760358250933,-1338.7948819224257,-1394.9944720141357
2025-12-12 18:25:29.490017,Right,-852.298964251997,-872.4644667939283,-831.469476294471,-804.8757739127614,-789.9084992284188,-818.6002887813374,-815.3347937156213,-860.18126046611
2025-12-12 18:25:29.494024,Right,-1230.8327216113685,-1287.406475923257,-1222.4186635491205,-1149.0285585193196,-1160.245491717942,-1195.5507280214224,-1200.6844483674504,-1261.8278204725357
2025-12-12 18:25:29.498058,Right,-1793.455599784851,-1887.7781243504724,-1794.4783798120916,-1658.0072821943322,-1216.0857136668637,-1756.9939765674062,-1769.3565380994696,-1848.1914981758455
2025-12-12 18:25:29.503051,Right,-1610.0608191002393,-1682.8347651624354,-1601.1749500425067,-1498.0050297718262,-937.2211538241245,-1568.323618128663,-1576.081639987533,-1648.0776144014671
2025-12-12 18:25:29.506006,Right,-829.586279822397,-841.033389971708,-808.4186212272616,-781.4260343062924,-721.2708493720274,-783.0887359948829,-784.0965612855507,-829.4208166145254
2025-12-12 18:25:29.510070,Right,-419.1359278653981,-395.82703527086414,-402.81962260394357,-373.21162204048596,-638.6480252195615,-374.56958980532363,-377.918603174272,-404.89255369559396
2025-12-12 18:25:29.514082,Right,-764.8171871344093,-762.7429730778094,-758.9488948473008,-668.7138664936647,-578.1601285968209,-724.689486879739,-732.9067708014045,-767.113955662353
2025-12-12 18:25:29.518100,Right,-1183.3538272026926,-1219.1311134572607,-1174.0562466502888,-1080.5747774901101,-627.1158356188098,-1141.9635134463897,-1147.3131749721942,-1199.2322961332975
2025-12-12 18:25:29.522107,Right,-971.8546426153043,-1005.6700002289144,-953.1114766830578,-917.5054904104909,-761.2718988798442,-925.3038515887456,-925.4911971195834,-977.2392434716458
2025-12-12 18:25:29.526108,Right,-373.8697854864877,-363.007794480538,-358.31550579471514,-340.7917297708336,-644.5422032547649,-326.7332376423874,-329.23049948661355,-359.2607179158367
2025-12-12 18:25:29.531135,Right,-119.40834964660462,-74.20973785303067,-113.95793062081793,-58.08196472196141,-239.0987428270746,-76.76783760380931,-83.97698873415357,-97.32596502505476
2025-12-12 18:25:29.534152,Right,-371.01093003340065,-339.62490183726186,-364.36923943203874,-300.4138936745585,-83.37789946998237,-330.58912131539546,-334.8700105138705,-355.85527936945437
2025-12-12 18:25:29.537159,Right,-612.8277580819558,-614.1980109598371,-597.8414856816526,-576.7566037444049,-425.93184055999154,-570.7333422388765,-569.1317063937313,-606.1516912598745
2025-12-12 18:25:29.542168,Right,-453.5813560706447,-451.69233310740674,-441.00184659758816,-435.9074762436212,-661.2444473783835,-411.8528650983935,-412.4831013152143,-446.47590826038504
2025-12-12 18:25:29.546155,Right,-85.28994111419888,-41.531190194014926,-82.39156858739443,-45.19645187963033,-276.7727755837259,-46.82522581046214,-54.44507326494204,-67.5858265926945
2025-12-12 18:25:29.550191,Right,102.52492117491784,175.36796332988888,107.68867076653987,150.31319633877138,214.49534744152334,141.6458060296136,133.83951228181832,133.2577112436993
2025-12-12 18:25:29.554196,Right,27.583355597686023,88.11187477299245,45.87749704840826,45.11283487625769,86.86541126438533,73.03663194930414,69.79421463760082,62.7114226265403
2025-12-12 18:25:29.558153,Right,-94.91527331527323,-54.610098453529645,-72.01615360108553,-88.47149332656409,-354.89925606775796,-44.854257185041206,-50.416361422860064,-64.92439297557576
2025-12-12 18:25:29.561155,Right,-63.82639753096737,-10.609429521253332,-46.18658519373275,-23.921587556018494,-290.8281174553849,-14.83780026808381,-27.92957252173801,-34.77498818587628
2025-12-12 18:25:29.565224,Right,128.94560976006323,216.58272596592724,149.713004189427,184.50997310654202,212.76333385368343,176.79358776618028,163.9023810110375,170.6978303200449
2025-12-12 18:25:29.569227,Right,330.23476605149335,433.39250265678857,363.8340429029049,347.895292145462,364.0884484145208,380.6489636133774,375.729231482881,386.48040179042437
2025-12-12 18:25:29.574249,Right,376.5434526632307,468.6061533769971,412.188858160931,365.0187850043585,37.031218355856254,427.9210669071326,425.274007929067,432.01729508000426
2025-12-12 18:25:29.578261,Right,274.93386930113047,357.02698185034023,297.3002335861547,291.1945018993483,-83.60680548098753,321.8230001447009,313.3517391754733,319.2963624665099
2025-12-12 18:25:29.582217,Right,221.71557501440748,310.7217233562915,237.22570609879767,266.3145937573572,231.9841109954359,264.438207299645,254.84894214368978,264.85312668043116
2025-12-12 18:25:29.585269,Right,358.0896048243012,458.7521210937848,383.3977567132388,373.3441441990435,413.79935316495903,402.4342523712985,400.67953527820646,414.25762195303105
2025-12-12 18:25:29.589229,Right,560.1224312572449,666.202026435174,593.1763270420779,536.7516973112361,203.61028583828605,607.5965649935824,610.2161594664503,626.9885283996118
2025-12-12 18:25:29.593300,Right,606.4379726808111,716.1804052756925,632.0664293226437,601.7409954334726,100.66676875362828,653.0634115621506,649.6687450023019,671.7524894171511
2025-12-12 18:25:29.598321,Right,503.52418822588515,617.1045366105391,521.7839027222944,536.5967078383546,366.27477604906744,548.5665724515275,539.310855872609,564.821388886543
2025-12-12 18:25:29.602343,Right,461.9769094744697,572.6434335159138,486.5476708105998,479.23668993616593,522.594687085395,509.2912101742986,502.5704021913698,525.5750694927992
2025-12-12 18:25:29.606335,Right,568.0272349995503,671.3819874246255,599.1475963308767,541.827249810507,288.1591899641353,617.4386914401548,612.9729026381392,633.7151204386028
2025-12-12 18:25:29.610289,Right,686.0178619908984,791.1147389806574,710.0068045831285,663.2207912764279,146.47997910622507,731.5930137897958,720.9981359323137,747.8948708426324
2025-12-12 18:25:29.613298,Right,710.30396739149,826.3090237951255,726.4607271929854,722.9196147628245,440.2000572932884,749.484542843129,733.0377374968375,769.9971087463782
2025-12-12 18:25:29.617358,Right,702.9357071766281,820.862267534365,726.2293815803714,709.7102309304173,692.7589282113186,740.1603712456417,727.5641194381169,767.2028550619143
2025-12-12 18:25:29.621401,Right,723.6908030085033,827.6147940303781,757.3135239714757,690.4703730205656,468.72444000231917,762.0750624841894,755.0950574176968,789.9777142684907
2025-12-12 18:25:29.625393,Right,729.3553632354015,821.4380780652864,758.4668717100867,694.1907678865828,195.908060379792,765.6561321103363,755.0497131215525,788.2244359268807
2025-12-12 18:25:29.630360,Right,722.487398936064,820.0178319470724,741.4828007065225,721.7712065973901,403.4906788839726,754.5182445801911,737.1994953555404,775.0636224211194
2025-12-12 18:25:29.634415,Right,796.0950563233928,905.4102583297063,819.0675805308856,792.1056739535998,759.1444200328551,828.6383323116461,813.1196044434328,854.4200966648059
2025-12-12 18:25:29.638458,Right,928.2519217544468,1037.8402780179167,963.0768719443586,877.6017339620739,671.1754892074387,965.8765481049195,956.1412801494589,995.6062318566255
2025-12-12 18:25:29.641445,Right,940.5663743773475,1041.0615630380344,974.5368408275535,877.2983239163877,345.65513540135,980.0986706019612,968.383741410682,1006.3219447957817
2025-12-12 18:25:29.645440,Right,796.7488584071398,893.4136760977563,820.2652778710471,772.707641451736,380.7527028846671,833.15766377002,815.1225248712581,855.9855025770376
2025-12-12 18:25:29.649462,Right,732.4368127328344,834.7341337989783,756.5065667291638,723.1085977801122,689.868254033383,767.3924729918363,751.167979878257,796.1927883606404
2025-12-12 18:25:29.653477,Right,901.1676441646414,1011.1258301967755,936.1892745571677,852.1745295140427,722.264845516358,939.0791945392266,930.9176766547607,978.680706525105
2025-12-12 18:25:29.657481,Right,1086.275454760762,1200.026043868973,1121.784304019413,1015.768667776254,491.7462498078821,1125.8391461949795,1118.5934545593336,1169.1858546674484
2025-12-12 18:25:29.662433,Right,1013.2653574454598,1125.2076985678868,1036.4008381362073,980.5821555699222,482.98559033940546,1050.1668500384549,1035.9245653895196,1088.082642375608
2025-12-12 18:25:29.666491,Right,798.8375460557872,903.4651213195175,817.1966173649998,796.348881360027,694.4708275999292,833.8981551664183,817.6311766861472,865.9555300963111
2025-12-12 18:25:29.669516,Right,786.8846476849867,885.3788564018905,813.4479625751264,753.7263740781927,676.8142491459148,823.7139178814832,813.2903707307996,855.9264696162427
2025-12-12 18:25:29.673531,Right,1010.6493277334375,1114.2456053857459,1039.1376687660813,942.182736473158,452.2803975745337,1046.961574644898,1038.7359257208882,1083.3378743689973
2025-12-12 18:25:29.677544,Right,1144.5684658788377,1260.2168134945678,1161.210955733317,1097.1311590955593,492.53835642850026,1174.1973268821603,1160.840763228247,1213.7989767984254
2025-12-12 18:25:29.681544,Right,1011.1670889520319,1126.2950332447654,1020.7085370013956,997.4615726475604,770.774889972643,1034.2274477909086,1019.3818617934594,1073.5975789083168
2025-12-12 18:25:29.685582,Right,828.3644647051115,925.3868402154185,845.6961326578166,797.7305304388283,750.5629174602218,851.0884355473099,842.7877366608009,887.2964845807292
2025-12-12 18:25:29.690556,Right,850.9912850199034,936.6619810471311,874.3835867827293,785.9343957275851,415.9786665184656,875.4267231046688,870.6075148829259,908.8497834206792
2025-12-12 18:25:29.694577,Right,1015.752715549781,1116.3554180001374,1031.7289145352552,961.9437487262767,379.509171737358,1038.1112947935471,1027.6937164526898,1072.8832514940295
2025-12-12 18:25:29.697587,Right,1091.4061003908282,1213.7028560559265,1101.2701791633153,1069.4392381244106,759.1447461632779,1111.225730476901,1096.3355547720566,1149.6828737951582
2025-12-12 18:25:29.701602,Right,1009.1866798296105,1127.6353955726372,1026.8621585228248,978.461843309924,894.2084389360389,1031.37870429561,1020.1570210872451,1068.1984617287526
2025-12-12 18:25:29.705613,Right,892.9385820379248,987.669751200825,918.5762573892716,833.8048090670491,518.3709329827689,918.6306070440914,910.1111843200633,946.3196688356111
2025-12-12 18:25:29.709624,Right,866.730681469664,954.1004117454868,886.2505620480515,820.1305867396295,281.48440332815517,889.9105954779079,876.0923755874392,911.3331970811123
2025-12-12 18:25:29.713627,Right,947.2772714158054,1053.6242604150902,958.7569939763052,934.0685990696074,612.2199309821008,963.6907353902934,946.1867830976844,991.3675463788677
2025-12-12 18:25:29.718640,Right,1053.8477068485226,1174.096761548426,1070.8664999228204,1029.3341068888549,943.0013523246162,1066.4327444006922,1055.789508040878,1105.6448083921568
2025-12-12 18:25:29.722657,Right,1062.0700729690725,1168.581646793522,1087.4966764949495,997.6308620397467,710.0228398480685,1074.031891466002,1071.8514027642086,1114.893328998587
2025-12-12 18:25:29.725675,Right,933.1002753722714,1018.1472112846095,952.7984996109735,872.9216914334102,339.5695925859036,942.1344143261667,938.7449830041733,974.8962059086189
2025-12-12 18:25:29.729669,Right,814.4717260068282,898.9437108067796,823.4687543686014,796.0226430778857,466.62645753566176,818.3195417156676,810.634524713736,848.7974774753675
2025-12-12 18:25:29.733629,Right,882.0019411734538,981.8927780212834,894.4531311012106,865.1738154527266,825.6021281810245,883.9327641106211,880.8818433070555,923.8864242382115
2025-12-12 18:25:29.737701,Right,1057.7410665559582,1164.0339310194831,1081.482739406405,997.2648068509297,783.394105196232,1061.4090445784386,1066.9936898602173,1108.381882798276
2025-12-12 18:25:29.741721,Right,1071.6053779355716,1168.6285852589644,1094.1417886973359,1001.5377966124797,470.36998527590185,1075.501430074335,1080.6833311147057,1113.987651639618
2025-12-12 18:25:29.745788,Right,869.1666425555013,955.6338552357629,881.0532827314455,841.6638497619424,465.87535918783396,871.5114561233204,869.6239532968029,893.6883805277757
2025-12-12 18:25:29.750780,Right,732.8335837898776,817.333331505768,744.8225291447015,722.1982321138494,720.6628289229702,737.2047909541288,734.2714858553372,751.5650217657676
2025-12-12 18:25:29.753766,Right,858.0677963104099,946.0550684353802,880.2240466377698,807.6519765666453,721.7243815329857,868.0249606758589,869.722699501086,885.0419248789549
2025-12-12 18:25:29.757737,Right,1034.566296587116,1126.0575466433074,1056.6582261334406,961.0799277706537,492.18813350680284,1046.4538292688085,1047.0829574735835,1065.6783528777305
2025-12-12 18:25:29.761778,Right,970.0182397642639,1060.952046531951,979.6700200154446,933.3514176165918,504.11665382399224,977.6476466639433,971.8514090051176,994.1166422960814
2025-12-12 18:25:29.765772,Right,750.1181653146632,832.894539981382,754.5348455408821,744.75592118036,730.0867552421987,753.7284055314958,748.3909217711771,768.828510964755
2025-12-12 18:25:29.769789,Right,691.5471084136516,763.2596714443062,702.3690570319304,658.852203462855,694.5009566812078,695.3785132684279,698.4162693505641,714.1602778583765
2025-12-12 18:25:29.773802,Right,841.1320447941544,911.8293031016365,851.2437226378825,777.1848153219325,422.6082174408948,844.8292185935425,850.892707017134,867.6887645607349
2025-12-12 18:25:29.778818,Right,933.9717463138513,1015.5802218238823,930.3023332577432,893.6812320417957,428.22908910305705,934.0688591531944,933.75612917752,957.2615790115669
2025-12-12 18:25:29.781812,Right,831.5028321313439,918.3958736569621,820.3398214746267,825.3128179466585,719.7789460016647,829.5413668572437,825.7238068744773,850.5216767385136
2025-12-12 18:25:29.784841,Right,699.9526791203534,774.8040355222765,697.4901549558854,676.6588870203122,735.2069425426889,701.1806473948527,702.8138854830759,719.1754361956846
2025-12-12 18:25:29.789841,Right,699.719876493793,760.6320148713421,705.2177735018777,643.7874746066518,396.0565086241113,704.4131632668432,709.5632463614456,719.2354200194823
2025-12-12 18:25:29.793849,Right,758.9929762699176,823.6440917951986,759.7223301333142,717.367960046744,302.22269872715697,762.2972683737753,761.5685615665279,776.1192981571658
2025-12-12 18:25:29.797861,Right,755.1772284701001,831.9458749648184,752.4296412881231,745.1607943075942,637.1603586802958,755.635562921525,748.951450183522,771.8778416929999
2025-12-12 18:25:29.801883,Right,709.7801278490806,782.8622763759922,716.5410311486339,684.6412538671866,797.1878734306665,711.147146718693,706.4903193102218,728.0104371254565
2025-12-12 18:25:29.805827,Right,686.299156091758,740.9072622361127,701.5120848006336,624.7608239739202,476.8061979463091,689.9120063718874,687.1993604865856,699.8615027099149
2025-12-12 18:25:29.809894,Right,663.6984959796537,709.734982291935,672.4781363408547,613.4386011948809,235.03765965241473,665.7495097669307,657.0531689027557,665.9866164880805
2025-12-12 18:25:29.812899,Right,624.7128884942504,679.6980723508168,624.8529369755415,615.112954123877,484.18295678682625,623.2046850434272,609.1457213066751,621.6208255999954
2025-12-12 18:25:29.817917,Right,623.0539889220381,684.4720940359402,628.1968277886044,610.0170676263515,745.4651694719214,621.1593893026002,612.015166989062,626.4200734724291
2025-12-12 18:25:29.821922,Right,659.7471735746367,712.6644066555891,672.939151871833,607.5962208169512,532.8480664052768,659.3164115867112,657.7801483954536,669.918827659334
2025-12-12 18:25:29.825991,Right,636.2939559873194,679.7669691062765,643.5788700170815,584.4558877367526,231.22772129869554,634.237803780823,631.6312049909029,643.7834899292793
2025-12-12 18:25:29.829900,Right,531.7052057526307,578.3018005649792,528.4010686938418,521.1999406570103,366.3568263397319,526.6039906137157,519.7329456941225,535.3329130169004
2025-12-12 18:25:29.832965,Right,477.2004478473682,530.3633031782228,477.6411490495084,473.84954430744983,642.4953833249165,473.2865982579533,470.5660025884863,486.18963527097367
2025-12-12 18:25:29.837056,Right,541.493154381169,592.0595957015175,553.0290005486459,498.8884689816041,519.3893910881598,541.2817470403388,546.7593388829846,557.4311338757398
2025-12-12 18:25:29.840922,Right,593.5543120070361,637.9442062651506,602.5527509168023,538.1958721800474,220.85808811197057,592.198127638665,597.5461259778822,605.0407026882749
2025-12-12 18:25:29.845986,Right,516.3010273921536,560.5948094115593,512.3520250631263,496.687249952578,294.3562051668996,508.95875502505805,508.41369985509664,516.8988381938543
2025-12-12 18:25:29.850005,Right,410.87749638198875,455.7620160151273,404.9367524809204,406.6861880958313,574.0957111547468,400.9260683989851,401.0294072846882,408.9250299654668
2025-12-12 18:25:29.854019,Right,422.4881473936839,460.7712785699405,426.00649190112017,383.7771935759811,500.71984561439604,416.02176803932525,422.0487909523072,425.8660499145044
2025-12-12 18:25:29.858027,Right,491.4606022363296,523.0199805466691,495.4941902142018,433.58623725001235,183.8038530118065,487.4389220024459,492.36708116019145,495.10722225892823
2025-12-12 18:25:29.861042,Right,469.15164048958104,502.5435241574887,461.7310917144641,444.58729149389546,198.9152845540084,462.0032006355468,459.10966056771576,466.55021056265105
2025-12-12 18:25:29.865044,Right,380.33203230262734,415.72441776434425,368.8043662295677,379.55743617820553,498.9762341636233,369.46988795278594,365.2740566295106,375.8749312260188
2025-12-12 18:25:29.868999,Right,360.30684806755744,386.15158625354525,356.66714873630553,327.35336178261787,493.26531445409637,349.3927625278011,352.6788222277537,359.5656747185858
2025-12-12 18:25:29.873062,Right,401.32731978816446,413.5370232424466,398.6720538720256,335.53061498329043,157.08515446889214,389.7927431553835,396.84672934154514,398.91541951859836
2025-12-12 18:25:29.878094,Right,382.40554199856706,392.06518331635743,367.3648379027145,337.14799042243976,90.04082993755583,365.63928218453657,368.7985380575992,371.26716805202886
2025-12-12 18:25:29.882085,Right,310.0452249109512,324.8723183121765,288.2013345727464,292.27904831501655,401.2510515844915,287.52587663324084,290.54809972888324,294.71954368951265
2025-12-12 18:25:29.886107,Right,302.7637304197997,315.05259682866745,289.4822830760386,262.1293379764538,501.202523484244,278.4280578343896,289.67891890066676,291.39591212873347
2025-12-12 18:25:29.889121,Right,350.93999980343506,352.7411205152748,344.42885396652855,277.8856167703634,192.97994546603877,325.33915974386036,341.63849112635944,340.9014120452339
2025-12-12 18:25:29.893125,Right,322.00845296285115,319.1728294424247,308.3773325912189,269.0757481394103,31.373434161534533,291.82359673827887,303.4776813174831,306.23558747931384
2025-12-12 18:25:29.897149,Right,217.34310322697274,217.9584350233199,197.63471382274292,202.1412314096233,288.08444214158226,183.45280757255387,191.54193558183033,199.55935751565266
2025-12-12 18:25:29.901182,Right,191.71181581402197,191.7663248613244,179.9588151447242,163.03412943368312,456.64597388985567,159.85048756643664,173.7572675421834,181.25878513755742
2025-12-12 18:25:29.906162,Right,272.91628066822886,264.9296488306718,268.941105215461,204.651252677897,206.93789103603922,244.692880861694,264.3103954870021,267.5229238678003
2025-12-12 18:25:29.910128,Right,293.875002774992,280.3698707552394,282.3470416574273,232.62656515080016,-7.8088954949053,264.44154498702846,280.03521819389425,281.8635283068288
2025-12-12 18:25:29.914205,Right,183.31898279616144,169.91673734143842,161.56446430284996,161.52508203301113,184.48803918308113,150.32808810926508,160.14009218197316,162.2429615521105
2025-12-12 18:25:29.917237,Right,99.40964945487212,83.06529006594792,82.32952380285133,76.1735674716765,379.38492034521187,67.44616680848412,80.02652250498068,78.93019377323799
2025-12-12 18:25:29.921216,Right,157.04952735744882,133.58576692990027,149.82791049475782,96.21311469376087,173.28313014883315,129.76025679893792,146.90725957474206,142.22670350514818
2025-12-12 18:25:29.925232,Right,228.54401237145066,203.94846521667205,217.70631477050483,167.22937461634865,-66.07438373519108,202.84038882586174,215.42925033922074,213.37788731546607
2025-12-12 18:25:29.929252,Right,167.26908488222398,147.99712131428532,146.24173340888228,147.00447330402676,103.20168689405546,139.65796574269189,144.34164609131403,147.77434194489615
2025-12-12 18:25:29.933257,Right,54.15780718525639,33.3481160159572,35.30871097772615,43.621667708968744,350.15113282506354,26.879774988803547,32.58862083579879,35.36369541165186
2025-12-12 18:25:29.938287,Right,44.37864397955127,12.579364348202944,35.41674502304522,-2.337312193296384,185.8140020754072,20.357549644366372,32.490346714970656,29.62255209760042
2025-12-12 18:25:29.942272,Right,106.04446561535588,69.64610761357471,95.47816302243154,47.21405587432673,-106.35364806302823,82.92390603275271,94.44710623368155,90.57534645212581
2025-12-12 18:25:29.945297,Right,102.54304281278746,74.79591467307182,81.26775052613812,79.12681216042256,11.202184622350615,76.94629589130636,82.5731932122726,83.32468100648839
2025-12-12 18:25:29.949300,Right,34.649588396714535,12.19548691669479,12.620591132785194,28.273615577432793,314.06975909660105,7.836739256337751,14.625378734839614,16.117036516719963
2025-12-12 18:25:29.953330,Right,6.503411585697904,-26.603362517547794,-6.775178035022691,-31.666763570392504,216.22206171398284,-19.795838963007554,-5.226522872573696,-9.691476647916716
2025-12-12 18:25:29.957329,Right,22.218798961606808,-23.303314854449127,8.228020951035433,-34.33738565380918,-134.5824251958984,-7.238960187183693,9.126295495429076,1.3502658025827259
2025-12-12 18:25:29.961335,Right,5.824531453079544,-36.29704438801855,-19.539085226657335,-18.649926374549977,-112.26225272618467,-31.24407563265413,-20.324229870573618,-23.70381151197944
2025-12-12 18:25:29.966339,Right,-30.324654897965956,-62.043043281068094,-58.05486870446475,-30.90091649221722,233.4839744347264,-72.50763140554773,-62.136178690125234,-61.94530594552634
2025-12-12 18:25:29.970369,Right,-19.930869017727673,-53.98860044538742,-37.077364864584524,-48.98613766947528,261.8880252283416,-61.2047196571948,-44.249664499482606,-49.149151642399374
2025-12-12 18:25:29.973368,Right,-0.08717017073649913,-46.945926245593,-13.27116937970277,-56.205162740079686,-84.358405701234,-39.96282811765559,-21.551790547498967,-34.50345524220029
2025-12-12 18:25:29.977384,Right,-51.58518587611616,-103.70895863842452,-74.09793046995765,-82.57416683863266,-182.73413440742297,-94.00647664506687,-83.09117070466164,-98.11436380853411
2025-12-12 18:25:29.981391,Right,-120.39224560430739,-167.94433290223242,-146.4753918472852,-122.34686743328348,119.4865457166452,-165.40342667890945,-158.72656301464303,-171.6783275177586
2025-12-12 18:25:29.985417,Right,-91.7900460191886,-138.9856806829921,-106.20477830193704,-117.65632242531865,239.69012774113799,-135.67508245975478,-123.90394505125005,-137.181153720594
2025-12-12 18:25:29.989412,Right,-15.422684678254882,-69.63593268406112,-20.867890222376445,-75.39427739701932,-51.64889985049376,-58.39762995185447,-43.20261293271324,-58.03301734023262
2025-12-12 18:25:29.993371,Right,-45.581393033528,-102.31464231849532,-57.237192272092216,-85.59311793799861,-222.59822331860778,-91.89162494053016,-82.3257789243653,-95.26357842810103
2025-12-12 18:25:29.998446,Right,-164.13173553330125,-215.42666097957408,-182.04170178153436,-164.09217092065956,13.749047801655252,-213.83382966928184,-208.90013638071832,-218.95792111058836
2025-12-12 18:25:30.001448,Right,-190.82723915477982,-239.32247216829273,-201.7970256775734,-200.37091292234254,178.10765793395694,-238.54054856592847,-228.7716155379312,-240.04535332566593
2025-12-12 18:25:30.005458,Right,-94.5769693213224,-147.1133618136082,-99.20660300459713,-139.91709795882343,-55.97002118630917,-138.08214411632798,-123.16663465647434,-136.94201445259387
2025-12-12 18:25:30.009466,Right,-57.897296707567875,-113.24472039475222,-71.09219456322899,-93.19630413819687,-252.91250536160078,-101.095154011884,-90.18377712502843,-102.23411677466356
2025-12-12 18:25:30.013481,Right,-164.44216675630014,-219.0235752722656,-187.73203981519327,-157.7776299717807,-53.48163948580623,-209.21496548625146,-203.47128780193452,-212.7523981497652
2025-12-12 18:25:30.017486,Right,-254.2894712290581,-312.01515704051417,-271.46598452048784,-247.3285738146442,139.41997256834293,-296.1832042912065,-286.6965148242525,-298.51837025075656
2025-12-12 18:25:30.021510,Right,-202.49320677180367,-266.48888048785193,-207.30592582876125,-232.64194554505957,-72.10317140788538,-238.1543360228752,-222.8857610475534,-239.31021597102517
2025-12-12 18:25:30.026561,Right,-128.63619504327653,-190.8182196024709,-134.23856578979758,-159.47227873633528,-315.39753985030984,-161.33609002458456,-149.11401134353582,-164.43525719779427
2025-12-12 18:25:30.029501,Right,-177.83646756739472,-230.30382584468316,-191.6322338255518,-167.3270601689428,-142.89606358925812,-211.066898967445,-205.35520187663406,-216.11899338647981
2025-12-12 18:25:30.033533,Right,-275.6164638198243,-325.803002809851,-286.72840508773515,-254.08450721935696,114.47018005278369,-307.0251229612768,-299.78931886450664,-311.53831848730624
2025-12-12 18:25:30.037569,Right,-278.47650779664946,-338.3265197654109,-280.42395703944203,-291.8290937777674,-42.92141187848756,-305.56771175669564,-292.68415676100994,-310.6253914627232
2025-12-12 18:25:30.041496,Right,-222.6981543536749,-288.2365113809501,-227.69027337089938,-248.71599913665705,-340.5310496626189,-249.1761280932551,-238.7266269711181,-258.53302989454824
2025-12-12 18:25:30.045580,Right,-231.794289038,-289.5582220474462,-249.07348145797732,-225.35252863087226,-232.44844891285902,-262.2023470639251,-259.70694644434843,-275.13481699141266
2025-12-12 18:25:30.049530,Right,-286.8675952525955,-337.1246202040784,-305.479137021277,-266.89530617994023,74.14291083004355,-319.232187962436,-316.8844742546353,-330.92074250981386
2025-12-12 18:25:30.054601,Right,-285.8546949259471,-341.8210356727068,-294.5134065803868,-299.5593233375257,-6.2249627381097525,-315.5597277476918,-305.9514840742486,-325.2540427153872
2025-12-12 18:25:30.057579,Right,-249.66629580964218,-314.1815734808042,-257.1618979286286,-281.8031861753261,-346.5837868603667,-277.08148335517035,-266.49055135060917,-288.7041560537764
2025-12-12 18:25:30.060605,Right,-272.26784368454537,-333.54798537600436,-290.76730648821103,-271.56569454864075,-335.02113710689264,-300.3853959807893,-297.08400827657897,-313.75767499173526
2025-12-12 18:25:30.065609,Right,-325.4441789900593,-378.9384012890223,-348.2214914216893,-300.1133647710085,-7.249839034459001,-353.08234397906926,-352.2773364200257,-362.25866283421055
2025-12-12 18:25:30.069637,Right,-310.01591057833866,-366.6279116777878,-325.10859139618697,-313.0835791073623,20.321575997379114,-334.36958940152545,-327.2365951958054,-337.2783099662629
2025-12-12 18:25:30.073648,Right,-258.1636257225473,-324.55676388312713,-271.75789245864144,-288.7538149775937,-307.33687165267474,-281.79920579100144,-271.2252679806552,-284.2863912981411
2025-12-12 18:25:30.077656,Right,-284.3474455480464,-351.5313623624388,-309.44460379562224,-289.3018675938656,-390.0008045007489,-312.42354675149545,-306.4804662495444,-319.02587750009843
2025-12-12 18:25:30.081659,Right,-362.50852224207483,-422.56054007442435,-393.99886611895636,-335.83871464969707,-92.21039946444944,-394.2905906919623,-390.7690696910431,-401.51606186677236
2025-12-12 18:25:30.084673,Right,-359.6099971094227,-418.74022670200793,-382.8087322403444,-353.66352928816923,13.670397326801321,-389.4692281661846,-381.0612539264839,-392.9202146601456
2025-12-12 18:25:30.088674,Right,-282.3500006371178,-347.07297367049614,-299.33626295175054,-309.3763148849539,-277.6902585245698,-308.5847756937728,-298.47059232828906,-310.68611987974145
2025-12-12 18:25:30.093636,Right,-276.6651707064302,-340.69844582933,-301.34129306307295,-284.79409094824223,-427.8276279299607,-302.77150245569646,-299.9645545606036,-307.1619516525534
2025-12-12 18:25:30.097761,Right,-365.015185187076,-421.7141169721144,-396.23735656921053,-333.78232346629375,-169.6611845510488,-392.25526660104515,-394.1528629399836,-395.7155367024243
2025-12-12 18:25:30.101820,Right,-400.84152165136766,-456.6322042750544,-423.8340693397913,-378.18718367489055,-4.081065258025774,-426.3673444678425,-421.22839881980326,-423.88789463357534
2025-12-12 18:25:30.105784,Right,-331.6593178402982,-394.31647211225936,-345.12816794216633,-343.8961415604572,-253.17910410719924,-354.97116684837965,-340.93788014468737,-348.76613232539967
2025-12-12 18:25:30.108768,Right,-292.7214572628145,-356.4872730235802,-311.1450410593534,-296.2259529961739,-454.4629785431316,-317.25522361835465,-303.9572171776672,-313.0602059244993
2025-12-12 18:25:30.112769,Right,-359.71451206697384,-415.536427475221,-386.60035976581275,-324.3113208526629,-233.3650612643396,-385.6602388798492,-376.6854310341878,-383.66778048919514
2025-12-12 18:25:30.116750,Right,-414.7185905969818,-466.64384854817763,-436.6536400610348,-381.74200724140974,-11.830411790782819,-436.2315950821503,-425.40752296568826,-433.61303242872236
2025-12-12 18:25:30.121746,Right,-367.14603356987936,-424.0647961497307,-379.2705745443236,-372.9822229949059,-217.89690555646666,-379.95225160510745,-367.29223509377334,-379.4816690207226
2025-12-12 18:25:30.125784,Right,-316.51048074744176,-374.52839751314605,-331.39634578913683,-324.8393795964075,-478.3480261846853,-323.1416731690406,-318.8395587221603,-330.6936406294117
2025-12-12 18:25:30.129784,Right,-360.7369201600668,-409.5224784020684,-384.45272183348425,-330.36959831236163,-313.6083527135197,-365.08200678264257,-372.448618899507,-379.633385111345
2025-12-12 18:25:30.133813,Right,-414.85097320604837,-456.9155712921056,-435.82972049957607,-376.1814209316508,-36.42048652918311,-416.96598195901606,-425.70827702316456,-431.2175324287382
2025-12-12 18:25:30.137806,Right,-376.35709932190366,-423.5924006860587,-388.07716645055916,-373.65343377250247,-168.78752310932032,-376.63125705107814,-379.57992693327833,-387.2820136238006
2025-12-12 18:25:30.140811,Right,-320.09031115233665,-373.5292899864726,-334.2988193030469,-328.0543294305098,-466.1393948798068,-323.22317683137953,-326.1993459499208,-332.70511697488837
2025-12-12 18:25:30.144776,Right,-355.55453293019673,-405.04667197942035,-380.1212648382643,-326.2098076067632,-374.9562492292025,-364.6228632289567,-372.478217691998,-372.7607430392527
2025-12-12 18:25:30.148841,Right,-418.0973834710894,-461.3284541609464,-440.4872262842837,-369.8121911623748,-67.33156728505855,-428.2369615723146,-434.7414572489215,-430.9803476270754
2025-12-12 18:25:30.153860,Right,-389.04962784593226,-434.26746032660594,-397.3904067951371,-371.1619978037779,-117.74906605039723,-392.9935085886391,-393.87822849687655,-391.0881748686079
2025-12-12 18:25:30.157878,Right,-320.93433740199544,-369.7586561727803,-325.22493028937606,-320.96220196486684,-429.5540295515966,-317.9899926194921,-321.7801014109864,-318.90449242660543
2025-12-12 18:25:30.161874,Right,-342.6399057332892,-387.0522040562937,-357.6757457291242,-310.80810037837364,-419.46513911001966,-336.2999587676604,-351.6829567839741,-345.06783956027357
2025-12-12 18:25:30.164908,Right,-416.4909350137459,-456.34364092792384,-438.07949596695835,-362.1860347551992,-110.12990124261705,-405.9951838037232,-429.0326727143256,-421.46608203212963
2025-12-12 18:25:30.168902,Right,-402.7459781965008,-449.5742762244772,-419.87440013856394,-381.1902569490485,-83.13452238496393,-383.8807601717417,-408.5090703347232,-406.08544497098774
2025-12-12 18:25:30.172901,Right,-318.6575345660094,-376.06312558078207,-336.39615743240574,-330.0814320280915,-384.6034807600663,-291.44227189110825,-322.66779979743296,-324.18971881549805
2025-12-12 18:25:30.176920,Right,-311.86798545956844,-367.68699655286036,-340.64036956743803,-299.74321906245314,-439.0988063561963,-280.51912094122963,-324.64297695294954,-323.1315570352017
2025-12-12 18:25:30.180934,Right,-392.60660617944086,-438.13239477633033,-424.51519255898893,-344.5318341406528,-133.63802743679844,-358.469632631226,-407.96223438932793,-402.35584178427234
2025-12-12 18:25:30.185940,Right,-416.7473907395615,-458.8699121280806,-435.4798606245895,-381.8813508566818,-34.58913001441397,-378.2356177075999,-420.08771321125096,-415.9558099202113
2025-12-12 18:25:30.189971,Right,-348.45958906941814,-393.85080196347553,-356.56032738572685,-342.3456155595486,-325.5196181877982,-308.1052559708478,-342.08497395471204,-340.24966915050754
2025-12-12 18:25:30.192902,Right,-317.11074583162554,-359.2099468448432,-330.80308652698295,-294.0174552666722,-459.2021499638795,-281.5453293174505,-316.33373670547735,-310.8930200479226
2025-12-12 18:25:30.196990,Right,-372.97945112286834,-406.12324943835847,-394.0026534742792,-316.28391247062245,-182.61138238577405,-344.647524347296,-379.93665230611805,-369.50358797144145
2025-12-12 18:25:30.200968,Right,-401.7733978376491,-434.79148023354355,-417.5992388656596,-359.95179266296327,-14.950464295630809,-377.10065910127014,-404.6565865666489,-395.8271261989139
2025-12-12 18:25:30.205057,Right,-346.326309200027,-388.55321003333665,-356.5895103311632,-345.17817943147384,-277.00615049671615,-323.7192925469717,-344.1639236736228,-340.4173839549185
2025-12-12 18:25:30.209009,Right,-310.1854753877851,-355.1337105486309,-328.64735571830533,-305.7343779352377,-485.85308920557145,-293.36636661482044,-316.06882279296406,-312.0083848463255
2025-12-12 18:25:30.213997,Right,-354.18650089757284,-391.4718873918755,-382.48136968759354,-315.0463436829159,-252.64075053943088,-344.95973263389897,-370.5653905632207,-361.817108278512
2025-12-12 18:25:30.218031,Right,-379.80883194861235,-413.8522878019139,-402.9683695161948,-344.85758083709516,-9.598441667447332,-373.8476481762482,-392.2253145085415,-382.85548023844603
2025-12-12 18:25:30.221040,Right,-322.2201197325485,-363.5745233632624,-335.3444066599477,-325.5604489145917,-205.77175768837333,-315.76169532805216,-324.1433103050804,-318.2634506402537
2025-12-12 18:25:30.225052,Right,-281.2883978126338,-326.61457457614597,-297.9087600054918,-285.59015184582677,-470.7356569056865,-276.26219114486594,-284.5629753137473,-278.27889962750487
2025-12-12 18:25:30.229062,Right,-333.0766577954637,-370.35274091316387,-359.53147601429373,-297.1218845436815,-306.4141032616026,-331.4556936682202,-344.85428808885626,-333.8187630822649
2025-12-12 18:25:30.233060,Right,-377.6279551193584,-406.70017418439966,-401.06518466444686,-332.3068233556696,-13.964387016254477,-376.05371932836715,-386.873388061882,-375.20651484956034
2025-12-12 18:25:30.237139,Right,-321.3348174383864,-352.3197884829715,-333.2663472498534,-311.8554527191445,-128.3872947418713,-316.2532506560674,-319.55476327752694,-313.44594767852686
2025-12-12 18:25:30.241095,Right,-257.3989280719543,-290.8265454911161,-268.4329999126494,-259.20607147418195,-423.3642866431037,-251.09122167527676,-254.03267824207433,-251.86156297428533
2025-12-12 18:25:30.246126,Right,-298.0615270396229,-323.8222429858288,-316.5817188291112,-262.9979824803304,-342.960724485456,-294.0602323160274,-301.6235077925958,-298.45721074345056
2025-12-12 18:25:30.249118,Right,-363.46866595651954,-379.8925940451445,-378.98517139151227,-309.7332490500994,-42.152915309299715,-359.7915217016125,-364.48170992790256,-361.9326717425138
2025-12-12 18:25:30.253081,Right,-324.8639365021372,-341.968296822859,-327.83474938431755,-302.9205867891433,-87.9819819253753,-317.77423490106594,-313.18109049263876,-316.0357709735399
2025-12-12 18:25:30.257133,Right,-244.62310105923098,-265.91947912506294,-245.540471595712,-242.94394175999332,-391.07506893738173,-235.53565987665206,-228.52100186038297,-234.93862384767272
2025-12-12 18:25:30.261167,Right,-266.92012020619586,-284.1923170698574,-278.087842508452,-233.61394496646244,-375.15974548546365,-259.0010386975482,-257.5894916319521,-261.90670084767044
2025-12-12 18:25:30.265153,Right,-354.07999128766824,-364.14965088816825,-367.2257901947014,-293.61722135538,-62.11967043200275,-344.92438672075514,-344.17584351531696,-346.99085904925596
2025-12-12 18:25:30.269118,Right,-352.6935861156089,-363.64967611874454,-354.090996224666,-316.84565923479386,-31.856407908839174,-337.7105540733319,-329.5881948922761,-335.8359174388461
2025-12-12 18:25:30.274185,Right,-269.0877777193673,-284.4271217993228,-264.52500334754586,-259.9211666978081,-332.38370798382675,-250.5689312237082,-239.13078443543054,-248.1140378525015
2025-12-12 18:25:30.277183,Right,-251.00332828750834,-262.7409981096862,-254.74600024544634,-218.21296856494155,-388.9813255359768,-236.29608258942608,-229.74444949137978,-236.64982626005076
2025-12-12 18:25:30.281195,Right,-315.7786690571811,-320.4182273285696,-324.74643653980456,-252.90802683739457,-85.27928941691061,-307.24305353173986,-301.78231125243474,-308.08087899908423
2025-12-12 18:25:30.285148,Right,-325.97076547914185,-332.8497781791957,-327.3020258296747,-284.2879181144526,14.527872961654793,-320.102253486868,-306.09239207813516,-318.479750139988
2025-12-12 18:25:30.289219,Right,-248.18285096110776,-263.0278101277072,-245.04691535176244,-241.50489365519024,-275.29572027066024,-243.9284699241398,-223.28686360397842,-241.76999456377234
2025-12-12 18:25:30.293225,Right,-211.6765328265028,-225.4319128046045,-218.00229634938296,-190.44203751219902,-407.55010535527254,-211.8501924748998,-194.6107216323726,-211.3004568728502
2025-12-12 18:25:30.297234,Right,-265.26793081406504,-269.96091858134605,-279.04799223772716,-208.91136207035743,-124.37389107386116,-269.20607311371714,-255.9383937168168,-267.4886495388928
2025-12-12 18:25:30.302269,Right,-291.3809882919304,-294.52549644035753,-296.91785557568073,-246.23337398737203,55.264251794375014,-293.57438529026695,-276.39751742745284,-288.22675564535893
2025-12-12 18:25:30.305257,Right,-231.95177320594667,-242.49517936958,-227.13075570669025,-223.62072128028376,-198.06740105553763,-229.87160809978377,-209.23594425461488,-224.50485008198302
2025-12-12 18:25:30.309274,Right,-194.2670010891743,-205.26577883656137,-191.96970170323038,-178.70637593395077,-407.5118164733285,-191.16511087608524,-175.68812303536106,-189.5602462561219
2025-12-12 18:25:30.313219,Right,-240.82398411195027,-240.80155910924077,-242.464574230602,-186.09233254764695,-178.1842817691504,-238.69125949696172,-228.0865068982821,-237.0659204046242
2025-12-12 18:25:30.317274,Right,-268.1446038769209,-260.8355197136989,-259.7596595190116,-214.06709879235132,67.73197433637688,-264.2645134917693,-248.2097817530157,-256.38941277517006
2025-12-12 18:25:30.321287,Right,-205.60625730012543,-202.57790623325855,-184.41558457148494,-189.74417599861044,-119.047769029974,-198.92616582190385,-175.0177576894057,-185.92489510111045
2025-12-12 18:25:30.325318,Right,-154.8341743836645,-155.53211679134984,-136.8300790624926,-143.34425393654965,-378.0377541197813,-149.77608020877233,-127.80848602706101,-137.63200635404792
2025-12-12 18:25:30.330327,Right,-200.92472474026727,-196.7778002580162,-194.6251981910318,-153.37251675972948,-216.5761754042469,-200.93148599436972,-185.56798451568466,-190.5306999864988
2025-12-12 18:25:30.333374,Right,-249.1922105443664,-242.36280980007723,-242.84494621725753,-195.21412830118788,70.0153594368021,-251.33572970383102,-234.80630123487208,-238.753616393602
2025-12-12 18:25:30.336359,Right,-199.18601863400545,-199.79525848804042,-183.88363545696484,-183.21555629424984,-44.420757519081235,-199.71522653079592,-177.49189286504406,-185.19400389306247
2025-12-12 18:25:30.341352,Right,-133.3346391065279,-140.6685905076447,-118.79215300851502,-131.55229484528536,-331.17950270173606,-134.4057565779658,-113.99204621789977,-122.55641528102569
2025-12-12 18:25:30.345384,Right,-164.08586895355256,-167.67112022766378,-158.60313230770407,-129.7326396043063,-239.03948535467498,-169.6302825010498,-155.81616548157763,-160.34784208313795
2025-12-12 18:25:30.349385,Right,-221.9990430752514,-220.80673859076342,-215.31108541961294,-173.99569322151365,69.55481241946109,-230.5383530713152,-215.2832662978326,-218.08286131668137
2025-12-12 18:25:30.353402,Right,-182.87073190370575,-186.7024338405463,-164.70687108568382,-171.02111762337154,22.033142937987577,-190.5989838949754,-167.18254204152618,-172.87956764287082
2025-12-12 18:25:30.357382,Right,-101.19252423755825,-111.62162958632689,-80.70156857703114,-112.50145323079778,-290.68424032937037,-109.14014122803928,-84.59226773353294,-90.0396144784172
2025-12-12 18:25:30.360405,Right,-113.96199273737147,-120.40842054219684,-102.85969993460458,-95.30419368774164,-282.94494135910645,-125.31479968962958,-108.1685135991429,-106.49567951646168
2025-12-12 18:25:30.364418,Right,-189.01496161689283,-187.19175272219582,-179.3541925890022,-143.91988783277338,30.54972113331314,-201.54090385040035,-187.402585722215,-179.6904408452101
2025-12-12 18:25:30.368392,Right,-183.61274723155657,-181.82367134297965,-161.82046601973707,-162.74475183425238,64.71976267185528,-191.90538007667055,-172.81772467243718,-166.29025849036407
2025-12-12 18:25:30.373444,Right,-104.99857236834941,-106.86416816775454,-76.36177411815152,-109.24187668104423,-238.36380990123143,-109.13731172354892,-88.4728323398158,-84.7468512924388
2025-12-12 18:25:30.377456,Right,-91.50198484706925,-88.26641269715037,-69.89931384497322,-69.55591376265511,-302.11587226449046,-96.42729110067012,-81.54667829821119,-76.290089467715
2025-12-12 18:25:30.381467,Right,-154.25728587101912,-141.81114375358447,-136.9233806609991,-99.0192824844271,1.7266342400107533,-161.15640125412028,-148.27003206172958,-141.60718493250897
2025-12-12 18:25:30.384495,Right,-161.15765146608464,-149.8319982145331,-135.79311431082897,-124.15317954070633,111.67640426807338,-166.86290735256625,-147.12201932119206,-144.3696637613466
2025-12-12 18:25:30.388503,Right,-87.2091603652807,-84.95741531613749,-57.581335354596376,-83.7397923512035,-170.56534476490924,-92.02403474762104,-68.00680977414595,-69.3164860837278
2025-12-12 18:25:30.392508,Right,-59.863505767600145,-58.9956616658601,-41.152878156339284,-42.05102554697078,-307.4032037886209,-68.18659910053248,-50.1526125415694,-48.90619055350544
2025-12-12 18:25:30.396476,Right,-116.90589212573832,-108.59673750732327,-108.82446554052876,-64.72705777984811,-33.07321360707283,-129.2032027124078,-117.58165003085742,-111.05700288782828
2025-12-12 18:25:30.401526,Right,-134.36263366229832,-124.16280805156566,-121.94539194204845,-93.77498577884398,146.10721992637264,-145.86149430379737,-131.7257057662937,-124.48134932684479
2025-12-12 18:25:30.405529,Right,-60.980539691925514,-57.200991734920535,-41.58213373896433,-57.42346869717585,-101.45658831397304,-69.81828062958084,-51.84317171172006,-45.847592055331916
2025-12-12 18:25:30.409559,Right,-17.869368330168072,-15.251736200239975,-4.338650944235269,-7.327518175414298,-310.25059772166423,-27.485127073538024,-13.881895440048538,-4.118718581448775
2025-12-12 18:25:30.412578,Right,-74.00311205687467,-63.363549053436145,-68.7714096311829,-23.909423487260938,-85.90180044726003,-85.21398113371106,-77.75102526618866,-61.68639239715412
2025-12-12 18:25:30.416591,Right,-117.1533001094358,-102.81757572916104,-106.34372877154965,-66.45977923681494,160.21742466278374,-124.799984261801,-115.46138213778613,-98.73212137026712
2025-12-12 18:25:30.420615,Right,-62.29990702366922,-54.65812667418504,-41.13251856400166,-49.088122723973356,-16.668673662643414,-63.323457223246805,-49.937986885604914,-37.10873260186054
2025-12-12 18:25:30.424586,Right,-8.323896167916246,-5.597787124977913,9.87817663687747,-0.9427154955337755,-264.0810607628082,-7.271293725643773,1.8513751180726103,15.198313250613865
2025-12-12 18:25:30.429639,Right,-50.554214948555455,-43.79809662263142,-42.34306534379721,-10.630571096087806,-98.27860583699658,-52.83988235902507,-50.881424703169614,-31.296049309603404
2025-12-12 18:25:30.433638,Right,-100.8594208896393,-92.12549227586715,-91.1321341865114,-58.72623163589742,184.50069224913022,-105.5892244449933,-101.71127331611933,-77.95318956981646
2025-12-12 18:25:30.437671,Right,-52.62640904367436,-51.64162090327591,-34.089291348995175,-52.75108213326894,61.979718306072755,-56.825388814671896,-45.8549974085181,-21.87520918052178
2025-12-12 18:25:30.440662,Right,18.682923421030864,13.171115779317915,34.1008380826097,0.3102285177446902,-232.95979115445516,13.482659658184275,23.655533908633515,50.85976420965744
2025-12-12 18:25:30.444663,Right,-4.223938573617488,-5.328350554802455,-1.9355079731321894,7.157155300374143,-145.3959983578825,-12.988035143062007,-10.038722355791833,24.65834302076837
2025-12-12 18:25:30.448632,Right,-61.85990420007147,-57.50711150385905,-62.84318271512166,-37.6428385390318,163.22873456330854,-71.70375395880546,-69.86864763713675,-31.841844743059482
2025-12-12 18:25:30.452744,Right,-30.097923587542027,-30.6508331411751,-23.328720474790316,-41.97998159358394,117.47186728962697,-37.301584094937425,-30.255406155367382,3.6044005066505633
2025-12-12 18:25:30.456740,Right,47.3965189922601,39.74177309195511,53.93802407986368,11.687547570909373,-194.14335912599927,41.007788805116434,47.92696798365796,78.17591400211677
2025-12-12 18:25:30.461740,Right,40.79887312135543,36.441431802057195,36.15542972306139,33.731329367205035,-184.35127225585165,31.292096962279174,31.752479925198713,64.39557801320916
2025-12-12 18:25:30.465746,Right,-24.071421491418732,-20.8280726945668,-31.800351462792605,-5.654214058158686,133.60588354227366,-34.80078276954009,-35.31374016447808,-0.23761960351839662
2025-12-12 18:25:30.468768,Right,-16.0078223059827,-13.524015161267016,-13.058086661214475,-22.085666496946942,170.75961775661563,-22.239323579124175,-15.98374641375267,16.091198623733362
2025-12-12 18:25:30.472699,Right,55.500901331193745,53.4873753314896,64.21994945005281,24.273468479019357,-135.15828582426184,54.25197319770814,62.89406704486464,91.71540557866683
2025-12-12 18:25:30.476750,Right,61.088870245119324,63.23212498583598,61.69670795730781,55.99867099930998,-203.88120023385272,59.34827819594648,62.24842382298084,93.13145307265222
2025-12-12 18:25:30.480754,Right,-1.9073792130220681,8.780017220706213,-6.820136160065886,26.625403127021855,100.08615798689425,-7.167525154334726,-5.703794520901283,27.668206525588175
2025-12-12 18:25:30.484773,Right,-3.6059218269074336,6.083913257316453,-1.3564981574891135,7.650789750914555,213.65993906295625,-10.409986483631656,-0.2333074566849973,29.95579915534472
2025-12-12 18:25:30.489778,Right,71.33994096022798,72.57805950721377,77.94102030689828,50.03839494046406,-70.36618815307156,63.51316565144225,80.62898917577695,106.07039401351358
2025-12-12 18:25:30.493738,Right,90.41282330124523,90.55121374505688,87.47551458745147,84.06301061977865,-215.509427470417,78.81546581504517,92.74604281884967,118.09664453158621
2025-12-12 18:25:30.496797,Right,21.15564516329323,28.714242745452793,10.582695959863486,50.057791452185484,54.4813834138331,6.117467235890217,16.176479493209627,42.54999508813489
2025-12-12 18:25:30.500770,Right,-3.8823077569541056,6.049452840612503,-5.819300053408369,14.342067583667813,240.35105977283092,-17.72553608281305,-3.6821721231390256,18.545142309332732
2025-12-12 18:25:30.504873,Right,67.98799765907461,72.5780923073471,77.32033348779078,47.79187581606675,3.5316830443334766,56.69743096601451,74.26716793814558,90.92675063220668
2025-12-12 18:25:30.508822,Right,110.05133462470258,114.3882256973593,116.6174338478595,91.87890562455868,-202.11875824339222,96.94321393611608,108.85682032923796,126.5098686698766
2025-12-12 18:25:30.512896,Right,50.54234525587526,63.32384037942393,50.676919295365224,65.88013510424935,14.907607866392937,33.52834879118018,38.69043877007789,61.95782081404468
2025-12-12 18:25:30.516871,Right,6.33061551200808,23.422794080193853,13.284739044334856,18.812475586601067,247.96347312329453,-9.918434276711196,-2.4736606809310615,22.510382352862507
2025-12-12 18:25:30.521821,Right,66.61687872550101,78.63245931372512,85.05284520701389,42.224773450245266,55.71385808460764,55.55865791582619,67.53795032264316,89.82873392759939
2025-12-12 18:25:30.524812,Right,127.62839506426826,137.3998243955284,144.37562554662873,101.8820569957752,-207.23180259682704,119.92830315321044,127.55452908056031,149.74149922761717
2025-12-12 18:25:30.528896,Right,84.3576362611202,101.1840354429587,92.76669265939563,98.7946687371441,-51.27401567963534,77.02889841939032,76.77477462448587,102.0732008091145
2025-12-12 18:25:30.532854,Right,23.12287468407885,44.62225607300934,35.4171253866225,48.60829198744614,232.25874687029864,18.155551094168914,18.73300267860759,43.40778295855853
2025-12-12 18:25:30.536923,Right,59.551507960568415,75.83547273674048,84.09452973707812,50.019373922696104,116.31447563109396,59.884294815637986,66.60666582011618,85.9989111746836
2025-12-12 18:25:30.540943,Right,125.74614227947313,138.6266745384055,151.55924568339833,102.64971210654767,-175.74048623634735,129.33431116415886,134.72652099790866,151.44038054031262
2025-12-12 18:25:30.544946,Right,100.92851911515754,121.90938619410736,118.15530891090748,111.66005846839107,-90.0376432442281,104.51264576613903,102.50990269347676,120.79835590391303
2025-12-12 18:25:30.549935,Right,37.458072531822836,67.1205392912816,55.22159387631109,66.6041301071673,218.72304851343506,42.57445567907416,39.97854741703486,56.90050696719845
2025-12-12 18:25:30.552951,Right,59.81554279327975,86.05088906610035,88.00234973114857,59.06234972525999,176.65200894413283,68.99522020337463,73.06392440470518,83.38776434551983
2025-12-12 18:25:30.556921,Right,129.8270323494653,148.37864411916962,159.47342531051981,109.2857643151001,-133.18756858000415,139.98165530452388,145.45663839766348,151.34184450711473
2025-12-12 18:25:30.560966,Right,120.05719241469342,140.07140645935579,139.64637945385766,129.23355319167604,-125.08321795388474,126.01161567878444,125.55160110794532,132.85035154830257
2025-12-12 18:25:30.564980,Right,55.00343726171559,80.25512844715558,71.99279374401522,89.29993272622232,192.08563810605847,57.49061675424309,55.52860023768153,63.0628650558283
2025-12-12 18:25:30.569012,Right,64.20032284648187,85.6057728255837,90.80749820952042,72.82682688472414,229.85706753632985,68.32750757266331,72.33356520200323,73.62340079942078
2025-12-12 18:25:30.573016,Right,135.61530224952003,148.84866612141923,164.99004237024928,116.59925292288972,-79.56058170447068,142.83934436571144,148.75211736295023,143.20024150629615
2025-12-12 18:25:30.577962,Right,135.86560997587367,150.66796733794035,153.5635853558997,140.0258392550204,-157.17650377508835,143.40741710568545,143.02919413291966,136.7160109124452
2025-12-12 18:25:30.581021,Right,61.57625411940535,85.00827036399278,71.83602882829473,97.41617664997648,139.810794381905,68.92718668239104,65.45907841844382,61.062914138405176
2025-12-12 18:25:30.584036,Right,48.78615859632919,73.37092156623112,67.3414928714401,65.85402270330633,253.73437080204894,58.38307249917125,60.57865773341473,54.97964193992448
2025-12-12 18:25:30.589059,Right,120.07125049246679,138.43043851853395,147.15722044439735,101.70593608078889,-27.008493611690938,131.04198881113916,136.6395594215628,129.33021369182825
2025-12-12 18:25:30.593065,Right,142.3116526888225,160.5192698447354,165.4275890159097,134.6097144125713,-172.27519511916034,150.04690085871653,149.36383167594886,144.77905580953302
2025-12-12 18:25:30.597071,Right,75.36087207280798,100.46199680040809,94.98437525574627,99.38114625255275,95.09938471194619,79.18981127399593,72.13849027415449,70.9977752463601
2025-12-12 18:25:30.601091,Right,46.998817841830714,73.03106300326908,75.99863070734136,59.68332778234071,279.48630312571186,52.343168981704366,47.456071355441054,43.48857874661644
2025-12-12 18:25:30.606041,Right,113.6964376925248,132.92034792755294,151.51518073798798,90.5659237520922,41.26978305463126,124.10227222114736,122.0321193550335,111.27276729037055
2025-12-12 18:25:30.609048,Right,155.23749937432967,173.36713357315966,186.08063605345524,138.8136755518026,-167.66367546578113,167.885301154216,160.62765418179333,147.05663801055016
2025-12-12 18:25:30.612114,Right,100.27420067760431,126.5311341279521,119.86967381151044,122.22711268499188,46.996910876972834,112.12203367111942,99.42101690783238,86.90713871542175
2025-12-12 18:25:30.617136,Right,59.39529179454621,89.42028158996982,81.04956742833019,81.43966199526767,281.3932945236229,72.1523312188292,63.81731606774338,49.52035756408259
2025-12-12 18:25:30.621166,Right,116.51179864503138,140.16468077834725,145.46342087619269,100.83875022032589,91.0258105699686,132.16161974494025,130.91047249621624,112.18237217779097
2025-12-12 18:25:30.625186,Right,169.86216843224247,189.69965282619523,193.80801819296175,148.17950540238962,-173.6030807193456,186.4512931145,182.7538037129416,163.8095348724819
2025-12-12 18:25:30.629180,Right,120.58244181462214,146.76685005831678,133.6616787470266,133.8198864403239,-20.930418288175133,136.55828082884545,125.44250116246258,110.52805343496584
2025-12-12 18:25:30.633203,Right,56.92621075496572,88.27676434993919,71.54732629174396,79.11850469342608,262.07571615662164,75.09187275015574,64.29741032261518,50.00115164067029
2025-12-12 18:25:30.637154,Right,91.14548933615151,117.68730191698705,114.6818307657959,79.13379984375206,147.5368732079587,113.51294547745056,108.45280156927765,89.96547972363624
2025-12-12 18:25:30.640156,Right,154.19820828941738,176.15743389865384,174.0982576240349,128.69703256272624,-145.38857895552064,176.83037589154264,170.83224424511718,150.8213451820484
2025-12-12 18:25:30.644249,Right,129.009475016137,156.52733427716885,135.11040369338298,134.94239416559867,-62.73091576515799,147.2824306597904,135.06773018497188,118.70215075206943
2025-12-12 18:25:30.649244,Right,69.08208111407293,103.26824283308815,72.30252035307058,90.31965361803304,245.18159273699348,84.90604136389447,73.1907140340627,58.64955964514229
2025-12-12 18:25:30.653269,Right,93.40993545771926,124.35855867892678,106.16332937340485,82.54336606290599,205.24932038947736,111.82267480291193,106.56968098785728,88.60634359598771
2025-12-12 18:25:30.657227,Right,158.50153555670113,183.88150939936168,173.08532977708091,126.04129561352602,-104.1196588771727,179.87219450112025,174.16906407523493,153.8589546386429
2025-12-12 18:25:30.660269,Right,138.846814669203,167.98108171028434,143.29608500938048,134.0079904239101,-99.38065034417082,160.09257799948682,145.98551646186388,128.62463468384522
2025-12-12 18:25:30.664266,Right,66.22716353666328,101.8231716905866,67.23321625671815,84.40935308356711,214.92104808842282,87.11828389084258,69.99657637038035,55.581222127744695
2025-12-12 18:25:30.668229,Right,76.30864938789455,108.14398725946376,86.2987767491868,66.26839946499967,253.9671437286279,98.0733706511819,86.99470955583092,71.24027826434758
2025-12-12 18:25:30.672293,Right,157.5369724240154,180.33991532695654,170.47150859194517,115.28979816524952,-52.24853699314008,176.91599125346693,168.98642129926884,152.1855557236122
2025-12-12 18:25:30.677312,Right,170.28938170899346,192.7055392157199,171.83836587824044,144.98563007469056,-126.65488578175973,181.810164864728,169.61146559103508,155.61151825591514
2025-12-12 18:25:30.681326,Right,103.15777353520389,131.2414713971666,96.60105566532002,105.03275655643665,175.95099709750866,107.03344520172686,94.3428507395729,81.37969596832409
2025-12-12 18:25:30.685354,Right,90.97628475484089,117.31005516281584,90.85467129987956,74.25916687537392,297.6456268125294,92.78946478193393,88.18901546151028,69.82675082034257
2025-12-12 18:25:30.688334,Right,162.03600532321434,180.7966851098463,167.78819036731147,114.5031348458433,20.976960823762056,164.52965616370784,164.42168580403086,140.4606490389706
2025-12-12 18:25:30.692303,Right,186.7837578311446,206.1268843167054,185.4590736917453,157.0276329862827,-126.79960178634065,187.76044196079602,180.8741258072405,158.75236451982346
2025-12-12 18:25:30.696377,Right,122.90788968624838,150.87775231851265,114.91555847949348,132.78651668057137,135.39037426191499,121.84046316027525,107.7801010254916,91.18490969097184
2025-12-12 18:25:30.700418,Right,95.546378467654,125.44451368649607,94.37928495099186,100.98839806926844,314.74312405938326,96.09500844223658,84.34502838544722,68.55791831105307
2025-12-12 18:25:30.704382,Right,161.24933461847831,183.79087085582432,167.64154905419855,134.5833502172609,69.62584735660494,165.07168438186636,157.07017450939748,138.49042443666258
2025-12-12 18:25:30.709390,Right,199.87062623311067,219.6384175925923,199.30397019459633,179.49639435030986,-147.02500626939582,203.51430607866496,191.32903257996077,173.6320338046644
2025-12-12 18:25:30.713360,Right,138.74303829118435,164.66069212855655,127.81527929301956,153.8641782073828,66.71511131877196,139.86957893171348,123.07484512618976,109.50496896114782
2025-12-12 18:25:30.716424,Right,89.22818106324121,117.39221495224047,82.06697156600421,102.13926818175241,310.2905305949389,90.95115316126612,79.07468411709124,65.9170390641666
2025-12-12 18:25:30.720371,Right,139.7027665869973,160.72223295277217,141.99862998514436,114.96063387866889,130.4827157034597,145.00968993644346,140.2881511329324,123.677390922021
2025-12-12 18:25:30.724437,Right,191.84258175945433,208.44790941444808,190.17320343406755,162.88101210579043,-131.75351737111487,198.40157002338674,190.79194995309808,173.53130760260683
2025-12-12 18:25:30.728447,Right,145.3545735138614,166.87052761911764,131.31188547145575,152.86393330925785,17.950316821501474,150.1214580189262,134.2711408562609,119.54401039556251
2025-12-12 18:25:30.732471,Right,84.89441144073498,109.08005083570606,69.47299724418554,101.20105459430488,300.719717594744,89.68197663073079,73.13880521137617,57.530488090749714
2025-12-12 18:25:30.737469,Right,120.19753089309961,137.14159449117142,112.93245972596924,100.85409980594704,187.53013852295408,128.0421614756633,116.23007677600253,96.15725123086304
2025-12-12 18:25:30.741478,Right,180.49888394601294,191.8253929510538,173.26899008869077,147.07865998013585,-109.41047597289435,189.91930908471113,176.35373578238068,156.038698141012
2025-12-12 18:25:30.744445,Right,148.77406779510784,165.91977890775888,133.82151863820036,148.63981583737768,-35.20144440980948,156.5110334151541,136.3963337331661,121.59536391426809
2025-12-12 18:25:30.748494,Right,82.45884288006346,106.22464710279019,69.05993571889121,100.94121899745369,267.32799718229217,89.20619100760086,70.20812687688158,58.25086351908976
2025-12-12 18:25:30.752516,Right,105.35061938816216,124.21400909559452,102.73368251236388,94.07716899496154,226.21988248150592,113.46714730618987,102.61866995776654,86.80315460261772
2025-12-12 18:25:30.756532,Right,173.95389472317765,184.41943449171958,172.75718867022078,141.40904377680272,-86.13838525836036,181.56238519659382,172.50714546084055,153.16819255477458
2025-12-12 18:25:30.760542,Right,157.42494432229432,169.18665382216568,145.67851076027728,151.9855255955772,-87.50689640480414,160.82929846266052,145.48769044014625,128.2259780716995
2025-12-12 18:25:30.765545,Right,81.88222706297529,99.26412790903123,66.87621097787633,100.11124989195378,223.7267197138499,82.91369965544436,65.9357171258307,51.24422358017182
2025-12-12 18:25:30.769550,Right,81.8808800081315,96.81360727266292,77.43604420815245,75.19325892231427,265.416499852523,86.74423208759981,75.86243699697661,59.53515710809734
2025-12-12 18:25:30.772568,Right,149.40861585809034,158.4755238170328,151.8121364104445,116.95737178868148,-38.75921999928687,160.29097073638695,151.0014996448881,133.581383504541
2025-12-12 18:25:30.776578,Right,149.08654991615913,161.5750629979011,145.7545187228825,141.89900089334697,-118.18681754135469,162.49727578950115,146.2075697829714,132.81330081242777
2025-12-12 18:25:30.780599,Right,71.33320259442553,92.27778189384844,65.0287116363761,98.35890287350048,174.2133635259088,84.68402696537669,65.36470589358942,55.886886655309354
2025-12-12 18:25:30.784629,Right,51.1630069137027,71.03973496885737,53.9222043021291,62.042241761577316,286.274987417426,65.15329393063439,53.33341384373489,41.39225373561203
2025-12-12 18:25:30.788622,Right,117.59974026645068,129.0125196359004,126.2542238147289,94.51387229739339,2.037744388449937,131.694038729358,126.44943850318668,109.49370069112047
2025-12-12 18:25:30.792608,Right,140.80514029157348,152.04383549437625,141.1931977669883,128.7167246438621,-152.1196271650042,152.50146718457108,144.00201969777117,126.4592508765054
2025-12-12 18:25:30.797687,Right,74.66277109028306,94.7731169006438,67.5649067008926,94.77808931758045,107.22667979189282,84.7815417276579,72.0876024592726,56.20781374548096
2025-12-12 18:25:30.800729,Right,41.10192902374547,63.60241068690084,41.24892984860344,50.32006785628619,288.9380595028488,54.32736318613752,45.68572093822877,27.430694231399684
2025-12-12 18:25:30.804738,Right,99.51394709036686,114.33986060155439,108.66780946991639,71.78996653185459,46.528008997571305,117.67147459555417,113.67382564977743,91.43173056282103
2025-12-12 18:25:30.808714,Right,135.22963734000223,146.14690893894294,138.82088079693494,111.91032370785251,-172.5597451828944,154.77033651940292,146.5118106250011,125.93198535399279
2025-12-12 18:25:30.812718,Right,75.99424987504608,91.4638817976811,69.33502630071598,90.06928148255975,35.877319092542166,94.13605882649426,79.71019874402555,64.97455024761439
2025-12-12 18:25:30.816666,Right,28.150150878092973,43.84371349302819,23.750737602211302,43.53369714265864,277.04649921182136,46.7440182994178,34.64363195488113,22.100697434478207
2025-12-12 18:25:30.820742,Right,76.40151153921033,82.85158005732228,79.69796819059411,55.273011079858406,97.89335654833121,97.04554977981024,89.91912752547069,75.86066591535928
2025-12-12 18:25:30.825728,Right,124.11253171149292,125.36336362044676,123.7587224697636,96.21591889002593,-164.45140994254325,144.08027545834193,133.6003247286426,121.77703403610212
2025-12-12 18:25:30.828759,Right,74.99185902092722,82.86006994443596,65.7440210232744,80.24222556191671,-15.966971240981366,91.68334046323434,74.58307801318006,69.45720381638967
2025-12-12 18:25:30.832746,Right,15.65047010834678,29.332322570116958,9.955112562602153,28.866370524614467,266.79170015807904,31.116699829988647,16.465887389000272,14.490995334243053
2025-12-12 18:25:30.836797,Right,55.325859496952035,63.678658261167584,60.84989082146785,34.43766694328224,153.22539728989068,72.21448406582931,65.88148616327089,60.80638322675077
2025-12-12 18:25:30.840781,Right,120.68856978727854,122.77278925466817,125.69391777031706,87.46785660508613,-148.10703505735728,137.12526298381272,131.8533083270304,124.3731499464775
2025-12-12 18:25:30.844777,Right,90.33057092918898,96.38374625807046,85.04587525420357,91.35072936036158,-79.72714092455863,103.45605993657955,92.85739690583432,87.38180533178092
2025-12-12 18:25:30.849760,Right,20.063480689015705,31.96038347054855,14.930629207461607,40.40252875411534,221.96516128788062,31.84940754319541,22.38731845386792,17.878707753727213
2025-12-12 18:25:30.852762,Right,38.160694137972314,46.27739259667578,44.97065206375555,29.821670531629934,184.14820838405285,52.50614455391769,51.363462882320164,43.9011013819254
2025-12-12 18:25:30.856804,Right,105.70298744240426,107.71301836817292,116.45010839166935,78.05183750799915,-127.84420071466593,121.80025989809656,123.47455114789773,115.48358323250432
2025-12-12 18:25:30.860838,Right,90.16707377191051,96.03825748819509,92.56974208907923,92.83604469509737,-132.635334942388,104.4203736805357,100.85369707655627,98.52720406619483
2025-12-12 18:25:30.864845,Right,14.196944474853808,27.65950535752927,14.427308748709038,43.74418947241793,177.33276863233186,27.125079654855654,21.84574557436281,24.368076107421075
2025-12-12 18:25:30.868852,Right,13.308923491291353,24.50816209052573,23.536851076525636,18.00603557607974,220.80749242242018,28.512968344119145,28.44275273720268,28.893675580562558
2025-12-12 18:25:30.871886,Right,81.63411196920788,85.06949655298376,96.25972433066636,55.90567767473112,-84.19102605974331,99.18161198182497,100.3844538971316,97.0322360656719
2025-12-12 18:25:30.876877,Right,82.643509093803,86.98510287728277,88.01366170890105,75.52449087535206,-168.05237754084374,99.47975395186222,94.3943567420647,92.07497581349162
2025-12-12 18:25:30.880820,Right,5.049383007426513,16.477227713854518,4.426702045384445,28.0937956435082,122.5994188590339,21.087637374352198,13.955323757982114,13.927947983625927
2025-12-12 18:25:30.884899,Right,-14.990361843185383,-4.528022231999785,-7.867833406795398,-7.763770373523585,238.3578828880418,2.8241141080798116,3.7989688002853654,1.4907846090500243
2025-12-12 18:25:30.888909,Right,53.98230634990614,56.29981356309145,67.36986920062918,29.91803831915604,-42.756503777323815,72.50224101409549,80.20702138145862,74.75360743571946
2025-12-12 18:25:30.892925,Right,82.70309939209255,83.79949339857558,88.66440063192567,72.06803322158521,-199.6203633147088,97.08486758699291,101.44259021649486,98.54048278561095
2025-12-12 18:25:30.896921,Right,22.9715425503382,30.408245535669266,21.49435425653064,46.085902491468005,55.01359855047485,31.696687792049488,31.813440083773457,34.20232542307349
2025-12-12 18:25:30.899940,Right,-5.932931188915973,1.4676516975596314,-1.0350304549792781,7.023524508054834,236.28630307651474,0.7415251012134831,4.915175385249313,8.291158334934153
2025-12-12 18:25:30.903952,Right,54.693029944217415,53.54368667352537,67.53979219077155,29.727074860566063,-3.5178296443336876,61.23165611361037,69.92318207302014,71.75258851597027
2025-12-12 18:25:30.908973,Right,90.71720306905627,86.53330694403849,97.32107839589298,66.79999725995003,-222.12282742757088,94.12936707230983,98.54313067324983,102.73424569348572
2025-12-12 18:25:30.912909,Right,30.062491200995282,32.68607139213418,26.4433230816212,39.106280023013824,-14.592124087415868,28.54543142937473,27.44030636550451,35.70113229821436
2025-12-12 18:25:30.916984,Right,-19.437929667299613,-13.49614600026689,-19.595666260953294,-12.442545266952948,228.8235537640503,-22.38834039727226,-19.74300860548101,-13.363375562534202
2025-12-12 18:25:30.920996,Right,29.850293095383677,29.384937581024133,39.616699136953685,-0.7425900050875498,54.290947796536784,28.8611268394161,38.167793158616405,37.878175769074005
2025-12-12 18:25:30.925009,Right,81.47326820716262,76.9433215870522,89.15190505773353,45.513842240165104,-205.4088111330202,80.78556430098251,88.14805934083415,85.02458440721966
2025-12-12 18:25:30.928017,Right,35.34300387997064,36.392554378224304,33.21994799164531,36.012289985388634,-55.69793529299932,32.514918970511644,34.232445036410354,33.393060570859234
2025-12-12 18:25:30.932038,Right,-24.994903708982747,-19.949170853273245,-26.33808743864938,-12.167209710707539,230.75468550122605,-28.008124583764584,-23.365608393782168,-24.11160796934564
2025-12-12 18:25:30.937021,Right,10.79661652793584,9.853916866457439,18.515999866867787,-7.752576010738267,122.74586672752775,10.409685185557464,23.029182114070863,18.43288748631312
2025-12-12 18:25:30.941035,Right,72.628510923867,66.41206708147365,79.73254069722316,41.70039222338528,-174.9479677596828,73.20250886191207,85.54213485252694,80.18847930658376
2025-12-12 18:25:30.945077,Right,41.023076224926626,40.381838269750006,39.174630284745945,42.20172718814865,-104.70922118616727,39.509281505059334,44.515986609403626,43.84182666652487
2025-12-12 18:25:30.949069,Right,-28.476969226438086,-22.530533602563082,-28.825363411800936,-10.940366111768526,200.18234916515212,-31.044019358683727,-27.17973629287735,-24.927859735529637
2025-12-12 18:25:30.952086,Right,-8.1071737264283,-7.031435838332982,3.9023472639528336,-22.981927630331484,166.23283110468037,-9.46665878802014,0.24431543922401033,0.08196966184186749
2025-12-12 18:25:30.956118,Right,63.79335715905472,56.12347137238248,79.19559425394982,25.058487046859227,-145.42101168182853,61.51867493332247,71.43971385103941,70.17333926736319
2025-12-12 18:25:30.960094,Right,53.843826239564805,47.31028195092222,60.099365657690214,41.89420924874139,-153.5623958121214,47.30585818171676,49.643543809695984,52.85843424005725
2025-12-12 18:25:30.964135,Right,-19.46836080723733,-19.74708180158632,-15.398266314761713,-4.6813735589021235,154.85823584059835,-27.81890560190368,-28.562261292230687,-21.74039264187013
2025-12-12 18:25:30.969125,Right,-23.413735772279324,-25.35354946658481,-7.614316301711369,-30.26252512159408,201.22371604118962,-27.32722418058256,-23.031277936301194,-18.885386767105956
2025-12-12 18:25:30.974154,Right,39.96309627554729,32.179638668807456,63.473510896612424,6.740751195138728,-100.95956592191214,42.15927650085359,47.945951516128844,48.806682684131374
2025-12-12 18:25:30.978097,Right,41.01779800577788,35.837065044164774,58.32496298053593,29.03734943021118,-185.82665429713234,45.11762172001181,44.48220811194915,47.899390596132434
2025-12-12 18:25:30.981156,Right,-29.97143666970078,-27.96304962465365,-17.719201170184533,-10.939589974528644,102.7109800019607,-27.230617913330207,-30.171518978560925,-22.597298983164364
2025-12-12 18:25:30.984193,Right,-43.12539628300874,-43.44469694291183,-24.174321821323247,-40.176085716804664,218.75681001597695,-41.26247041441093,-36.26673857969581,-29.530386312013434
2025-12-12 18:25:30.988182,Right,25.34129250625847,15.767635994736338,49.007134938350646,-3.862978451506933,-59.71437783361034,25.838921235786984,37.110040922125336,41.25483046780573
2025-12-12 18:25:30.992185,Right,45.753802135863225,35.81431419466389,60.696648955628916,28.668988330842694,-211.30701532609237,41.9696547055064,48.94173539665644,54.86128884273057
2025-12-12 18:25:30.997204,Right,-22.47228754646494,-23.344334352957958,-16.2985466449245,-7.323035968489421,52.89814275786193,-30.352768444179674,-28.873882850864902,-20.393075132706144
2025-12-12 18:25:31.001226,Right,-52.893394754006295,-51.119479318818776,-41.69384130126127,-48.87889617105975,245.62509417581896,-60.20284929977788,-56.00988112163759,-51.193617152523075
2025-12-12 18:25:31.005232,Right,12.58889191639173,6.463658510743699,30.989937312820985,-20.881623436085647,12.492651916814793,8.151340342548792,15.25460248626041,13.306433795420162
2025-12-12 18:25:31.008231,Right,53.61360933959077,42.74901908598986,65.97144733888854,23.43780188558594,-206.70714766579476,48.89414769233554,49.22502504390286,45.91817473216361
2025-12-12 18:25:31.012244,Right,-6.489375899262086,-13.140035408738186,-3.461170330781897,-0.005401142872869968,-1.9521943084982922,-13.838426824411727,-22.46236583036807,-22.67252683411789
2025-12-12 18:25:31.016254,Right,-58.8225060367331,-63.92680885604932,-51.43268306017126,-50.706981220027956,240.9086450375762,-66.2790222853364,-74.10431581809098,-75.38319244452578
2025-12-12 18:25:31.020206,Right,-10.955667974536482,-22.86376932330313,6.638256009304314,-38.78146006839597,64.84663083835767,-16.274393600499025,-18.44697334869852,-26.24960618813202
2025-12-12 18:25:31.025277,Right,43.709220025732066,28.342578700692684,59.19510352843645,9.73653279292921,-202.26454434468906,38.34627022785571,34.71538150147535,22.220817107721814
2025-12-12 18:25:31.029278,Right,3.006133107955975,-5.743640598695492,9.359090000310971,4.360557425545267,-63.363365149001766,-4.372273358683742,-13.21339888707007,-26.308076082979824
2025-12-12 18:25:31.033289,Right,-54.34032840896543,-58.35161646916822,-45.5897582237194,-40.81501983804992,216.0047138874943,-61.07920061929326,-67.29910325853416,-82.24655430007988
2025-12-12 18:25:31.036310,Right,-19.947856986931583,-30.193767531767662,-0.4517843961075414,-36.64305894723657,106.36040934456105,-23.207731012487784,-22.221117598695855,-41.01159805176212
2025-12-12 18:25:31.040327,Right,38.776865454499784,22.076074586595496,57.88786321679072,10.947722698081634,-191.85814255883452,36.78657982027653,36.49158263332356,18.27120782509519
2025-12-12 18:25:31.044381,Right,4.820940908517514,-7.358701187906263,12.397417609594413,10.42233821640184,-122.17010591672442,0.6631809346727096,-7.911105680359469,-20.215392729493033
2025-12-12 18:25:31.048348,Right,-66.77689504384762,-71.95009115291396,-62.92686446704829,-42.822012185562926,185.7960638750883,-71.83252179930423,-81.43907409079839,-90.6759972997479
2025-12-12 18:25:31.052304,Right,-47.92699538107263,-55.70111421825277,-37.66058106756827,-54.345129783188895,157.23350325145657,-50.82567858290713,-52.739794768385764,-65.6117159101068
2025-12-12 18:25:31.057374,Right,25.18820337535726,11.57309263496063,33.82106556020881,-4.778101656396757,-154.4388323967105,22.976097308426688,23.674186106618436,7.652245563478573
2025-12-12 18:25:31.060390,Right,19.3214758805334,8.567125230769307,14.523026673128697,13.849559205877085,-170.31529210381632,13.700610786625475,8.175885274584289,-4.696375538320353
2025-12-12 18:25:31.063385,Right,-49.243998424321035,-54.06839884198416,-60.66428749844272,-31.72779182535487,129.3460446989593,-58.44013257724146,-66.41606518047774,-74.80781322957682
2025-12-12 18:25:31.068412,Right,-49.389990976680565,-58.011754236211345,-53.822790523117874,-56.665054349075035,171.0821695813247,-58.78383612498874,-60.79752723974889,-69.1316880621398
2025-12-12 18:25:31.072416,Right,16.0145215339071,-1.56015703418052,14.962382546800654,-18.828461161871928,-132.68787060201794,7.582509894411487,7.6860054929311445,-1.481494626519634
2025-12-12 18:25:31.076424,Right,15.85294945937494,-1.5934445929087815,5.923092122073285,3.2942657207427146,-216.26954559553633,7.215151406409859,-0.09398689245790592,-6.762570454275192
2025-12-12 18:25:31.080384,Right,-59.91210755657812,-70.29684461690249,-74.89170453748898,-39.218633454125325,79.13574440574303,-67.25243682685323,-79.14594391616811,-84.88528218703391
2025-12-12 18:25:31.085465,Right,-77.48158905213495,-88.23231605788351,-83.64212727595805,-71.77610248480278,204.65588145342917,-80.04859782388303,-85.73888192742925,-97.42944341477414
2025-12-12 18:25:31.088460,Right,-8.760928039049759,-27.110598690477218,-8.341991187948224,-36.68137796017254,-71.49294410830043,-7.272411936057324,-6.88854127661034,-26.14036258083479
2025-12-12 18:25:31.091406,Right,13.606172273219272,-5.271853957546966,4.933462281866014,-4.268576196020149,-230.99089933518553,14.300057362401276,11.104308443229456,-9.38969934272518
2025-12-12 18:25:31.096485,Right,-58.44131605191433,-69.10905241826686,-78.11197304183042,-43.536394020070475,25.142561194745213,-60.19273977119519,-67.90628479618317,-85.63281335784268
2025-12-12 18:25:31.100483,Right,-98.4333176985565,-106.37608107944652,-115.64267924947853,-91.91788579720196,218.86475313764822,-99.27113554875905,-103.09720402355833,-121.25174377647636
2025-12-12 18:25:31.104443,Right,-38.38077193634308,-53.02353576695441,-50.58714161257376,-68.3064584865424,-8.714386955994996,-36.97489077949649,-36.69631647848564,-57.237330894153274
2025-12-12 18:25:31.108503,Right,8.463892795702122,-9.038109825016363,-11.414001097062282,-20.621829745163268,-226.96372839170544,8.433555173804052,3.069253566934094,-15.396799998770803
2025-12-12 18:25:31.112514,Right,-39.02742820488311,-50.035147488179064,-68.73614561064824,-34.68149844521395,-25.070204218098297,-42.5236025146296,-55.280717003247446,-68.81762782523583
2025-12-12 18:25:31.116546,Right,-81.14659525642674,-88.61475261698615,-105.58679565824787,-75.83861884722137,217.53321727391813,-84.29497440981504,-94.24695892695036,-107.53133267098565
2025-12-12 18:25:31.119561,Right,-29.42780277532347,-43.05298720653809,-42.19772091024788,-58.20931077389832,43.09795985631354,-28.502345471888475,-31.52588554279555,-48.92489989603928
2025-12-12 18:25:31.123585,Right,24.385056363597414,6.350711470731767,10.120104629135312,-8.640578962840664,-225.92755069346822,27.543246686822386,22.811205498714116,4.620597343793634
2025-12-12 18:25:31.128584,Right,-19.24216523901555,-32.118107349368074,-43.370822888722614,-16.648136572730436,-91.2798064715571,-17.07866414149248,-27.68160266313589,-42.36675140864827
2025-12-12 18:25:31.132530,Right,-79.2596403143834,-88.09359536301417,-102.40708671052926,-65.78383204491911,187.6516126901097,-77.2755477020828,-84.36215857715433,-98.53095655250218
2025-12-12 18:25:31.136536,Right,-45.11417945976359,-59.776185514936515,-58.927544794540154,-64.13905178194545,81.68651653496545,-41.25774288828143,-38.1909304564233,-56.78201007896132
2025-12-12 18:25:31.140612,Right,16.34810259143478,-3.6020969833007257,1.1684251200858853,-16.173992348503816,-213.96676737652524,20.752519436445255,26.278379704735926,4.796021616522921
2025-12-12 18:25:31.144631,Right,-13.029398809695522,-27.231647497344966,-39.679142054126714,-13.159789637618815,-144.17310628598716,-10.26388939506171,-9.856208615514333,-30.301903040544858
2025-12-12 18:25:31.147644,Right,-79.92078824214695,-86.86427950024881,-108.44610126011685,-60.69640390793211,164.64759739539795,-77.42565203047195,-76.3399398476904,-97.37840176958343
2025-12-12 18:25:31.151727,Right,-58.089097808743645,-69.18801521718706,-76.17655936034862,-67.32192872106316,138.0488122408633,-53.514865461721456,-44.930050886752724,-70.07944792466151
2025-12-12 18:25:31.156704,Right,14.93794522384087,-5.22677674357692,0.9389562815558747,-16.53783033516447,-173.1967671563018,19.996429053796874,29.613283112557838,3.356330242328113
2025-12-12 18:25:31.160695,Right,5.77756455904273,-15.117817722675682,-15.484303553348582,-0.003249603003496304,-188.87532452511186,8.768816775402229,9.913212492643652,-11.057560541466955
2025-12-12 18:25:31.164713,Right,-67.65700387838478,-85.01364307637414,-90.30384998531372,-47.823146758411895,115.68293218162316,-63.35649282283157,-68.26248445681267,-84.12905477002641
2025-12-12 18:25:31.168718,Right,-70.26767354656113,-92.08510552530788,-82.80128765352129,-72.00333157788918,166.69402733525175,-57.55607184982364,-62.23084264325007,-78.75371819661814
2025-12-12 18:25:31.171713,Right,-1.2681504506399506,-31.41696589045023,-10.19466752747394,-29.41698033587454,-130.701567516355,21.37354123894511,12.554742173946579,-5.729250511423743
2025-12-12 18:25:31.175754,Right,6.338901770894154,-22.052017135247297,-13.797909188302583,-0.7738299161137547,-214.4189369918422,33.469314837997445,13.35072329463219,-2.230061532507534
2025-12-12 18:25:31.179753,Right,-63.557556103771276,-82.2224212740548,-91.956265589135,-38.47067053076171,79.78954577779041,-36.37156008306738,-61.53721174843304,-73.98914095636428
2025-12-12 18:25:31.183753,Right,-79.54226022055445,-95.42864893967635,-101.44512417830992,-68.51543613916874,207.9148800701555,-52.5176339693935,-69.95014400799846,-84.61492041123711
2025-12-12 18:25:31.188769,Right,-9.871487197262468,-31.119407818441687,-26.021197472342465,-30.342468172719236,-65.21887284967488,15.91873534475235,6.17051724992416,-12.161074370615097
2025-12-12 18:25:31.192771,Right,16.485170988187747,-5.355822622550477,-8.596794411409064,8.098147594471811,-226.00381928250408,37.52205720698112,25.071002320179105,8.551433584019833
2025-12-12 18:25:31.196731,Right,-49.633952469957876,-65.79023224782577,-85.2532283930559,-23.393021743650024,26.272379306102266,-33.81880053925124,-50.40865800993197,-61.964754352164164
2025-12-12 18:25:31.199746,Right,-85.67512392409117,-102.41753961498762,-117.79149444225186,-65.63485920384846,216.75691522600482,-70.87798564292461,-83.08129031636054,-93.23477656124669
2025-12-12 18:25:31.203805,Right,-26.366372047108598,-51.758512078893546,-51.10729024257307,-40.17250142082048,-15.338487895665821,-10.238377340920124,-17.370208289030415,-28.133944306046033
2025-12-12 18:25:31.207837,Right,14.976627657219069,-13.528335355578747,-14.710381512042659,4.197353068135271,-241.25779927898202,29.22629096727178,17.690143093655934,10.671605855506641
2025-12-12 18:25:31.211817,Right,-40.11683086576522,-62.19996684174839,-78.99718021123408,-17.115299272751145,-46.163040005129005,-31.169904377566127,-48.69356548624637,-49.20088808421133
2025-12-12 18:25:31.216787,Right,-87.83647276195552,-107.42395666738594,-123.54972190553963,-66.44926461731666,194.6410479317201,-83.29109805382541,-95.92838732398377,-94.18532289712675
2025-12-12 18:25:31.220859,Right,-37.755793002324936,-65.11556029425265,-64.5881671314346,-55.31676998322655,21.48987981202663,-36.08876163863897,-38.639919856788765,-38.04860056926918
2025-12-12 18:25:31.224860,Right,16.171527874987078,-16.676241663291876,-13.50861943916243,-10.188395553086593,-245.58430624171524,13.539159267511423,12.727513076846662,16.376125896083977
2025-12-12 18:25:31.227881,Right,-28.69951730188768,-56.25649235830497,-67.70783852422028,-21.46886858115613,-105.77382423341078,-35.90016645897049,-40.80975614833005,-29.384512545209873
2025-12-12 18:25:31.231899,Right,-90.23547576741475,-112.61638054607465,-126.3110040583706,-72.3353486550186,181.93901879733312,-97.52621088881278,-100.15088104495226,-84.01630052232213
2025-12-12 18:25:31.235909,Right,-53.69004349704119,-80.7281972509445,-77.66298785879917,-69.27282679546624,80.51291728032083,-57.00865481829533,-52.55401934160909,-37.22358519824047
2025-12-12 18:25:31.239916,Right,13.6690539898118,-18.408711380005116,-8.83811532285472,-18.130311523338605,-220.8493519365602,12.297118944676185,16.615016555573675,32.23861427603697
2025-12-12 18:25:31.244902,Right,-13.377465535457304,-40.34949747149949,-45.09517861169297,-15.668823586958752,-159.92193410300388,-16.98945694186841,-19.17750064806023,0.9085373540583532
2025-12-12 18:25:31.248864,Right,-85.86514599239672,-106.07322704776743,-118.09248217863205,-70.04434057926846,148.47319295605485,-91.38102242530294,-93.7746940197685,-70.77351372705016
2025-12-12 18:25:31.252943,Right,-72.33434719423167,-96.02691283304011,-94.1808980005735,-84.48965460420004,129.84865678105052,-76.98972101735853,-72.70134622624755,-51.16698748757335
2025-12-12 18:25:31.255953,Right,-1.8236278994118038,-32.57545978923736,-21.89224794715119,-35.52749701207358,-174.69704471610567,-6.861968112498289,-2.1623215541403624,19.59421032107639
2025-12-12 18:25:31.259968,Right,-5.573236837357399,-34.34148781772819,-37.42421460043988,-14.391400917695137,-189.1695729435014,-14.944572011874698,-18.335508529758954,8.909079578963429
2025-12-12 18:25:31.263965,Right,-70.06610030547745,-92.55956433750544,-108.01568634274008,-56.146558738772,114.74970107244553,-83.67546959407628,-90.03434533892141,-58.28978942663525
2025-12-12 18:25:31.267980,Right,-64.7003561159072,-89.16189370462962,-94.34808779059676,-76.32005661506992,163.92171233435693,-78.63141392293619,-78.18229383025755,-48.04295419421396
2025-12-12 18:25:31.272041,Right,10.079790856711043,-20.693559514598746,-13.222609891134198,-31.05939301229955,-140.29821006720886,-3.1112042709137313,1.1267856086560641,28.825585785885778
2025-12-12 18:25:31.277006,Right,21.22620571902371,-6.6556069160069455,-7.374962030167808,0.8370473711620434,-233.8769990912042,6.3266772789211245,4.980906091572251,35.2542960106548
2025-12-12 18:25:31.281021,Right,-48.157734196553065,-66.09704526646965,-79.00826736568706,-33.29680812587321,55.951920080478885,-64.5550801335412,-69.17374801725236,-35.67406268933337
2025-12-12 18:25:31.284031,Right,-66.18541593373811,-81.32973976743233,-86.39413723930193,-60.84668495250662,188.10768117861153,-80.37657196076907,-78.51638852788165,-47.322588905899465
2025-12-12 18:25:31.287989,Right,1.645973190519726,-17.977131151892536,-10.355100921835401,-21.205970699324098,-79.59956992958178,-9.452174198544526,-2.465954602768761,24.70399201980399
2025-12-12 18:25:31.292051,Right,27.972636466598487,10.177660001863842,9.05529131219373,18.249812087684404,-239.18453026372663,16.429387535186834,17.919013285951223,46.2054085521886
2025-12-12 18:25:31.296054,Right,-37.810839195102744,-46.30233480211609,-64.61962773368577,-13.35869551426731,13.25794466232037,-51.63781338908302,-56.711739057995146,-24.787324180990254
2025-12-12 18:25:31.300061,Right,-74.89056028343475,-80.34651171368023,-94.85193425147736,-57.96359829080029,206.9975584685344,-88.62913566483621,-90.83272205590765,-59.528194368649565
2025-12-12 18:25:31.305111,Right,-17.714467854202667,-29.093354449563776,-27.091737020615255,-36.8818508389013,-20.605207341825007,-30.223245096669416,-27.612673513693153,0.36051473448605975
2025-12-12 18:25:31.309095,Right,22.038709589192877,9.706577154793194,10.322404670514516,3.513744495656283,-243.17835010446288,7.970696988464624,7.101756037096493,35.03217138499167
2025-12-12 18:25:31.312105,Right,-33.36989703892323,-36.53026479219989,-51.709298726171255,-18.240606220228074,-43.86487667758047,-50.22289865361381,-56.00223494972306,-26.31475623741062
2025-12-12 18:25:31.316128,Right,-81.57780544595153,-78.21755335531634,-93.64753010954882,-64.0555865024944,203.07320193502528,-97.46733801957453,-98.93788061730447,-71.74924812223253
2025-12-12 18:25:31.320079,Right,-33.59847482060286,-33.29392583158187,-33.53167168260552,-48.30246314468968,33.60521487091319,-45.22621665526094,-39.884226000234776,-17.97787873701236
2025-12-12 18:25:31.324079,Right,17.491466628700437,16.461390780190413,17.112986077234382,-0.31952861634636065,-235.44639838632793,8.237839660665486,10.163215050626604,31.309851857207832
2025-12-12 18:25:31.328143,Right,-29.630394137697294,-22.599771200169926,-38.678700516349636,-11.19897047388804,-98.41330653340628,-39.47673920581292,-46.56334593518113,-21.62038564631439
2025-12-12 18:25:31.333164,Right,-93.35819690597418,-79.78739155661606,-100.65660604938603,-63.39748966056504,192.87576696054384,-102.75230084281066,-110.58383000526374,-85.1973851659859
2025-12-12 18:25:31.336176,Right,-59.049554869801796,-49.79948318714014,-56.27592407946213,-61.632366173558694,100.16601831917797,-65.96132597486576,-68.0625456142443,-47.78589263071626
2025-12-12 18:25:31.339183,Right,9.074347732690512,12.793588525739324,11.618019350644317,-8.29500438564719,-195.5866071532182,2.4865250185175682,-0.34302149582799757,16.45711749694965
2025-12-12 18:25:31.344217,Right,-11.119215152015386,-3.6691099540912546,-18.98111402642826,2.7053116821625736,-136.14120624937277,-21.25221488988609,-30.28477718540671,-11.773081466202711
2025-12-12 18:25:31.348260,Right,-72.83922272825293,-60.52876961118454,-82.36499941706279,-39.28222011376056,167.55209410220414,-86.18527233388158,-93.8129959180078,-74.64703878293585
2025-12-12 18:25:31.352246,Right,-51.35563473046204,-43.780689328610606,-51.24481603052118,-45.05354856521444,145.39554775245415,-64.2666516645404,-63.25469805758621,-48.82954780419459
2025-12-12 18:25:31.356177,Right,19.64172939938726,20.948898738031858,22.556967995435116,4.1791658445145,-160.81538873782483,8.771500556416868,10.845874566250131,20.442484902865544
2025-12-12 18:25:31.361216,Right,10.63174886352499,17.29772180024156,5.1299222144298255,21.182606648908404,-174.46151510462005,1.224203319659864,-5.837317173230986,3.595265483985713
2025-12-12 18:25:31.364251,Right,-59.66574377719371,-41.59746707620798,-67.1518097912849,-21.367732325859834,134.46476397007427,-66.5847397856196,-77.96481678809505,-68.23061613900427
2025-12-12 18:25:31.367337,Right,-57.66258670354728,-36.285170084600395,-54.590720386877365,-36.96052345741191,190.93281360413312,-60.69339557170315,-65.14922393418237,-58.6803456453963
2025-12-12 18:25:31.372226,Right,15.390022307452455,34.45995170537935,23.716690842476964,12.786675289076811,-109.26013194114057,13.528090379782952,14.771980789599183,19.02261385120073
2025-12-12 18:25:31.376243,Right,25.208750536949083,48.829485537004075,24.269079308556684,43.49873510734324,-204.04450504601482,19.716951350696036,17.708517322549596,24.965979830307333
2025-12-12 18:25:31.380251,Right,-44.73299691208376,-12.472396681521786,-52.96934475884336,2.8088739939048537,83.29030956923816,-54.03268580768781,-58.078973776253406,-48.06765748808175
2025-12-12 18:25:31.384246,Right,-62.30617738907313,-31.137126579720643,-64.08972882966191,-32.62099044615752,214.32312782092777,-71.24057294638624,-68.86883485209546,-62.44131871085847
2025-12-12 18:25:31.388285,Right,6.763702938464121,28.368285216718505,11.109898853857885,1.6240933946610312,-55.54729579029299,-0.41042397547425935,6.999272519089573,7.799384067839128
2025-12-12 18:25:31.392348,Right,35.521431887475046,54.4103609666854,33.19188199574273,40.775562693946995,-219.30948557940792,27.079007268730493,30.46167067715578,30.858277384493704
2025-12-12 18:25:31.395340,Right,-26.603503875012393,-1.178312682746764,-35.11070365196065,14.572897449674201,31.611937605281128,-37.36875092093396,-37.38858646481822,-34.20551073165916
2025-12-12 18:25:31.399347,Right,-59.26091799550704,-32.01109520131649,-59.07946985993476,-20.74441050941823,229.1808936720372,-68.66756148193235,-62.74237494816043,-60.1455078369836
2025-12-12 18:25:31.404359,Right,2.8993289798781916,22.975921290570113,14.473860448881169,10.132677178193262,5.2513588239235105,-2.350411762687145,9.074961084450479,8.882658929513127
2025-12-12 18:25:31.408317,Right,46.01835781073896,62.51342502686384,54.425728299880575,56.16414009947039,-218.87677858845927,43.23262409281597,48.48508948949893,49.210118387722105
2025-12-12 18:25:31.412373,Right,-11.220580513130699,10.38933799476581,-11.920865534084442,32.04672195612147,-21.79487645430345,-13.477275447701686,-17.62951289605553,-13.76097875540836
2025-12-12 18:25:31.416406,Right,-65.11727689359759,-41.93883330106837,-63.4133753363858,-22.50992139887967,228.41091024449634,-65.92165109398775,-68.73402666819311,-66.25900418646233
2025-12-12 18:25:31.420348,Right,-19.620792857469496,-4.850818165905366,-10.641895194181416,-15.092277395939163,64.07867236944003,-19.20620923818933,-14.609856778988615,-17.192178498789872
2025-12-12 18:25:31.423360,Right,36.21106257187785,44.67579602191836,39.76127675711905,30.08124757141195,-205.22636924816834,33.88022352998814,38.136170747791766,34.75567212497663
2025-12-12 18:25:31.427436,Right,-3.3334014726715395,9.687466041770676,-11.996740317212243,20.976569873400877,-72.02616182300699,-10.726022758579347,-12.528688446422166,-11.26055085891312
2025-12-12 18:25:31.432452,Right,-62.83625308091723,-44.87224512612738,-70.70404821298871,-28.420122949635697,218.69558609226806,-71.6105303897566,-72.75812306265288,-68.75785188693771
2025-12-12 18:25:31.436452,Right,-28.249486372787942,-15.022062640753575,-24.956960978415736,-24.608364670981246,127.83558730840377,-33.84569951584854,-29.29223455597821,-26.99058256599892
2025-12-12 18:25:31.440483,Right,38.34478074106664,46.020935645268764,42.98095598052896,28.863759354258946,-169.7320411570945,35.123366461157275,37.749400404893095,39.78386421141295
2025-12-12 18:25:31.444433,Right,15.083446876898961,27.088853055822256,10.765032571267511,36.46992916123054,-115.42402649944779,10.921639407919429,5.120348005344567,10.42979947254753
2025-12-12 18:25:31.447481,Right,-50.83426290054922,-32.33890844976486,-54.835833102915785,-11.739561251135456,184.76040808912876,-55.9547272174168,-62.545676112182264,-55.96586847980052
2025-12-12 18:25:31.451493,Right,-32.16115951126994,-16.313470087203314,-24.122656635183375,-23.13227635311705,159.98645976201806,-36.89056352980697,-35.18140404492442,-31.156613881365956
2025-12-12 18:25:31.455500,Right,39.120485446896055,49.87559771554152,50.68462405708124,23.073816401421936,-152.39901098048722,32.03896585003531,37.12764145820984,41.005551154183195
2025-12-12 18:25:31.459542,Right,31.61636482722315,46.81900737300384,31.86197591423479,37.66768485224384,-173.5794379811632,17.75583408363309,17.295299626162887,26.14200171292032
2025-12-12 18:25:31.464532,Right,-39.043908643707255,-15.587606196975685,-46.19210089448461,-9.439114733781025,133.88682719760618,-58.35850812843273,-60.82778635952491,-48.89257114692464
2025-12-12 18:25:31.468548,Right,-39.1788307483439,-16.940201118377445,-40.301671487013664,-30.90248457780399,195.58622175325218,-57.41299179930502,-53.520648235240515,-45.52480007498343
2025-12-12 18:25:31.472491,Right,32.2253001327299,47.60073030191052,35.05906347499695,14.540961754384625,-100.4234305519094,18.78407492054248,25.469660626880795,28.308237971028348
2025-12-12 18:25:31.475513,Right,40.58775428755689,57.313887292209984,35.92344323224461,42.622746905988606,-195.56633395592144,30.353017397763324,30.44900411268827,33.882874753880174
2025-12-12 18:25:31.479561,Right,-32.375042253810534,-8.17929347917925,-41.0496538855441,-0.9487043075423571,92.58375706181323,-41.13981933930336,-45.29563869145932,-38.48816359793773
2025-12-12 18:25:31.483570,Right,-52.14438677404178,-28.77144786455392,-51.12009732589286,-38.61987464443882,229.05025160267178,-59.33115021580306,-57.95281305413664,-51.04330127705725
2025-12-12 18:25:31.487625,Right,20.538813400034996,34.696299751638435,29.37324579183405,-2.9104879614824313,-36.72638719696624,13.128901170115569,19.00783340194539,24.658788639244904
2025-12-12 18:25:31.492612,Right,58.46752283146998,69.38004281739086,59.52255912136752,41.157313071849785,-203.14184432996262,46.97757729976365,47.50763828779964,55.427568857128335
2025-12-12 18:25:31.496559,Right,4.514155014850985,20.77222241340496,-4.151179700780631,18.702884609749162,42.21867666748585,-11.465760437902645,-16.087418948798586,-5.123304516184362
2025-12-12 18:25:31.500638,Right,-27.014809950065683,-9.852861511088122,-31.189084761623235,-18.850802374847262,237.11786272435347,-43.3330054288017,-42.19432904010682,-33.30967185182635
2025-12-12 18:25:31.503700,Right,28.981584479166486,38.883543563344574,32.81766649485871,3.126141365544754,12.104650898596446,14.835456350301683,24.208367461185844,28.418599679439467
2025-12-12 18:25:31.507687,Right,63.91320159312272,70.84344952135143,62.29943094693044,38.700076951608935,-215.7763493008024,49.73586023999451,57.52384370127402,61.853305649212416
2025-12-12 18:25:31.511693,Right,1.9723943683475227,14.971847267655903,-9.952840836658652,9.273037667830067,-23.962097079678642,-13.959921743607993,-11.823281623121147,-3.251917735077768
2025-12-12 18:25:31.515691,Right,-51.99475416521818,-36.24697280086366,-60.962822710624096,-43.410621402399556,223.6182923132219,-66.98254825180993,-62.598036409906854,-53.09887246609651
2025-12-12 18:25:31.519688,Right,-3.3357015467609017,5.3933014706090034,-2.1039788067409972,-29.410274470981676,58.14277446985943,-14.732378611763124,-4.521576590863333,1.3409786766078469
2025-12-12 18:25:31.524635,Right,57.5547802789697,61.19166062722252,57.65795750582947,23.81491125982575,-215.6319374051891,47.673187996595516,55.66437835687793,59.456609635693894
2025-12-12 18:25:31.528732,Right,22.50539368941645,31.0426529781962,14.016903580280996,21.114752086254157,-89.79211794277217,11.088374286911858,12.732155315587079,17.778239704794032
2025-12-12 18:25:31.531669,Right,-36.155354694243215,-23.294113397942056,-41.859841159273856,-26.160913539562898,195.84697794595195,-47.98063634297796,-44.14883692405783,-39.653315840887444
2025-12-12 18:25:31.535711,Right,-4.294305625671768,3.141099455877338,2.005676821499037,-24.450150683325774,103.74666423277449,-14.212058448058087,-2.2534074552113452,-1.3757667287773074
2025-12-12 18:25:31.539726,Right,59.63895039847375,61.65782826802479,67.31196926781104,25.909378176238533,-193.52111627909107,49.987205193909176,62.1233908236336,61.873639095885665
2025-12-12 18:25:31.543726,Right,35.60914547732136,42.88571421080724,33.15353806544226,31.85801650106623,-136.0723288990739,23.254046999139973,27.810939136463276,30.777634673097054
2025-12-12 18:25:31.547697,Right,-30.634327083444077,-16.134233639100785,-35.19573945065622,-17.180860676997327,173.89113733113481,-44.76615776732433,-41.326773894578764,-36.347858333743716
2025-12-12 18:25:31.552780,Right,-11.671073160754531,-0.8029064509655655,-6.78687193497035,-29.265735009961645,161.71560505111847,-24.73292525303259,-13.614246098331023,-10.292654994660552
2025-12-12 18:25:31.556737,Right,61.822569333247884,64.16900503708166,69.23612436986105,17.134617399959097,-145.3144839921224,49.616372394804785,63.64545918935164,67.41290762369681
2025-12-12 18:25:31.559840,Right,56.19154411616364,58.473990574188065,54.1165550025994,32.80711459345912,-170.37842897482915,43.11766648727644,50.919236058842216,61.004116443844396
2025-12-12 18:25:31.563801,Right,-16.303862073000346,-8.927268258112235,-21.590904054038845,-13.503893550370776,132.38750602276195,-28.448851553352142,-23.976853964749353,-7.286394277365616
2025-12-12 18:25:31.567850,Right,-20.50595510455969,-15.092069063595773,-15.466744866552972,-34.70013682184617,193.3082365189657,-27.893311591731617,-18.641772181776105,-0.908493203445687
2025-12-12 18:25:31.571809,Right,49.6563767420721,48.87164567094169,60.5658811703297,12.085978356826672,-104.34333813533522,46.71033063574578,58.037915873850125,74.5000812726903
2025-12-12 18:25:31.575837,Right,61.02696471498257,62.374565285394965,63.338515618549536,43.86966889289397,-205.72241579835463,58.36495710564486,63.90794203646135,82.20232723365189
2025-12-12 18:25:31.580795,Right,-9.05847952141994,0.5794190516162416,-12.937338691920559,5.193395878686715,75.05264401435488,-12.681887335334977,-9.3990789265913,11.528786113140086
2025-12-12 18:25:31.583850,Right,-30.927184460530952,-20.969763327268083,-25.845861428595526,-29.33560305640458,206.23359615281515,-32.671356684466446,-21.40311108783453,-1.6403376682137605
2025-12-12 18:25:31.587819,Right,34.02367074402173,35.59690912868518,48.24695635868102,5.182397880034841,-64.11659774954751,34.55329551512841,52.32483150609255,69.83029204903141
2025-12-12 18:25:31.591873,Right,62.02217884082074,59.85701706081454,70.43081057757081,43.98278498036234,-234.46511619567536,60.67370378876876,73.54436799379937,92.66102946555111
2025-12-12 18:25:31.595867,Right,0.42036416784321773,1.5392294331386438,0.17072870289121056,15.803780016962264,11.222641944616043,-5.149147839461875,1.0576007621148165,22.89703474295311
2025-12-12 18:25:31.599901,Right,-33.30401592666567,-34.29303148820145,-28.920636832039236,-23.376299784904404,210.8249896481757,-40.39271558566361,-30.77425580416002,-10.998845441277808
2025-12-12 18:25:31.603884,Right,27.230692406139497,15.899450948879348,39.89208182322545,3.658920091793334,-11.659496346790547,21.079274209925643,37.32230467363115,52.31417005051844
2025-12-12 18:25:31.608890,Right,71.08271982705355,54.46137815819657,79.53909414886766,49.32317866740232,-243.22398035645892,64.50883657051781,78.65092032163466,93.0580045490533
2025-12-12 18:25:31.611903,Right,16.23534655098956,4.88046311938524,16.87572829907367,29.47192748888301,-55.91848708463658,8.400604514697989,16.98899913693549,34.59434510693609
2025-12-12 18:25:31.614922,Right,-37.85138466893659,-45.56887694343277,-30.905005939834155,-19.607545291231872,192.88868401196305,-43.9086687913059,-32.56133594591847,-14.845548233795853
2025-12-12 18:25:31.619967,Right,3.119812092407301,-9.974147795070166,23.27836928206125,-9.800100794285754,32.396826914337,1.2168455923128931,18.94159578149811,32.816829151299316
2025-12-12 18:25:31.623975,Right,53.249237418836856,36.208948476498335,73.62943937547425,34.08287714633843,-238.2178353194504,52.958308254797885,68.05029393113728,80.53849194198483
2025-12-12 18:25:31.627991,Right,10.497404769837885,-1.0478376604896766,21.61891177706093,22.482138054445386,-110.78050089171666,8.529535488178226,15.315090090862213,30.50982548781394
2025-12-12 18:25:31.631971,Right,-49.11067479290159,-55.49672022852883,-36.955010835124995,-28.537777847125653,178.2550638201028,-51.526501063312026,-45.396673056278814,-29.31441368682863
2025-12-12 18:25:31.636011,Right,-12.16822513279567,-22.980357241462116,10.600626151963297,-24.730300913733117,89.06800619797286,-12.156672077834628,-0.4536934054667654,12.591801538288564
2025-12-12 18:25:31.640015,Right,58.23029385850623,42.240224165754626,82.17286414439877,30.151187377581664,-211.1685128582103,60.06576603891972,70.35838433420759,81.89031779618381
2025-12-12 18:25:31.643016,Right,35.61777987189453,23.99481338059013,50.142627855642786,37.70010101389835,-160.38810212322642,37.20377411805839,39.151270495211065,52.86892947530578
2025-12-12 18:25:31.647997,Right,-38.027133319033965,-43.75552905880431,-24.785877220674593,-16.128694780152728,148.41970769314867,-35.743284527330616,-35.35881219290786,-21.39933039927564
2025-12-12 18:25:31.652057,Right,-31.53256844300131,-41.53761843203574,-8.329876641437295,-37.12863168689091,143.90847328206655,-26.9452708381541,-18.911537091247737,-9.475083788842312
2025-12-12 18:25:31.656051,Right,34.49742851885685,16.598339916225086,60.37857172055374,3.4452183647681522,-154.09507739798937,38.69992686462592,50.52277648105155,56.53283250421009
2025-12-12 18:25:31.660063,Right,32.85897054814086,16.478226087479925,48.86509698971713,21.170166182320827,-176.26752047483023,32.25915289240493,39.55924084506296,47.56913102856197
2025-12-12 18:25:31.664067,Right,-28.608827415802352,-38.26382811316398,-16.817959012150823,-18.542192962845547,124.31526315049632,-33.7510656829827,-27.636707998259226,-17.055390876237652
2025-12-12 18:25:31.667106,Right,-24.111894115437735,-35.18507987508383,-3.2384407201789145,-35.7560415494454,182.17052117679123,-29.672566790624387,-16.66710771787075,-8.19257968490274
2025-12-12 18:25:31.671091,Right,48.14907014167329,29.564765641051963,73.7320761080955,9.632572395427815,-118.74622119298874,43.97653711750627,59.95966553135622,65.01003990966638
2025-12-12 18:25:31.675143,Right,57.51093961760307,38.410341126558706,73.09984943455493,37.86457894419891,-223.2098046319552,53.62104341894883,62.31604381211764,67.63813204994221
2025-12-12 18:25:31.680117,Right,-14.863489503977235,-27.784570411867207,-7.497922966074839,-2.800615730811842,58.036790358622966,-17.38113506594209,-14.552889198444973,-8.087802895533969
2025-12-12 18:25:31.684139,Right,-37.84477172133484,-50.359198349672624,-23.94330568965961,-37.5553555521974,194.11173077879357,-35.29620770794986,-28.588050194210155,-25.079877990821842
2025-12-12 18:25:31.688132,Right,27.256520988442844,8.619341950065063,48.105293261407496,-2.8020750544701514,-72.5659984449012,35.55551694138717,45.568883604140865,44.60577887909312
2025-12-12 18:25:31.692113,Right,55.62527756002373,36.443514575408244,69.07354243085865,35.5786574704498,-244.59851962191897,66.04596371518846,69.26075070919251,67.68415139270292
2025-12-12 18:25:31.695116,Right,-7.739314527943407,-20.62887942407906,-3.86629973867457,4.781134860798375,-1.004923802720441,2.472617937674613,-2.191414151344361,-2.3942004842465394
2025-12-12 18:25:31.699199,Right,-45.4779394693378,-57.906449220148716,-37.14380085812809,-39.02292364154255,202.0901216461716,-33.97770994384109,-36.894062239316554,-38.95980377390515
2025-12-12 18:25:31.703190,Right,12.061732474327982,-7.890012222232599,29.426094489128445,-15.512483627629535,-14.52336819314587,25.599773650923566,26.75619125828962,21.537203132404102
2025-12-12 18:25:31.707206,Right,55.55668848564801,34.20850598819561,70.15471175696075,29.500543944585615,-243.77102151869622,68.5032763047825,65.0110971580034,61.281709582453914
2025-12-12 18:25:31.712151,Right,1.0590381774818525,-10.457679567605737,8.882719145600277,10.079139983397226,-55.5449577180334,11.716104102298004,1.3248255317739677,2.094261122663738
2025-12-12 18:25:31.716212,Right,-52.25154857951975,-56.69028515294622,-38.721585367482476,-38.558535678538874,197.86060800652558,-41.7915745307223,-49.23297006402208,-48.1856631117771
2025-12-12 18:25:31.720226,Right,-7.194090916855657,-16.182754133921208,17.215997319141024,-26.220154659027457,43.373025217042596,4.472744496119503,4.818326651711686,1.7876741394939017
2025-12-12 18:25:31.723239,Right,49.95664904493469,35.65308741982108,71.74919298808163,22.977256871094028,-224.78188562189098,59.98253161510138,60.08601854931112,55.869181291964196
2025-12-12 18:25:31.727251,Right,11.528208121012995,0.8465811626970208,21.727720182021585,15.787710521846634,-96.0923206835505,17.28594011969153,12.041867031097354,11.241804915262037
2025-12-12 18:25:31.731275,Right,-49.88394692914153,-56.67845013901524,-40.78712467270816,-35.42012742382703,198.35754587964038,-46.282949659449514,-49.658735966560926,-48.966275568669516
2025-12-12 18:25:31.735309,Right,-17.77219650336201,-29.729677685404113,-0.7592959597677691,-35.84997373325888,116.85713155471967,-13.498749218410467,-9.835629048138799,-12.102757711090817
2025-12-12 18:25:31.740290,Right,49.68068515559071,31.853861657586094,64.56278163666866,14.036554017664457,-179.74280725610515,52.73752593930067,56.117964709821536,52.268010681684245
2025-12-12 18:25:31.744296,Right,28.530209817440664,14.491568054226036,30.892104697853938,19.650012510283887,-130.4867693806118,26.98191018052694,23.975009265992412,22.75113965802666
2025-12-12 18:25:31.748309,Right,-38.95626185475385,-46.57941559357846,-39.409312633026275,-29.659440444776465,174.63635786696977,-43.59983813036342,-45.42847027093376,-45.344546148924564
2025-12-12 18:25:31.751344,Right,-24.790251952529616,-34.14792831479667,-14.24139084514536,-40.282668185519015,164.55418847700275,-27.832372310851497,-19.93916112779698,-23.016677207531757
2025-12-12 18:25:31.755331,Right,43.6552330231857,30.500808883303876,59.87164254241725,10.031615745063391,-141.39891197707402,43.405511805854985,55.314647002491256,49.98858157181894
2025-12-12 18:25:31.759341,Right,35.58110715366547,27.74536730142131,44.83276108730206,30.748444204346015,-169.62179709976044,35.78532120293494,41.983473477925145,38.75282774942025
2025-12-12 18:25:31.763315,Right,-36.098773448954944,-35.494653290020835,-29.846175169375783,-11.563941055910163,131.8672384427773,-35.683956870200745,-31.915592705758172,-34.325480976975086
2025-12-12 18:25:31.768385,Right,-36.86462639222282,-38.05203467021151,-21.834170054346032,-30.86902426496499,194.7513758206078,-34.073087618388854,-23.736925590521423,-31.010290954465745
2025-12-12 18:25:31.772383,Right,38.09831486220264,28.955104198804918,57.474031496352836,16.561394034457408,-105.36239101447791,43.10404394880425,56.9807481213611,44.61876991829922
2025-12-12 18:25:31.776371,Right,52.704648562352304,44.55891584526046,62.48506287952114,48.49585893858148,-214.4981045191562,57.6579996037608,64.71221680278177,53.00756757130148
2025-12-12 18:25:31.779431,Right,-19.074527406750803,-17.840647073078003,-17.211595913144265,7.961513845600166,65.25129556142201,-13.8539171280554,-12.939276807246642,-22.4155312537805
2025-12-12 18:25:31.783427,Right,-46.92239482845753,-42.57008402573683,-39.38504645728244,-31.841387092872537,208.1997310723309,-38.967551463971176,-34.223858129280416,-46.54884612913156
2025-12-12 18:25:31.787428,Right,12.976540068047143,12.157216841070522,25.932923378295527,-3.5643186365878137,-49.67255135561027,23.027698414553015,32.614615766993666,15.445840720371052
2025-12-12 18:25:31.791444,Right,39.998074752020784,38.80191973878891,44.83813901876783,31.738550550859145,-218.9859063919048,48.230199478336544,53.9929606605765,36.99398890977318
2025-12-12 18:25:31.795448,Right,-21.5191944315643,-15.404454069035182,-25.511182415284566,2.5825241456859658,22.527321461842803,-16.07017781235936,-15.154782237699692,-28.856610580736742
2025-12-12 18:25:31.800455,Right,-57.444896356907975,-48.77368779538483,-55.55755895601396,-37.38112567456119,224.67398907205097,-50.6310336421584,-46.009309943830885,-60.05929687304524
2025-12-12 18:25:31.804465,Right,0.8111845831167557,3.6361903195270315,12.305693520775094,-10.385422273754557,9.002813965857058,12.224004562117443,21.469981497957633,4.507053035336867
2025-12-12 18:25:31.807470,Right,45.618082248790415,46.669528429110414,53.06631290698351,37.73504306297309,-220.82078593086044,59.75299759629161,63.79442139709499,48.02539753446035
2025-12-12 18:25:31.811484,Right,-6.42970954723387,2.095768774253429,-8.389996775735199,21.526549259483545,-34.95038400908015,7.545942683493195,4.023699309145741,-6.8114232063999225
2025-12-12 18:25:31.815504,Right,-57.99882231547008,-44.86642341328161,-56.62335179381989,-24.92895060538831,216.90297444757744,-43.82317381641951,-44.0441018040292,-53.17232532703565
2025-12-12 18:25:31.819516,Right,-13.171659639360314,-5.241820191177339,-1.9290064668784908,-12.774853226288542,61.07044501463497,1.9633423998930084,10.607195178577967,-1.1225585962638434
2025-12-12 18:25:31.823525,Right,42.793855973079644,46.825576665300105,51.28501936126122,34.62484119898363,-211.20068000149695,56.55748842362118,65.06947445590777,52.51882057797047
2025-12-12 18:25:31.828633,Right,3.8376796227357772,13.501086977710656,0.35558577371557476,26.349336926738033,-88.49811771335953,13.877172481910748,15.418140250141732,5.294178590083902
2025-12-12 18:25:31.832565,Right,-57.37775606352625,-42.734967582453464,-62.61678482867137,-24.163076298378655,202.20455132348616,-49.45132015700074,-48.01080754740178,-58.04065878553047
2025-12-12 18:25:31.835567,Right,-25.44483834436278,-15.918035621753916,-22.771031470296293,-23.140446649416845,119.97386124384866,-16.88537449386604,-9.15197121773599,-23.007644269191587
2025-12-12 18:25:31.839577,Right,41.32047913331371,44.979575207061316,42.807910102401365,28.329258939573265,-177.00992818280793,49.81654745804008,57.2179747477785,41.319302925039665
2025-12-12 18:25:31.843597,Right,20.02731295649437,28.243996225332012,10.16650494219357,36.348981165574514,-128.0394687525568,26.59639662074551,26.49999658199522,12.422404284116055
2025-12-12 18:25:31.847617,Right,-46.383950211246884,-30.803863695479777,-58.75410819519675,-10.188357289182022,178.87946327033933,-40.123594867342035,-41.68907286594185,-56.25907526546871
2025-12-12 18:25:31.851553,Right,-29.558684266688488,-16.39991467605887,-32.45492535136145,-19.604796770292523,170.50396613257544,-20.869551555124417,-15.684055481440737,-36.35317560593103
2025-12-12 18:25:31.856674,Right,43.36846901488116,49.26633355786362,42.55006331018376,29.741906070217738,-139.08101439932943,52.95898949079492,60.08832075167811,34.216124035021494
2025-12-12 18:25:31.859691,Right,39.97662130703475,45.98565013014195,27.41443523784619,48.42175348838282,-175.15839413771027,46.7132517428945,47.10179016441543,22.68677209791349
2025-12-12 18:25:31.862676,Right,-30.01794671981861,-20.1922865004899,-50.104910268804815,3.7926812206333125,122.30114113873606,-25.51345235152803,-28.194576933154167,-49.05368807942614
2025-12-12 18:25:31.867678,Right,-33.504570659272304,-27.950304839868295,-47.90917577067739,-18.056296174921954,188.65796055955252,-26.61621924463725,-23.51215357779074,-45.37589139751435
2025-12-12 18:25:31.871677,Right,36.84335944779514,33.87963575497997,25.588865198329586,27.345233178721173,-105.90047101267373,47.85296124834713,54.12556303011297,28.72102180568436
2025-12-12 18:25:31.875673,Right,49.64274144820638,47.45343273688468,29.316137135319877,59.83366502357421,-213.5541208523191,62.00637696728336,62.74690981786625,36.231197388100554
2025-12-12 18:25:31.879640,Right,-18.407691723323296,-12.535227073159149,-44.88664796710145,24.031233610685376,63.37861868044638,-6.2476838850143395,-8.770208643145452,-36.22910155516183
2025-12-12 18:25:31.883705,Right,-38.55136145051301,-31.976478842454526,-56.91364784469988,-8.057217423285692,201.18388040685386,-24.792807671004994,-20.888246865975816,-53.48920977020498
2025-12-12 18:25:31.887700,Right,28.464109308222987,27.18564089773463,17.81173127805232,26.762138823052737,-63.651133504685276,43.974814136461646,53.54980184892702,15.270901916303046
2025-12-12 18:25:31.890658,Right,57.754839937020506,53.52779214331531,40.07527673786535,63.05856033420605,-239.165642966037,71.43344367651116,76.38403227712115,38.31208760100344
2025-12-12 18:25:31.894734,Right,-6.327333609509651,-5.716797256756763,-33.45897168463853,29.035625928006993,1.6426737228948696,3.2754383503615827,2.0660631846476463,-32.26946623060212
2025-12-12 18:25:31.899717,Right,-44.732096067241855,-43.69906258745141,-67.54101298766909,-16.97217470553369,207.4978162776215,-37.37267745416284,-35.42949758223767,-69.47367702719202
2025-12-12 18:25:31.903748,Right,15.467189845232724,9.27813596915621,1.3127830515586538,7.622590184686487,-7.965070455566092,22.0912773476648,29.486422767866316,-6.6891030052356655
2025-12-12 18:25:31.907749,Right,65.44493317918932,57.10015876375655,47.63149013263683,57.40488624646787,-244.24710616339507,69.76594110658698,73.531819080079,39.49844943856806
2025-12-12 18:25:31.911763,Right,16.906210654274446,16.517729451708874,-9.272181990640092,43.56338483068794,-64.33711233341273,18.437165456729417,15.52558033776586,-12.532797792522615
2025-12-12 18:25:31.915783,Right,-36.23320569318821,-31.22804412489313,-58.10711431974414,-3.450837625816348,188.52597927159877,-34.084761173107836,-34.144073405888776,-59.343076465447666
2025-12-12 18:25:31.919796,Right,2.9585323488709037,3.22988677664398,-7.637213396788866,4.849162574248112,36.43511110576037,8.588227517009727,16.806703333128098,-9.43221479465683
2025-12-12 18:25:31.922817,Right,52.23610876616385,48.737614047466195,41.78169456699834,47.689465607700186,-236.3851044338562,59.89730664433773,68.59417411329923,43.88268036867339
2025-12-12 18:25:31.927807,Right,6.150492242380551,8.658620326914388,-11.734812839549704,35.4870709670904,-115.79349727913586,13.982269231093596,16.95460176819688,-2.29987305769464
2025-12-12 18:25:31.931821,Right,-62.60198578299105,-53.99086237483425,-76.71094896713839,-18.537701717148593,178.37026187106494,-52.4150394883618,-48.77709957565821,-65.08037336939742
2025-12-12 18:25:31.935830,Right,-35.44599439027934,-30.19794271974024,-35.68100237726685,-19.508219965639,102.53480711627174,-19.95991431787661,-9.572480860075302,-27.642938969869647
2025-12-12 18:25:31.939842,Right,31.4736220863133,32.51893878210285,36.00462081497608,31.899189094707253,-194.1692846461874,50.657401568081696,61.42308929821593,42.9692993990775
2025-12-12 18:25:31.942865,Right,11.770527553861484,18.060440492790804,9.985547519376269,38.87786289876203,-151.13211684040257,30.750720525258657,34.73831422994044,20.050138053531555
2025-12-12 18:25:31.946873,Right,-56.139751116375464,-43.26197847069125,-57.39100915238305,-12.035285972493512,152.14426038409715,-37.61656895648048,-35.118063763125974,-47.941621367228436
