timestamp,label,FC3,C3,CP3,Cz,FCz,FC4,C4,CP4
2025-12-12 20:53:12.295111,Right,1838.6217522650143,2315.1884795153915,2322.8866955664316,1881.0272567892926,938.5334312675266,1665.1518898444724,2039.4726489922741,2510.6275614060296
2025-12-12 20:53:12.312172,Right,9901.214080998747,12470.355982519224,12509.254481760969,10133.939928400607,5058.428111979592,8968.682098319132,10985.643482202062,13522.433464003678
2025-12-12 20:53:12.315165,Right,22683.011079631367,28580.061841951425,28658.764238135005,23233.398687501896,11606.870502734488,20553.55880607891,25178.994993281012,30989.06181494335
2025-12-12 20:53:12.319177,Right,28356.884156218024,35758.15173508804,35829.35922982285,29086.115738210625,14548.870815107164,25713.990728593642,31507.373832426783,38767.27967564446
2025-12-12 20:53:12.322199,Right,19199.582495458068,24266.85704890435,24260.92462709637,19764.17810474433,9884.606127693427,17451.045540699983,21391.12036080229,26300.20123734932
2025-12-12 20:53:12.326201,Right,2200.3838831474277,2883.217571098561,2780.113003553415,2382.106174018045,1113.4130941737822,2080.8002066596237,2558.250012769553,3108.469657972455
2025-12-12 20:53:12.330211,Right,-10581.654713101569,-13216.929945428128,-13376.356929114932,-10718.324824751442,-5552.506497645678,-9487.062711550418,-11624.735474339745,-14351.382214676938
2025-12-12 20:53:12.334229,Right,-13792.36970737757,-17279.87046143139,-17438.412826165382,-14024.180982585705,-7229.070184128825,-12403.570373701135,-15206.95167264028,-18756.246495137457
2025-12-12 20:53:12.339248,Right,-9862.412542195583,-12351.436160693585,-12475.012572480773,-10010.561134268064,-5134.627208918537,-8859.618240412849,-10868.794932548597,-13408.945427318802
2025-12-12 20:53:12.342239,Right,-4253.736708449083,-5303.40493385063,-5390.2453200132,-4283.127533084655,-2206.798454660806,-3791.1264276823495,-4662.417200422904,-5762.665963187232
2025-12-12 20:53:12.346270,Right,-1200.8334411872202,-1466.912688192795,-1535.19642829441,-1176.8677802108577,-687.1037564570724,-1030.6285838095355,-1284.3504592584795,-1600.7054627243197
2025-12-12 20:53:12.350284,Right,-1841.8244194802828,-2274.74974082259,-2344.0401483381866,-1836.6549931350164,-1052.9631532406202,-1612.5376605259953,-1997.2678383537568,-2476.3933296372415
2025-12-12 20:53:12.354323,Right,-4394.594826789922,-5486.6272022643825,-5563.994437451591,-4438.263153536711,-2314.7251631398685,-3925.4783684654976,-4827.922792797326,-5957.971948456019
2025-12-12 20:53:12.358307,Right,-6025.956267720205,-7542.655843267217,-7620.735875040875,-6107.912201519706,-3111.9070760112954,-5403.882431586389,-6640.542964299559,-8184.95846423856
2025-12-12 20:53:12.362330,Right,-5360.601715099998,-6713.436663924833,-6780.697184544522,-5445.177551264758,-2817.11179315584,-4803.527930872049,-5911.653049850138,-7284.60162464052
2025-12-12 20:53:12.366338,Right,-3510.351620436297,-4392.465620044852,-4445.418834048789,-3562.86571286025,-1910.8804710038821,-3132.8532792850165,-3868.348594232346,-4768.99454616569
2025-12-12 20:53:12.369336,Right,-2545.3967378537636,-3181.3331106888363,-3226.2980541517027,-2567.9167906707153,-1366.8757236468955,-2264.984148650896,-2801.8514779208926,-3456.8912850568304
2025-12-12 20:53:12.373366,Right,-3117.7128157409607,-3904.768872050103,-3948.7793622792233,-3150.7909762337804,-1604.873238094442,-2787.558396887267,-3438.848853642354,-4240.665748376632
2025-12-12 20:53:12.378368,Right,-3980.096034708782,-4996.906634686398,-5039.782909534057,-4050.2885790431174,-2087.457022426126,-3572.3135072514415,-4400.987039187923,-5423.542449122528
2025-12-12 20:53:12.382383,Right,-3791.862618552521,-4765.787924875622,-4802.379336508922,-3872.726394320489,-2049.855010619911,-3408.3882167253178,-4198.498340071761,-5172.352066778461
2025-12-12 20:53:12.386408,Right,-2787.4633932317374,-3500.602859419072,-3528.602809463395,-2838.5433888724074,-1492.9742433964275,-2506.8954446447315,-3085.6660608658567,-3799.5780805563554
2025-12-12 20:53:12.390404,Right,-2250.8796218228526,-2820.487121703103,-2843.2826808959944,-2279.889446223853,-1136.7721828550566,-2025.9948359082919,-2487.915602677851,-3059.444773758296
2025-12-12 20:53:12.394447,Right,-2698.787254421157,-3383.441516336985,-3405.2721497603925,-2748.1736024812562,-1381.3483106992207,-2433.156726232264,-2984.5849097638857,-3666.7807816688437
2025-12-12 20:53:12.398423,Right,-3257.9280750633916,-4091.1060956494184,-4111.63013999071,-3336.217500090832,-1741.8845750639448,-2942.258529879269,-3608.4634360163473,-4432.888034979114
2025-12-12 20:53:12.401485,Right,-2952.7851965274895,-3710.2814171422506,-3725.543831064482,-3022.218151156092,-1576.4579825878027,-2672.317080965149,-3273.5057569743367,-4020.2276196109597
2025-12-12 20:53:12.405487,Right,-2042.1360194599256,-2565.5811524237506,-2573.745733043528,-2080.9057692360366,-1029.7192575826193,-1854.5966131847817,-2265.5511556151323,-2779.1181793883443
2025-12-12 20:53:12.410498,Right,-1608.4446622127434,-2023.4331596354023,-2027.5603362689726,-1643.6427989163203,-797.637511117442,-1466.3230135608464,-1788.2660779706202,-2191.663019542815
2025-12-12 20:53:12.414481,Right,-2051.7216257383116,-2587.442789408844,-2591.5366620534332,-2112.5804587389575,-1095.9782060649595,-1871.0333672985435,-2285.3901611299952,-2805.0654808550607
2025-12-12 20:53:12.418588,Right,-2573.464369820198,-3247.9553910259856,-3251.491683714674,-2646.5379115956603,-1380.0333653739071,-2347.5058097859146,-2867.1501788797323,-3522.9142486192286
2025-12-12 20:53:12.421469,Right,-2303.179641229217,-2908.3765379731776,-2906.7443982765544,-2359.065159501275,-1172.6006997781224,-2105.821833278984,-2567.0624281221535,-3153.648494831985
2025-12-12 20:53:12.425501,Right,-1476.8459213030292,-1869.8305106308544,-1860.299023219617,-1516.1155251242453,-719.059735952178,-1357.8653834540164,-1650.7859960848,-2024.732816818636
2025-12-12 20:53:12.429520,Right,-1073.1643281022552,-1365.369619132951,-1350.669747919892,-1118.2370549682528,-566.131298901746,-992.2594073871151,-1205.5929464993533,-1476.4128154604696
2025-12-12 20:53:12.433522,Right,-1463.940389511059,-1859.204483343754,-1843.8797732709209,-1521.9180574454367,-791.4272376485169,-1349.0716113726376,-1640.9879501765827,-2012.5121130502084
2025-12-12 20:53:12.438472,Right,-1943.5563575355336,-2462.1718818956288,-2446.70224009268,-2003.3081833169563,-980.7173708659247,-1788.4760935462546,-2173.28187759663,-2666.350096431095
2025-12-12 20:53:12.442574,Right,-1731.4809281199705,-2196.2080566511722,-2177.043285333435,-1786.874316627509,-841.6155717152869,-1600.4542274367996,-1939.884498919244,-2376.5052736910293
2025-12-12 20:53:12.446589,Right,-1021.9874293231405,-1307.6038678976474,-1282.805163547746,-1074.940930955112,-535.7148240856477,-960.6646950757131,-1156.9227512266953,-1412.0402376456186
2025-12-12 20:53:12.449579,Right,-662.4679012499982,-858.3433074293425,-830.5574171879562,-711.1753228328889,-393.422533248784,-638.148515022709,-759.900757576921,-925.5681610214524
2025-12-12 20:53:12.453600,Right,-976.1063982293708,-1252.1359137482941,-1224.9404498167569,-1020.2377290636068,-504.3583574910299,-924.4595270860009,-1105.3682135964045,-1353.3610070213908
2025-12-12 20:53:12.457540,Right,-1370.7507151033496,-1747.2428153611254,-1720.6375233959407,-1419.8903891545488,-659.1285998579115,-1280.85054634884,-1541.0588290977757,-1890.0607266748557
2025-12-12 20:53:12.461618,Right,-1201.6571000939002,-1535.375843185233,-1506.6892513909843,-1259.896658109501,-613.4851237684488,-1124.555937113706,-1355.2068357785465,-1660.2303999533178
2025-12-12 20:53:12.465623,Right,-631.3156780974241,-818.3049139219802,-786.3763772686943,-683.7769956302363,-365.935885328101,-606.1937534018653,-724.6981094450457,-883.3426910968265
2025-12-12 20:53:12.470584,Right,-338.5661857952946,-448.2649543363368,-414.61300256557297,-373.77644306595903,-168.77854061350808,-341.1269095688476,-399.47099209274165,-482.3902128089685
2025-12-12 20:53:12.474644,Right,-572.4216255278443,-742.9114003565628,-708.7676716188435,-606.7851278120652,-226.78880722017493,-552.8101881097537,-659.4795762603171,-801.2657999368384
2025-12-12 20:53:12.477655,Right,-869.7984784949804,-1123.209372686455,-1087.0898869283265,-925.1406369193573,-412.4405323348474,-821.6043483986869,-994.7814680681331,-1213.3715137647232
2025-12-12 20:53:12.481668,Right,-738.2231399762095,-965.0723940428579,-924.250163244782,-804.7483898589271,-410.1714261765883,-703.2435548742069,-854.9161383254104,-1042.321042298805
2025-12-12 20:53:12.485691,Right,-299.244112539629,-414.9219683367992,-368.73747310991166,-349.79293296817923,-160.18205173837487,-307.3364664911642,-368.4066283404245,-444.894951298018
2025-12-12 20:53:12.489703,Right,-58.899615718226414,-110.48426266608294,-61.31250585085945,-94.01509291672846,34.01145735595492,-89.16904741799226,-97.68248591502197,-111.48949316749349
2025-12-12 20:53:12.493708,Right,-212.1385132256546,-302.4819094441482,-253.41535041236784,-258.3665854684077,-55.93403270296403,-224.75646861473797,-264.5317826693645,-316.10142672329675
2025-12-12 20:53:12.498708,Right,-435.6608448480256,-584.3248047678499,-536.4539003516547,-499.11693100311095,-238.91893371017068,-424.7348313339171,-511.16003993497,-620.3600200577057
2025-12-12 20:53:12.502738,Right,-365.1496234733495,-493.7792403489584,-445.96462695050286,-420.9984225614462,-197.12723728630226,-361.38880705164047,-430.409975187853,-522.3411523110699
2025-12-12 20:53:12.505727,Right,-56.290365484223,-101.89891655539395,-52.945417723967694,-91.56917249772232,32.84301611832052,-83.01442524555023,-84.95074435841525,-97.0106964193983
2025-12-12 20:53:12.509780,Right,145.40838714130223,151.60418294277042,201.0576112193521,111.25523446899024,141.1485154798138,99.82423446804751,137.87191429449013,178.30204602051526
2025-12-12 20:53:12.513834,Right,75.59133596270112,60.08496427600039,108.15842900125426,26.048852193169296,33.035354202758754,36.64161795505788,56.28908438992221,77.56248649669578
2025-12-12 20:53:12.517837,Right,-72.49038724755519,-127.90858105869847,-82.2107343513635,-124.79521216568537,-61.00519184388031,-100.0450267351116,-110.57614548195852,-129.210840487096
2025-12-12 20:53:12.521820,Right,-40.778923609352205,-86.40823728771647,-42.368974956305465,-80.85036895069061,21.1554904288314,-74.85698029783089,-75.62845547488541,-86.32957567539415
2025-12-12 20:53:12.526809,Right,164.36068131947832,172.0875831564772,215.53510009654565,126.76229912640702,151.18168149283974,110.1488242448977,150.4207027512457,192.95260223504738
2025-12-12 20:53:12.530849,Right,321.08720192025794,366.97765203140443,409.8231391841473,272.3274107858015,169.19541250539623,254.28641863778466,321.3066296468751,403.14969135551655
2025-12-12 20:53:12.533833,Right,301.0699270524565,340.99931016196206,382.64473828385235,250.2447767171834,125.82041571851005,238.93221137992077,299.2369022119092,374.3223733013292
2025-12-12 20:53:12.537809,Right,212.04486450098557,231.36856924673702,272.06978432187316,173.56572449493615,135.33899542207655,161.08085002231383,204.58721112326384,257.01102484996954
2025-12-12 20:53:12.541780,Right,223.11039106819953,246.33135484890227,287.2375858078958,190.0407990827382,176.29663475359848,174.11384118459227,219.26071737089114,276.045186402891
2025-12-12 20:53:12.545857,Right,347.5040034066915,399.59989003765077,441.241299322588,306.0225722237519,184.9182660743245,287.7001315479065,354.25043412599916,442.9550239615346
2025-12-12 20:53:12.549863,Right,461.7155904352985,539.4793719799054,581.0134719754278,417.65859077982896,199.1710149197752,387.75561738551187,476.25141801222344,592.5492237750004
2025-12-12 20:53:12.554859,Right,484.6233363143692,567.813239199837,608.1847672252625,450.88558597912197,261.9745205435902,403.43937687948346,499.8509277347912,621.5456993766711
2025-12-12 20:53:12.558825,Right,455.57410185350454,532.3380077006877,571.6105701786873,424.97982962885,302.62840102802147,375.4152077456238,467.69789832495735,583.7604991571279
2025-12-12 20:53:12.562839,Right,447.3342329345469,522.2128278170421,561.2550744148612,404.4491212670109,261.70995987023343,370.4659316808102,458.27570215798914,574.10146941946
2025-12-12 20:53:12.565901,Right,479.5654072778707,564.5483428317821,603.8273011677666,430.95128114306135,227.5324285363895,403.1516887783073,495.4527784769598,620.2072604931891
2025-12-12 20:53:12.569917,Right,534.5339955585077,638.7802752867574,678.0871872593416,499.6831002886174,296.536999804026,455.72891172236996,561.331142538751,701.0241025070427
2025-12-12 20:53:12.573937,Right,593.3992005836917,716.7018579702708,755.8531046313001,570.7293520786043,392.14280728725134,511.99253032405977,630.7927290105144,787.1353936446249
2025-12-12 20:53:12.577935,Right,628.2961360050249,758.8809800047311,798.0062617548974,598.3178731224034,384.2154104934307,545.9091323088796,668.3202822844614,834.0454208692536
2025-12-12 20:53:12.581891,Right,613.6145540337893,736.6511114312452,775.7884224033915,573.9096224743989,311.0612419215904,531.8537120311521,648.4714028229937,808.9508689576178
2025-12-12 20:53:12.585958,Right,580.1272010396933,694.8899721760536,733.9152498425683,548.5306791979237,311.37766142346663,498.42917761206627,611.4153462935355,761.8895703129238
2025-12-12 20:53:12.588929,Right,605.9495915861917,730.9674920829711,769.9014023753698,587.3631492279819,391.19947223487543,520.2775411559851,643.160300645337,800.2514682390029
2025-12-12 20:53:12.594043,Right,706.5030778051005,858.9706918608281,897.627479192277,685.0040136247408,433.3637756438111,612.5296795114991,755.4586378096719,938.2169871858787
2025-12-12 20:53:12.598005,Right,781.6691944353515,952.8051353708142,990.1891148642171,750.9179488055524,406.0847282142495,681.4267828377779,836.8597252203035,1037.5035717551364
2025-12-12 20:53:12.601969,Right,740.5298800677992,902.3429729327327,937.2683041973505,714.4386272330303,390.61455871671205,642.8135819524177,790.900634794496,980.258471783367
2025-12-12 20:53:12.608036,Right,646.310407242272,787.0424477256602,819.5343386764871,630.9309196189279,414.91346033097943,556.096275036165,688.0670659400639,854.9395952374907
2025-12-12 20:53:12.611060,Right,648.3151233444223,790.6409445658792,822.0950207946589,629.8722871976788,424.4738812656142,558.2447137234267,690.0523485352751,859.6939761071699
2025-12-12 20:53:12.614076,Right,770.3037265460007,943.4801818892593,975.2396020840388,742.9296528806444,416.7964378630859,669.3330400701379,823.6426618321566,1024.8467938659014
2025-12-12 20:53:12.618098,Right,863.0877794325352,1062.6342038384173,1094.8676701873774,842.7827447687741,444.08259084128076,753.3580375994206,928.3872404138092,1152.4584267485188
2025-12-12 20:53:12.621097,Right,808.3836083895294,999.1072042292217,1031.1941859571962,804.4648898695596,478.2022572491551,705.3952410672209,873.0852919574827,1083.1249526645988
2025-12-12 20:53:12.626125,Right,688.918815710349,851.1376652788604,882.6278270060429,685.7237135070609,439.0137044583098,601.3451692537055,742.9837244501105,922.81357129151
2025-12-12 20:53:12.630039,Right,678.043942542281,835.2871951692505,866.1315391645767,662.8803438191535,369.06485762639204,594.5872331720311,727.7448034215486,903.9779136343859
2025-12-12 20:53:12.634126,Right,801.3343010923127,989.2599955340847,1019.3530310107162,787.8748864943627,399.70099949929863,704.8582024492789,861.0604628775036,1067.8289081716212
2025-12-12 20:53:12.638121,Right,901.7547509408323,1118.467746836599,1147.450161582441,904.3465414728271,512.2325190064148,792.1881322652334,972.7860568840988,1206.0329144648276
2025-12-12 20:53:12.642080,Right,852.4370741377352,1059.0149086279562,1086.7573614058783,857.991099939798,529.9490704941563,746.3353884130483,919.2532849173294,1141.5037440538872
2025-12-12 20:53:12.645148,Right,725.0944043077761,898.0250809080899,925.1324805484619,715.7086966254283,412.05051728896797,632.6599980366882,777.3454249410424,966.9259892730042
2025-12-12 20:53:12.649101,Right,692.6460095716175,856.7489308933727,884.2479352607625,678.7190557502909,348.91404035984306,604.5729721733369,742.0500294299563,921.8362216241658
2025-12-12 20:53:12.654181,Right,800.5901052061236,995.3063040181296,1023.6189732092898,803.0614979317179,455.43220302608097,702.2394527358701,866.1176366632571,1073.1645269041182
2025-12-12 20:53:12.658183,Right,906.8206499206135,1130.9085534568876,1159.1535357931862,919.4951023402391,568.8531531305052,798.6666789897718,987.632121867151,1222.787582364399
2025-12-12 20:53:12.662158,Right,868.1283173070988,1079.6954763556132,1106.2361227229703,867.9390689129941,510.17456697969465,764.0643845780287,943.7797185457312,1168.6440046430798
2025-12-12 20:53:12.666202,Right,732.3148199197603,905.387549552368,929.2793116803514,718.8823077237466,376.3537044792902,639.7599355914863,790.9859219363425,978.4810592108406
2025-12-12 20:53:12.670200,Right,679.9096230268478,839.8110837695422,861.5640250140568,674.0173195179086,373.58896638895385,590.0759726290125,734.3730107562151,905.825252808514
2025-12-12 20:53:12.673216,Right,782.5200123136165,971.0985520622926,991.6931936070323,788.8269453742541,483.98626610060455,683.1520814911928,851.5768207589863,1048.1319443052635
2025-12-12 20:53:12.677228,Right,899.411870423588,1118.1086250023218,1137.3759296763455,901.488590868772,519.5884668132057,791.7289776318939,982.1771155396709,1207.8672566676978
2025-12-12 20:53:12.682241,Right,863.7281282385811,1072.5664188972441,1089.1758925343165,857.1204173171427,437.3537859234493,761.208857848309,942.3684858742636,1158.1842156874482
2025-12-12 20:53:12.686256,Right,713.1848925573286,885.96974990319,899.339192378684,713.5847397265024,377.74062729999423,624.4873710769461,777.997538765776,956.6996888599824
2025-12-12 20:53:12.690216,Right,642.4967635724461,801.7970393379219,813.3386863070773,655.8901874017902,411.67866608762415,561.086305091856,703.910974122351,868.6762572857551
2025-12-12 20:53:12.694278,Right,734.9331587515771,919.8979132332606,931.5802808885928,747.262056251755,454.2943982486613,648.6168691792991,807.972952514654,999.6793966495898
2025-12-12 20:53:12.698292,Right,847.6654540935997,1060.4237720443634,1072.495946905925,852.1844751898898,442.65355984464986,755.2573505537584,931.7859163032845,1151.3683570623398
2025-12-12 20:53:12.701347,Right,814.7972378927516,1018.7925110025099,1029.8503522608662,823.8572153722635,420.0970551267965,727.8018057319568,895.3542554104934,1102.9990201361943
2025-12-12 20:53:12.705329,Right,679.2502437994117,849.6369439258706,858.7488961600466,698.4708075706149,415.89145097491564,605.8495437507518,746.5804282766767,917.6286664581858
2025-12-12 20:53:12.709338,Right,623.7911489007529,779.4979563258821,787.265463989228,639.2627481028903,398.12349350820296,556.5303838425316,684.5012902508024,842.2538696220145
2025-12-12 20:53:12.714339,Right,708.4891286290949,883.835392240202,891.2367145696189,712.5814522205619,375.58542099723127,633.3392385384068,775.7639955864288,957.2770252642222
2025-12-12 20:53:12.718364,Right,794.8785404488444,992.3638826574897,999.4766313309083,801.19002143736,399.47542487614555,710.2207801946206,871.2828581748763,1077.2368625863455
2025-12-12 20:53:12.722396,Right,751.1371806198731,939.6097798983101,945.8819998048712,768.5373865470756,437.88147506921086,670.223624504637,825.5969713764498,1022.7715281138662
2025-12-12 20:53:12.725398,Right,630.7247874063905,788.4327148419106,793.500486485078,645.2191454219865,399.71908888814505,563.6747859021416,693.172920175246,860.664347543614
2025-12-12 20:53:12.730339,Right,582.4024558953242,725.1425749744521,728.8165883779293,583.1397731805919,311.98389500082703,523.0833159645554,637.3062296063872,790.9638608931564
2025-12-12 20:53:12.734421,Right,643.5189720049966,801.9285658251029,803.8483460914576,645.6594933447195,308.76712122763274,579.4710076235933,704.255710030091,871.069309795741
2025-12-12 20:53:12.737423,Right,706.2982381571783,885.460596817662,885.3711607523728,726.0122143522603,399.71082142257364,636.4891846013488,777.3064853399992,959.5389420825522
2025-12-12 20:53:12.741436,Right,675.9050935128471,851.1221707363147,849.2817060647067,700.9839167838218,426.8970375795034,610.9809245475335,746.9983581007691,922.2220951484051
2025-12-12 20:53:12.745449,Right,586.9685883746715,738.3202102546347,735.2199197105365,597.3199090302223,325.6075821767445,533.2539054981899,647.838379840483,799.4829069417901
2025-12-12 20:53:12.749453,Right,540.5061739007942,677.918532104115,673.8112393877236,542.6942562818294,245.9810118661262,491.5781253948808,594.6158722243272,731.831062320387
2025-12-12 20:53:12.753463,Right,571.4785437710816,718.4182925878558,713.3510542289587,585.3085919728037,304.0940751270391,518.1017476816196,629.8861682720017,774.0173159905244
2025-12-12 20:53:12.758464,Right,616.2779337596148,777.294303027913,771.2144770179875,638.7308777439175,384.7874626465491,559.0154801789904,681.6245795163559,838.8502280251123
2025-12-12 20:53:12.762435,Right,600.0785414979327,756.462097306503,749.0854627225781,612.48232336808,341.4444293383276,547.5668640483636,664.2170956854243,818.9469530922361
2025-12-12 20:53:12.765483,Right,527.1712005652953,663.8089536330663,654.889305492281,531.1310042736586,243.05699986807304,484.91556322725955,584.3829182117479,720.5395537021104
2025-12-12 20:53:12.769501,Right,471.26401518832427,596.2392579377629,586.3140862962464,486.53265409870073,242.34844776714453,436.62832346907817,526.4366163949016,648.2661816019099
2025-12-12 20:53:12.773521,Right,482.8854918467114,614.8174563954817,605.2347376624821,511.72515382862184,312.67241016507614,449.9223445060197,543.251723944908,668.5541873760521
2025-12-12 20:53:12.777554,Right,526.8399737816071,670.0994211642537,661.783806005842,551.0204835651675,314.7424877262674,492.3991928437026,591.1046065926785,726.7779750513146
2025-12-12 20:53:12.781552,Right,529.5577308443608,670.714590122574,663.1831445487915,544.4737789741484,247.90843430982204,494.3943989962572,590.324436592171,723.8657698101597
2025-12-12 20:53:12.785507,Right,476.8281451871153,603.51544483623,595.5906741906656,498.5901395875262,230.4729979078984,442.67029050027486,530.5414576854091,648.3679801124381
2025-12-12 20:53:12.790590,Right,429.0838357103057,543.8922342542792,535.0169725167798,462.29597651492804,272.7666278803954,395.6088275943184,478.55405322730076,584.20131439541
2025-12-12 20:53:12.793660,Right,433.0738415981177,546.6651116242865,536.9504165677354,460.81118356098887,271.8136608269997,398.0278859564569,481.8624487644993,588.9196061071707
2025-12-12 20:53:12.797611,Right,458.47709830407985,575.2730634731706,564.7426704397658,473.58499014750123,217.6244567828253,421.0802306004334,507.28715268999804,619.7538712935057
2025-12-12 20:53:12.801602,Right,448.4758626213297,563.9418239287334,552.5181825791951,467.20428659860045,209.08290346164722,411.87629657413345,496.6712265079841,605.6683824468637
2025-12-12 20:53:12.805685,Right,401.6332219626056,510.75491960311774,498.75087589002214,433.57030241622124,255.54455145297106,370.23721723258495,448.7521897589322,547.1553499740548
2025-12-12 20:53:12.809665,Right,364.16882201482076,467.53816007077694,455.5486052064225,394.5867960420437,251.88434302358655,338.751673227991,409.93970672157593,501.02500696631614
2025-12-12 20:53:12.813672,Right,357.33029347099364,458.81256873055827,447.12498529301956,375.173026947421,180.34308489982504,334.7132120091701,402.73388848267496,492.65249525522813
2025-12-12 20:53:12.818751,Right,356.3530903592473,458.1568017175887,446.575470342068,375.61160010646563,153.4007550200331,334.0707428382011,404.0583132430911,493.4399398934329
2025-12-12 20:53:12.821700,Right,339.6471919399919,440.7937070670305,429.00290721596684,373.91513388301246,206.5770711345831,319.038678954239,390.9113771240227,477.24485474603716
2025-12-12 20:53:12.825694,Right,316.41100341046695,414.12137022893876,401.78171852615196,353.8966511960607,227.1777677599457,300.17226959974505,368.3016835015733,450.5489359598141
2025-12-12 20:53:12.829736,Right,297.3521380239399,388.9205951432232,375.2929565497907,322.8767414544709,159.39793141419068,285.5752096332144,345.6378088501515,422.65166999131907
2025-12-12 20:53:12.833720,Right,276.57230179023463,361.36295191408135,345.36451194249094,299.39618257281836,108.84644704079255,266.7928937828401,320.7728030635044,390.20039534557145
2025-12-12 20:53:12.837696,Right,255.71953003492672,336.4319044399308,317.4447693298571,291.5246999746887,150.63637924951036,245.97530742362142,298.9392538709799,361.78742656484246
2025-12-12 20:53:12.841830,Right,250.1472553347703,330.64729231991805,309.105191375711,291.43498802464455,193.65309324319242,240.4895099082496,294.6530181878479,356.54063095129095
2025-12-12 20:53:12.845812,Right,254.44699368602596,334.73929183057044,311.795776167186,284.6995445966022,148.80035772937117,246.02345400629565,299.69659142254386,363.0595863130875
2025-12-12 20:53:12.849814,Right,237.05520426889416,311.8389950877754,288.7178169746185,261.5697419208009,87.19039342628093,231.17056246707216,281.71077385148965,340.6527125975117
2025-12-12 20:53:12.852811,Right,190.7312475288054,255.37591616483405,233.18117969622836,226.3294690415496,100.74155521899229,188.4993412340409,234.48230181448162,282.8023834467167
2025-12-12 20:53:12.857757,Right,155.46998597722268,212.5672807401279,192.24119305470958,198.7548667070223,133.85508244350785,156.59388801950263,198.35872242308687,239.70108855364379
2025-12-12 20:53:12.861822,Right,162.69896812044317,219.6438648722833,201.49897531338502,196.2846076162532,98.55259540968109,164.6488673595013,204.24484179134015,247.6542363022454
2025-12-12 20:53:12.865848,Right,183.25079748826101,242.90589990478475,226.3568765904056,208.10748513403814,46.29187310754787,184.07516925776144,223.01221131545026,269.5519069744041
2025-12-12 20:53:12.869866,Right,166.8871339696925,223.52036666602362,207.8996608845191,200.16462057532044,67.57349109600182,168.8513988365885,204.48158766282722,245.3638187396573
2025-12-12 20:53:12.873874,Right,117.03744029987138,163.50536570639815,149.19597962254193,159.30739214282949,112.78169342540787,124.10830635414459,151.36656117276289,180.72183261392638
2025-12-12 20:53:12.877880,Right,84.86842647840967,122.11405374563765,110.44531452993397,118.39427007513586,81.80295937662595,96.0999232933973,115.53278471773956,138.93893117283005
2025-12-12 20:53:12.880897,Right,93.53321989567485,129.67535422486253,121.71722541155759,115.34240528778173,17.824110205081524,102.86421649565455,123.13589582307031,150.13186659803614
2025-12-12 20:53:12.886906,Right,108.61993163538864,148.17229274532292,144.02076643705368,136.36881805589655,32.10254118399462,112.84964779065922,140.50104148488026,172.35374619229697
2025-12-12 20:53:12.890931,Right,90.79277078801533,128.31860219384544,127.37680351216113,130.00001039280323,91.7188086490496,94.31931321934098,123.83664118283195,152.38709810760338
2025-12-12 20:53:12.893938,Right,46.571910962695256,74.1857520978665,75.45644937671022,80.49087116296869,74.15755066386191,55.609022654709406,75.97941063623875,93.37668374949135
2025-12-12 20:53:12.899946,Right,13.614173214300536,32.86925232486101,34.875169084756635,34.90698404953582,-0.31369596676086076,28.211953382589854,38.278980279224925,45.46801600983599
2025-12-12 20:53:12.903967,Right,13.365758444822859,34.629716827417724,35.642657394579146,38.290171373751946,6.461102195549756,28.447237822343595,38.29566055344185,43.57479822420282
2025-12-12 20:53:12.906974,Right,30.00299096526578,58.64931313507259,57.20951885182876,68.14066712505883,98.84431801404571,43.10779548599385,58.55581143760355,67.90704223955981
2025-12-12 20:53:12.909940,Right,29.847824602329638,57.80923563009128,52.753624617063906,65.68319878936745,128.12173998422804,44.5286816485459,57.566679092356935,66.8226472454844
2025-12-12 20:53:12.913997,Right,-2.167652038973756,13.293717982887756,3.566611501039006,19.09389940497931,51.387554434651975,19.004769891907927,18.450032272550743,17.42306730907876
2025-12-12 20:53:12.918018,Right,-42.50359370157821,-39.64719533006428,-54.44395806052489,-21.906857206253335,4.859093286679126,-14.096713370818179,-27.577003006706946,-41.77292298292741
2025-12-12 20:53:12.922027,Right,-51.86674304725602,-50.28190572874155,-69.1418432018254,-17.206399773305748,59.47310843008745,-19.240963589050807,-35.52694197499659,-52.98857493913965
2025-12-12 20:53:12.926046,Right,-26.918915028800257,-19.967626337136608,-41.029023262963165,9.931428835960105,99.28479047224391,7.503572764311684,-7.326686519838404,-17.625042102707084
2025-12-12 20:53:12.930017,Right,-13.917745583428768,-9.473746761097573,-31.465835517970845,7.260663891967852,34.846291705660406,22.83653568784939,2.0798646474140696,-4.837182312970981
2025-12-12 20:53:12.934070,Right,-48.05402194839553,-58.23758039140375,-80.82672778831329,-35.9346899119555,-41.03296899146517,-6.9012278597510885,-42.21333061662153,-58.691507318930235
2025-12-12 20:53:12.937079,Right,-96.10396897915052,-121.0024014202645,-143.79263729063678,-76.7767709804175,-27.33035123924492,-49.988754547492135,-99.15603947784984,-127.82492965855636
2025-12-12 20:53:12.941093,Right,-98.30230405996554,-126.15907351407805,-148.22626128201955,-76.71674629591871,12.035006096222787,-49.592552435729885,-105.04111575282877,-133.23614345502574
2025-12-12 20:53:12.946116,Right,-59.457421148661524,-82.84307754720794,-103.58047406779951,-51.13424570689676,-17.262744451363687,-10.937088760489132,-68.12492792797275,-86.26397425722098
2025-12-12 20:53:12.950071,Right,-48.17563491995679,-73.58534187759506,-93.42987601761706,-48.4751641479088,-66.76885011496779,1.0792242848547176,-60.87711195589509,-76.92963021522155
2025-12-12 20:53:12.954149,Right,-96.01092095127387,-133.95526268181857,-153.91474151748116,-87.9588020912779,-52.30625706144201,-41.79123973456444,-114.25343500520103,-142.0016089696146
2025-12-12 20:53:12.957159,Right,-149.20371921584592,-198.99233722884674,-219.80781456841214,-134.80671512710978,-20.427314917782496,-88.16884491665405,-171.61183642741526,-210.55333662760677
2025-12-12 20:53:12.961173,Right,-149.09421503152407,-199.1284574434976,-221.22077065196936,-144.4411002069537,-53.69650528670536,-85.02674886942259,-172.5619883808249,-209.57844478462357
2025-12-12 20:53:12.965200,Right,-117.29113014767063,-159.83151400760107,-183.70727539127984,-120.51896257135377,-104.54006791242864,-55.14575212645286,-139.47338640487578,-168.2838217560784
2025-12-12 20:53:12.969214,Right,-116.84129399607627,-157.180750800253,-183.22857845141698,-110.31416390091181,-84.44466547923321,-56.86772435689636,-138.72045523155248,-167.52606216997083
2025-12-12 20:53:12.973179,Right,-155.95344725372706,-204.57736929653038,-232.47101913970982,-140.0971965209319,-40.22190248845436,-95.69454255969322,-182.13659862076747,-220.30910093494458
2025-12-12 20:53:12.978225,Right,-182.85843636266873,-241.716129393375,-270.5734752080134,-178.03429877852614,-72.32658867728605,-123.91879687673645,-217.03908914484782,-262.49539696950524
2025-12-12 20:53:12.982269,Right,-168.6662210855011,-229.23131091221148,-258.3874545866611,-179.4175942651782,-140.56933774010395,-116.36196682880109,-208.00143177680002,-252.14141972762445
2025-12-12 20:53:12.985268,Right,-145.18759875111937,-199.80618473831782,-229.0628865781473,-151.96299490120145,-130.9047262798049,-100.43146868426993,-182.1996956310395,-222.19271112730348
2025-12-12 20:53:12.989297,Right,-152.05755045724254,-203.06416368882128,-232.33986655376066,-146.06741584927659,-71.15598992982996,-108.44960328724846,-183.3871258734307,-224.584147743044
2025-12-12 20:53:12.993254,Right,-185.02468484927522,-239.9755877697571,-269.1832726736757,-182.4390587811522,-89.20675795033458,-136.41996155865127,-214.38817021671275,-262.7320121076282
2025-12-12 20:53:12.997324,Right,-212.30860409604065,-272.67910185532673,-301.8897886816703,-222.41391387038675,-177.58752217734582,-159.89108494876245,-243.12810120531867,-298.6365745539697
2025-12-12 20:53:13.001340,Right,-216.8901618502059,-275.8689655102935,-305.1280658999458,-223.80049671377492,-198.8191808219708,-166.0339542620659,-246.8152509014326,-303.983343797845
2025-12-12 20:53:13.006314,Right,-207.35806153097656,-259.27565756221156,-288.24282674440474,-198.72954820093582,-131.58851136206067,-159.76754988119865,-233.071046774181,-286.61509258582373
2025-12-12 20:53:13.010327,Right,-202.21114454121562,-250.31549960933626,-278.49178492212377,-191.0775137409437,-109.8532563339977,-154.60349599922483,-225.4357567696643,-276.2432705615356
2025-12-12 20:53:13.013321,Right,-213.70575958107656,-265.64950738981133,-293.0092696159845,-213.3223245947811,-180.48207864143478,-163.37422112421336,-238.1163233781117,-292.7235872339952
2025-12-12 20:53:13.017374,Right,-236.12083889853966,-293.59836055667256,-320.65172314926167,-235.57939902054204,-220.7712238678505,-184.2004926114023,-260.7521829670004,-323.2106439236668
2025-12-12 20:53:13.021374,Right,-247.31985790004546,-304.3460053464514,-331.44211360721965,-233.52177087469317,-164.13284792781633,-196.37087673945643,-267.85339364722313,-333.74668999988353
2025-12-12 20:53:13.025382,Right,-235.50316589241265,-287.3851277163776,-314.23428795827203,-219.53079030867957,-118.95161520707188,-186.71002678136574,-251.21847212548892,-313.3803585190908
2025-12-12 20:53:13.029394,Right,-221.2648576478823,-271.16464460184216,-297.18145715797436,-218.79829156615597,-168.19083044317085,-174.3404445356282,-235.88735644181725,-295.05133162403945
2025-12-12 20:53:13.033407,Right,-233.02641691401368,-287.17885300525813,-311.83574526387383,-234.99432893141056,-223.09782626319793,-186.8084330567508,-248.46361289275228,-312.72813643768313
2025-12-12 20:53:13.038431,Right,-263.3426883376378,-322.5868683961162,-345.1621015353303,-251.97610816339147,-193.35363074962515,-216.45225847585243,-277.2918688750942,-350.0981263264839
2025-12-12 20:53:13.042424,Right,-275.94751926715253,-335.484784879809,-355.11917297757464,-257.10841750801774,-149.92887185356813,-228.59023751676432,-286.88538407627493,-361.7290613356745
2025-12-12 20:53:13.045448,Right,-259.85462932955124,-316.39977284820634,-332.90098537737504,-252.2256174418435,-183.4359266855463,-214.8398049995012,-270.3846062005905,-340.5096747193311
2025-12-12 20:53:13.052501,Right,-246.74797480701818,-302.4829115056782,-316.53322504425887,-248.24856973718852,-232.9488836118544,-206.99484357901383,-260.3791703628376,-327.9764011017396
2025-12-12 20:53:13.055487,Right,-261.6145571752568,-320.4131670887291,-332.633589450561,-254.83473102294374,-206.02141372830374,-226.7784507070901,-279.22856461346964,-350.23385385243455
2025-12-12 20:53:13.058488,Right,-285.13000105464016,-347.47213125263806,-357.9251854188624,-270.5904722008854,-157.36539323074976,-252.51529318024404,-305.9019410832843,-380.2476119551575
2025-12-12 20:53:13.062495,Right,-287.5174520603905,-350.66291640646523,-359.6625181058771,-282.3865960938565,-185.83457525950507,-256.03200355899753,-310.63077337958384,-383.60821593547007
2025-12-12 20:53:13.066509,Right,-275.51361671157065,-337.10663299588487,-345.8631930903648,-280.6280717640184,-244.60069871714222,-246.35328639816726,-299.4943634806841,-370.03812745405594
2025-12-12 20:53:13.069513,Right,-275.9385391139658,-335.7965545998886,-345.68560816155514,-273.4299129055871,-226.17103715013945,-249.1882946579717,-298.552957253356,-370.1528654950089
2025-12-12 20:53:13.072535,Right,-289.6888112529996,-348.8426722516306,-360.40577550418675,-276.11515011062147,-166.0559705044143,-262.99828110678936,-310.5328876320855,-384.9797190299141
2025-12-12 20:53:13.077562,Right,-295.8135153129115,-355.0924672767287,-368.18301633151714,-288.7592845186591,-180.32358453195775,-267.5555784559692,-317.34203594131395,-392.99393438658444
2025-12-12 20:53:13.081547,Right,-291.161511645827,-350.4462402856443,-364.90844422084047,-296.54846370976884,-248.82179862016346,-262.3687076076458,-314.9800632249098,-391.19905278785154
2025-12-12 20:53:13.085519,Right,-291.60986839956604,-349.91448769223643,-365.4515395742492,-292.66488100233255,-249.26797293353593,-263.3648990171787,-315.5885196872405,-393.8717824499472
2025-12-12 20:53:13.091589,Right,-298.7351650306955,-355.31580146664055,-370.85667749500135,-287.3122505521751,-181.97402121589403,-270.1658053919673,-320.24710798746673,-400.27248227549717
2025-12-12 20:53:13.094598,Right,-298.47251750709256,-353.90387405693764,-367.79915985569824,-290.14855201757746,-168.22197190488805,-268.8846659231931,-318.2896232242929,-397.5522681896691
2025-12-12 20:53:13.097610,Right,-292.2670837880578,-347.91337445931276,-358.8992779192631,-296.8204258916667,-225.71149351733038,-262.86451413080795,-312.31304989755154,-390.8184607400908
2025-12-12 20:53:13.101613,Right,-297.04248600266874,-353.32343878236134,-360.9901564815664,-299.44133197760675,-238.4356689513952,-268.89158704242436,-316.4002298085252,-397.18483051558724
2025-12-12 20:53:13.105564,Right,-311.25537513103336,-366.93203389144037,-371.4621760841692,-298.8779768459499,-174.88125291228062,-283.67609971092315,-327.71611342177493,-411.16385723435087
2025-12-12 20:53:13.109651,Right,-313.2234164341353,-366.89045451866696,-368.89737529179547,-298.727936891024,-146.15483034128556,-285.8302748259157,-327.2468057149672,-409.3501674970612
2025-12-12 20:53:13.113647,Right,-299.4463929653866,-351.4511384781799,-352.07392436428927,-296.87964059313526,-196.74077763489913,-273.68881550227525,-313.1756104074884,-391.77581786713563
2025-12-12 20:53:13.117681,Right,-293.36933708848665,-345.6441121484968,-346.19458270119503,-292.4684808290913,-221.19147800956853,-270.162420328008,-306.6984906432335,-385.36818200116977
2025-12-12 20:53:13.121693,Right,-305.7242971462547,-359.8175706291804,-360.8497029026039,-292.43572599993786,-162.8743150489172,-283.4859080231399,-316.90035953203915,-399.3914916947833
2025-12-12 20:53:13.125689,Right,-315.7780761369504,-371.51381500827847,-372.4660680855741,-300.1712282439112,-121.00911923637614,-293.042548840167,-325.37232838291675,-409.66925914608873
2025-12-12 20:53:13.128700,Right,-306.94092101143906,-362.98614723660285,-363.2123917436693,-305.8979611489922,-164.51997149083763,-285.42628052586224,-317.5213815399329,-399.2139929297846
2025-12-12 20:53:13.133713,Right,-293.88684129033936,-349.2929664424737,-349.1597121315426,-300.8465581063065,-202.81620418193052,-276.3106978808064,-305.97758252330823,-384.61804621544434
2025-12-12 20:53:13.137724,Right,-295.5460618669167,-350.7047663175035,-351.1429600394913,-293.74940023070667,-157.5575035054353,-281.13884635455906,-307.57857458118815,-385.73584419774124
2025-12-12 20:53:13.141801,Right,-304.19508668850176,-360.3763670134358,-361.831466180447,-298.3747216001502,-112.8803963282844,-289.37552899768343,-316.3981546785217,-394.8739872612059
2025-12-12 20:53:13.145828,Right,-302.48707095964346,-360.08621145569487,-362.56984390236903,-309.49833695718553,-159.0196554659051,-285.97663819009904,-317.0494803903857,-394.7670287936926
2025-12-12 20:53:13.149797,Right,-292.73682285065297,-349.9453925015987,-353.58420306863263,-308.63873341248836,-219.76771497773007,-276.80022955860477,-309.65245117852464,-386.282023678883
2025-12-12 20:53:13.152814,Right,-287.50586791161913,-341.7502090029884,-346.5490558590973,-293.0510601950227,-189.50244868878508,-273.69049094314687,-304.0017094714567,-379.520605744794
2025-12-12 20:53:13.158790,Right,-286.5841818372719,-337.94822425959865,-343.402248873841,-281.4735165357706,-128.43504728662083,-273.5798322020564,-301.82006029458717,-375.42041563487146
2025-12-12 20:53:13.161812,Right,-284.07809799868846,-336.1678017997765,-341.7231623817934,-286.4696838965174,-151.99078310251934,-270.6639403582085,-300.76916993164923,-373.08073511871044
2025-12-12 20:53:13.165849,Right,-283.498301519081,-339.476774608891,-345.14326150063425,-296.1552451660973,-217.48426358011784,-270.6353637665161,-303.03798067668686,-377.1645641743671
2025-12-12 20:53:13.169847,Right,-286.6569032649859,-345.298213273054,-351.4153156101238,-293.1664274085779,-203.34843286848627,-275.43388558831066,-306.24133249593433,-383.3113087670645
2025-12-12 20:53:13.173810,Right,-282.6281274621724,-340.370592742227,-347.01338026404846,-280.2134148608893,-133.9434607499279,-272.3920791617711,-299.9198058177135,-375.9484736591112
2025-12-12 20:53:13.177898,Right,-266.7190307005658,-323.14182357891696,-330.1211265552556,-273.4095378925558,-134.15198984910967,-256.58619112346787,-284.22034518403234,-355.4006835062755
2025-12-12 20:53:13.180889,Right,-255.97344553493895,-314.54363279789686,-321.77142146613915,-277.9216167664272,-199.70599940395914,-246.3942883767304,-277.49605277070077,-346.43323671643157
2025-12-12 20:53:13.184913,Right,-264.179480212857,-326.9350348339649,-334.329114909051,-283.74059052037774,-208.27044921548804,-255.7291949588107,-289.37934497895185,-361.05274500278756
2025-12-12 20:53:13.188940,Right,-274.36390541505534,-338.39419159130193,-345.4922460699454,-281.5560449693003,-146.80628494231496,-266.6190101518878,-300.06080562836723,-373.23823947738856
2025-12-12 20:53:13.192954,Right,-262.9837817059597,-323.9530495000072,-330.1834731049603,-272.4069489722024,-131.71997214556905,-255.57628146768548,-287.69505830667913,-356.5529401839012
2025-12-12 20:53:13.197953,Right,-241.27040340553503,-298.67267339047976,-304.1469311467372,-263.5296296311426,-188.98998782539275,-234.2776975025772,-265.05317928886507,-328.9911468476057
2025-12-12 20:53:13.201986,Right,-239.7443098455551,-296.3672077609226,-301.80921173200477,-261.1208301889128,-207.32033136766404,-232.21335076354444,-261.56539002846694,-326.6701891302364
2025-12-12 20:53:13.204979,Right,-256.7195971016772,-313.7772077054251,-319.4693287414266,-264.9368082585279,-148.5447629962582,-246.76300281781005,-275.4314969708212,-344.852767209406
2025-12-12 20:53:13.208999,Right,-259.09579413878964,-314.2904311043676,-319.7082883346593,-266.420422863157,-118.43647295457777,-246.55916178639745,-275.67459166352637,-344.9475897514494
2025-12-12 20:53:13.212999,Right,-237.36919486237457,-288.03962525504176,-292.6427045069868,-257.3875500925351,-167.1533714979887,-224.61663518013665,-253.23657440964598,-317.9046917032683
2025-12-12 20:53:13.217051,Right,-222.3741242941469,-268.90000092983246,-272.645015680464,-243.8147648232989,-196.51337430271087,-210.9967909711413,-236.62305079138605,-298.85718039190397
2025-12-12 20:53:13.221059,Right,-234.72286446380895,-279.8383850675309,-282.78773196414113,-241.6003922468517,-147.8213012565975,-223.02841666067252,-245.71662952780025,-309.4270287512336
2025-12-12 20:53:13.225038,Right,-252.3318526041112,-297.6585628669709,-299.63066387723666,-253.10079863417195,-114.33270113158505,-238.0115474644699,-260.89476031658705,-324.688556250534
2025-12-12 20:53:13.230069,Right,-248.17517294274876,-292.4639051372651,-293.3519929583417,-259.50033169880044,-164.03754541755188,-232.34802940982627,-256.3689296711236,-315.94893206469715
2025-12-12 20:53:13.233072,Right,-230.20903002569685,-271.3093451344175,-271.3715865877457,-245.72438666212838,-206.75558126787655,-216.34069903369527,-237.91905645793304,-292.56786255317274
2025-12-12 20:53:13.237089,Right,-220.6241680503008,-258.57404440897517,-258.0662256126525,-223.0169691996416,-160.36626488453476,-209.76725229551084,-226.39372165867826,-278.8094080154551
2025-12-12 20:53:13.241099,Right,-220.03891095140716,-257.2901796293445,-256.21893957816064,-213.6152537430171,-107.16912766813766,-209.67889731528703,-224.5855413513491,-276.3507819325896
2025-12-12 20:53:13.245105,Right,-216.33165558677865,-254.72648056596518,-253.38372471136972,-219.0270651569008,-143.6079010136309,-204.01938190718647,-221.67788981448393,-272.78268683492206
2025-12-12 20:53:13.249046,Right,-210.6328352811397,-249.0384024528321,-248.22823406965472,-220.61323905159952,-199.5683838602854,-196.3600477303844,-215.87103246408515,-267.10392703139223
2025-12-12 20:53:13.253107,Right,-210.4081566951936,-246.15099426114466,-246.32555082510225,-210.10063004051335,-165.64913089043694,-195.03613920032512,-212.31033049506368,-264.4316033407813
2025-12-12 20:53:13.258127,Right,-209.76412701117806,-242.09270104340976,-242.76680548116565,-199.91847879835404,-95.3346794001991,-193.42639417707687,-208.38025213906076,-260.1483539865585
2025-12-12 20:53:13.261120,Right,-199.78518920083297,-230.9111001637648,-231.3844286907697,-199.5369845131645,-107.07225802901667,-182.9511952039902,-199.61385161540238,-249.85879184654914
2025-12-12 20:53:13.265150,Right,-187.8157092645415,-220.0694335818407,-220.2489336922299,-199.95493086945498,-167.02953540964518,-172.12999439856503,-191.85513910104055,-242.04997426248156
2025-12-12 20:53:13.269165,Right,-184.79444365826203,-217.60584204259794,-217.70219804625958,-190.4147816108307,-154.28843458055053,-171.2694274733658,-190.83564642129932,-242.2677196317818
2025-12-12 20:53:13.273177,Right,-184.13855237403186,-215.08632153761573,-214.8473890214227,-176.42492180789122,-85.32440877443878,-171.65359185723355,-189.06785613071406,-239.1464405154111
2025-12-12 20:53:13.277143,Right,-174.831339956203,-203.37631257023895,-202.15264004003257,-169.70418999902904,-80.84417661151383,-161.88513149431674,-179.45041607425082,-224.9426709265681
2025-12-12 20:53:13.283213,Right,-164.7474688644288,-193.18918217514874,-190.69101829419378,-169.9136164240772,-139.55839291360462,-151.77096646046266,-171.43898257403634,-214.10694572294597
2025-12-12 20:53:13.286226,Right,-167.21321888256352,-197.4427062360337,-193.8922360939905,-168.21423952572513,-141.012324148498,-155.76367626345018,-175.38236859615427,-219.60771101992577
2025-12-12 20:53:13.290224,Right,-173.2659886351321,-204.12416990462225,-199.58599424513523,-162.09325096814428,-69.87159505166346,-163.9789835443371,-180.54750991018955,-225.9052759166807
2025-12-12 20:53:13.293264,Right,-163.91125457157614,-192.84239173849346,-187.03011138917645,-155.52837562572677,-42.6158540926408,-156.80452276940923,-170.2593263531453,-211.75787866604514
2025-12-12 20:53:13.297267,Right,-144.7275212763925,-171.09032922360348,-164.04670724394964,-149.8546822326607,-89.75462318456266,-140.24569832219277,-151.9430900135194,-188.12933316780254
2025-12-12 20:53:13.301265,Right,-139.2759230894735,-164.7177551620989,-156.9296368198702,-144.34998222161084,-101.9545389584382,-137.23522561008576,-147.58968148834538,-182.87344745901646
2025-12-12 20:53:13.305275,Right,-148.57294156024,-174.5252442205092,-165.99028021254344,-140.77791308285668,-38.31608554633567,-147.29870055965148,-156.90705376135884,-194.03461602755124
2025-12-12 20:53:13.311302,Right,-147.8720368538634,-174.09583395830123,-164.08998023660388,-138.91120801813668,-4.183084454503842,-146.148059693689,-156.6101073633763,-192.23050679743756
2025-12-12 20:53:13.314304,Right,-128.99378362827701,-154.6822918166872,-142.9155698355171,-133.2606452347245,-52.101555657573044,-127.97035846422659,-139.20493162545608,-169.78701072133845
2025-12-12 20:53:13.317331,Right,-114.31402800406795,-139.31631298118737,-126.46753515809542,-121.97068848757772,-80.50947814778192,-115.71282603469444,-124.82912611938082,-151.94054321036674
2025-12-12 20:53:13.322358,Right,-117.38429390580859,-141.9603354302235,-128.54355289513478,-112.70704231929267,-22.891885026125237,-120.34050334600033,-125.97249300789554,-152.2332794633694
2025-12-12 20:53:13.325355,Right,-120.49448780424427,-144.80819409684045,-130.37149138760287,-111.5619450470549,26.268626072618645,-122.38638831744902,-127.70900455175433,-152.0610820390866
2025-12-12 20:53:13.329372,Right,-107.53712948481552,-131.7680367321591,-115.85323085525306,-111.9124442138127,-13.28179067914607,-107.8114799632458,-116.27901383140124,-137.1480513762799
2025-12-12 20:53:13.334395,Right,-91.02086767769651,-115.37037646019598,-98.55819946131669,-104.11028477182845,-57.945161000534426,-91.63052729330957,-102.27485472988337,-121.79174596100347
2025-12-12 20:53:13.338350,Right,-87.37798321043374,-111.78145468380535,-95.11272698635003,-92.20973081653938,-16.855200135876657,-89.38597977283644,-99.38880900572985,-120.3970201817574
2025-12-12 20:53:13.341363,Right,-89.41894130595028,-113.65624149690848,-97.52053478854941,-88.75082522735465,38.06578057692968,-91.67992141039576,-101.15330911317142,-122.62695451051695
2025-12-12 20:53:13.345443,Right,-84.03220611304278,-107.98058709583711,-92.12783080333611,-94.09090196655598,7.3954365420213435,-85.32927432539873,-96.05997849011328,-115.40998913557269
2025-12-12 20:53:13.348390,Right,-77.44944321073126,-100.82408878963906,-85.02956069464562,-95.172153629479,-47.86100615232135,-77.67644511477556,-88.98876056150766,-106.69086805696134
2025-12-12 20:53:13.352398,Right,-80.17600034887437,-102.36952462879708,-86.58632817666512,-86.34967980341753,-18.24705459107645,-79.02872660715366,-88.80388756387401,-106.67441406013677
2025-12-12 20:53:13.357463,Right,-82.77345339610474,-103.49235422158381,-87.67912231746595,-76.59670260426356,49.9814108206192,-79.32431736699073,-88.11333828879287,-104.97756960935658
2025-12-12 20:53:13.361423,Right,-71.90711947192904,-91.77646976493997,-76.14090909896186,-72.85835322720231,40.2974851122417,-66.27271478803596,-76.62284613359952,-90.19845572841587
2025-12-12 20:53:13.365476,Right,-57.797378254530486,-77.74698501563398,-63.08291700272821,-70.54379494936438,-17.166754791134736,-51.32437252695672,-63.54598299576901,-75.33004028588766
2025-12-12 20:53:13.369451,Right,-58.497422308137175,-78.41966100217542,-65.62536728417035,-65.08842211670708,-1.9775537004461512,-51.25216535816435,-63.546683850639965,-77.0835801520152
2025-12-12 20:53:13.372529,Right,-67.28377165459096,-85.75180659448961,-74.97837909712689,-60.40069532766938,71.64726753917057,-57.11767980380682,-69.86178185528843,-84.63501321943477
2025-12-12 20:53:13.376524,Right,-63.95709897362394,-79.47454285790445,-70.28020111389924,-59.524993271101266,80.77564306967543,-49.388275062228786,-65.29181322851218,-77.1337309119408
2025-12-12 20:53:13.380543,Right,-50.29654675128404,-62.37262274924433,-54.56082537822658,-57.07259819417959,21.594030363979982,-32.931343060714426,-52.02725771063706,-59.75014458922669
2025-12-12 20:53:13.384570,Right,-45.61255791399162,-54.44555714097805,-48.018712163728196,-49.17937082302524,13.842897057736991,-28.237926570727723,-46.56625393341528,-53.28788874822203
2025-12-12 20:53:13.389516,Right,-51.67918570007896,-57.604878741898574,-52.02770967717515,-42.427019991446286,75.14665976911783,-35.27995702699991,-50.05979998892872,-57.249896713823546
2025-12-12 20:53:13.393636,Right,-50.57703444024082,-54.44246425037272,-48.816876471275464,-42.70734903603443,88.68711222251295,-35.00562317992444,-47.639986099500675,-52.92514669342199
2025-12-12 20:53:13.397629,Right,-37.70410557562718,-41.07025302061811,-35.20926244970178,-43.21860628100694,24.621350807894487,-23.814902099518804,-36.180882070213556,-38.42663234099746
2025-12-12 20:53:13.400627,Right,-28.837325785600115,-32.978960196487606,-27.758885878080036,-35.17884178995155,-0.9528787086892407,-17.446198359597474,-28.876411710924003,-30.536184370925184
2025-12-12 20:53:13.404645,Right,-29.727576749166474,-34.85648194537498,-31.421949972806033,-23.33639555540867,57.94731981176301,-19.349372544616926,-29.59320202987874,-32.168623221165035
2025-12-12 20:53:13.408670,Right,-26.020450724405237,-32.02031138940947,-31.09759307745844,-17.936623389774468,89.99461913009873,-14.3697886634327,-26.020359607646242,-27.74725490878336
2025-12-12 20:53:13.412664,Right,-11.172761944471858,-18.22664718091255,-20.121007713954896,-16.425548258412164,32.86754084168933,1.4070738007430919,-13.347949615766993,-13.457998003228568
2025-12-12 20:53:13.417680,Right,1.1663202920753974,-6.543346633203328,-11.17271571670426,-7.731336141005158,-10.97938907466596,12.201180502976058,-2.976351454941323,-3.9167677633813582
2025-12-12 20:53:13.421706,Right,2.594846693536965,-4.327322481025476,-11.167678430967499,7.540580729575595,34.88608878539526,10.926658067823155,-1.1099736111646052,-3.9895301410579123
2025-12-12 20:53:13.425703,Right,4.270044448901899,-0.8665860123874154,-9.284890635579359,16.972370599134592,78.3205865942,10.661029127863003,1.4420350209984463,-0.24077755282633007
2025-12-12 20:53:13.428721,Right,13.324328887363663,9.22451735395589,-0.5589001563494094,16.272103462164523,28.781335943291197,18.26824917207705,9.448236981785158,11.725632449495606
2025-12-12 20:53:13.432670,Right,17.401257758465363,12.89932531604427,1.5414044667850249,14.022923362790607,-36.329558973317035,20.794966624845983,12.290391452523181,16.775695481832372
2025-12-12 20:53:13.436728,Right,9.368255468056304,4.2619788341689855,-8.755307214625645,16.043699979549274,-16.68513949678163,11.973502189706778,5.30591657946934,9.608906641369686
2025-12-12 20:53:13.440810,Right,5.527077347127488,1.0003664432733785,-13.548896212305408,18.777891121135326,26.6480725943984,8.356354529969394,3.0177820117096417,8.885833351116162
2025-12-12 20:53:13.444805,Right,18.19349441397935,15.442583947791718,-1.081838788202731,19.38826498441631,-9.883204707002733,20.603296834073262,14.656589942140272,24.456970111001283
2025-12-12 20:53:13.449743,Right,31.242551173141692,30.802334313018946,10.961659987573512,20.87868707004236,-75.40759406081634,31.91095381154446,25.531632238969905,36.50833805123693
2025-12-12 20:53:13.452745,Right,26.871325220359722,29.091444028861588,4.9089532507932745,24.695659764460288,-59.0433775166166,26.558723675465444,21.771473180764588,29.102459696907317
2025-12-12 20:53:13.456793,Right,17.558392602513777,22.734065988712246,-5.035200509766582,27.852773205871927,2.005445180548122,18.578783816308714,15.695490198151674,19.968611591786612
2025-12-12 20:53:13.460802,Right,24.876287337159738,32.49965648364741,3.445126954058651,30.60354145243764,-9.241649364848854,27.68546511203749,25.05231370101683,31.439535628567683
2025-12-12 20:53:13.464805,Right,41.79053690555156,50.25249489067937,22.222417316923384,37.46621619662619,-72.84771811281098,44.48466170755273,41.63742969982559,52.30571164522553
2025-12-12 20:53:13.468836,Right,45.679460538347485,53.35782081569778,27.758768480009167,47.12753852977767,-72.19853564584628,47.466869770898484,45.183885164471576,57.72594458077219
2025-12-12 20:53:13.472786,Right,38.246020556485746,44.793625907972455,22.263633624621434,51.49316422895936,-14.43314115726389,41.05820673966082,38.24090975226136,51.393098094064044
2025-12-12 20:53:13.477845,Right,40.35769572798745,46.636041564663174,27.105842255958123,49.1188360597298,-16.552558707946446,45.87715227303852,40.12814769768738,55.63760957037448
2025-12-12 20:53:13.480858,Right,53.54586802085396,60.578770183434244,43.05754162950325,49.558314114503446,-83.3570176686917,60.634924091311404,52.50547784866649,70.52629122382496
2025-12-12 20:53:13.484886,Right,59.151779173567775,67.32840885419864,50.42394381863414,58.206893059788854,-95.37284384455415,65.54262255885988,58.61964592168806,76.2271292246005
2025-12-12 20:53:13.488889,Right,53.786498164437944,62.63434438119293,45.83688721596263,66.50053908431437,-31.54429746704409,58.4321511824819,54.4289943940239,70.39819695806364
2025-12-12 20:53:13.492851,Right,54.32957438135054,62.90849376855476,47.16853104552138,65.79203020942805,-10.013326100684935,56.494375091278926,53.84018079955422,70.75830508148647
2025-12-12 20:53:13.496920,Right,64.85690439396421,72.85542809328763,59.69328631478129,61.57537942037743,-68.11843242114992,62.75751334356028,61.14176360270358,80.86282275401754
2025-12-12 20:53:13.500983,Right,68.68124317098409,77.12526629211789,67.46061704747262,63.32074255970656,-90.3246759667527,61.50361247936962,63.85423856206762,84.57266201205493
2025-12-12 20:53:13.505948,Right,60.36269176552014,70.55506500715273,64.45025593435275,68.51614834876091,-19.533895486558322,50.818602822124376,58.42444069580233,78.21519791209721
2025-12-12 20:53:13.508950,Right,56.51079117128393,68.26235587130941,64.91952559574565,68.50760682112013,40.08805275733175,49.12257981697621,58.16784226654272,77.66576663724845
2025-12-12 20:53:13.511981,Right,65.03224803433113,76.7544147001754,74.13681511205505,64.42153645129292,18.526654506946215,62.05496906107146,68.07663856304134,87.30659295001533
2025-12-12 20:53:13.516974,Right,72.07832352072,82.75998055386299,78.00761571798648,65.47649387431738,7.157010168928537,72.55082782568934,75.8693690062646,92.24686924990965
2025-12-12 20:53:13.520996,Right,70.57650781210396,80.81673525617225,71.91260044115188,73.56622325510398,80.27682068792637,72.72641019192815,76.42697553484322,88.8853040964459
2025-12-12 20:53:13.525038,Right,73.59846087876213,84.19402930853539,71.03802718702354,80.39137355783168,147.61019760469208,76.42740978414804,80.99554475576588,92.67865388102655
2025-12-12 20:53:13.529004,Right,86.45337789522455,96.88086032390129,80.55067976535065,80.99591111247719,117.27296598975954,89.53130892004992,92.75873423448502,106.43596775197511
2025-12-12 20:53:13.533052,Right,92.13521208601742,101.51607863228855,83.03141099699133,79.82564747228753,65.53391486726468,96.14526004576328,96.73548358102562,110.7015364044928
2025-12-12 20:53:13.537037,Right,80.58323051952902,89.36855029251456,69.5515832791134,80.27469833246505,95.03233322947926,88.20737565005766,85.65523586865311,97.61619135825458
2025-12-12 20:53:13.540040,Right,69.33171658111678,78.5088128345742,58.45962164647062,79.24241647229428,145.29383933467034,83.34413080658123,75.24804271218454,87.296610032834
2025-12-12 20:53:13.545071,Right,75.82305494792308,84.78770247807552,65.64222265233548,76.4715780568149,108.6259158772591,95.55821044733966,79.27560597786942,94.96890224929666
2025-12-12 20:53:13.550069,Right,88.76779729183545,95.54224617138607,77.73564465845993,77.91478040225775,34.6615795117541,110.27920737183376,87.06653889937661,105.86247740350882
2025-12-12 20:53:13.553084,Right,89.4129979138088,93.1020508196525,76.30964876242797,84.65262632897611,41.726154852323816,109.83912899615825,83.55419032104692,102.48149718494824
2025-12-12 20:53:13.557096,Right,83.96980983349567,85.7057100871425,69.40638848215895,88.96172040278725,100.11576029528806,103.91747255763585,75.71048143529151,94.91187096748399
2025-12-12 20:53:13.561067,Right,89.391495641039,90.59169918778935,74.27674555263366,87.13276639244737,90.48868424945977,110.4145692420343,78.32092836988977,100.2385685513982
2025-12-12 20:53:13.565125,Right,101.38608312372617,102.20046118732807,85.2465055064713,86.62718439093032,26.151307454696507,123.24824265707113,87.00370313476878,110.9905167949546
2025-12-12 20:53:13.568145,Right,103.8364970308049,103.7371995310773,85.72851496638941,93.58168187672618,23.853394980411394,125.31423187188557,87.8282617158543,110.60294412272287
2025-12-12 20:53:13.574099,Right,99.72536243973173,98.729439782197,79.91987110525133,102.35330976896148,80.76273666982888,120.2354247539215,83.81616348828175,105.16682259674963
2025-12-12 20:53:13.577162,Right,104.9849855593693,103.8080000369755,84.74868297491912,106.03682044515517,77.76155374188966,123.89713095969637,88.68981760745919,111.82249714722457
2025-12-12 20:53:13.581113,Right,117.2420312405302,116.95705192033347,97.75222615298662,108.32129519158843,3.4520973822363885,133.0086707012124,100.04280746922086,125.88872109157091
2025-12-12 20:53:13.585167,Right,118.26884481354864,120.09445011016942,100.55617938095565,114.24235300767032,-21.963114098776714,130.10640844755108,101.96245598530368,127.85306480138752
2025-12-12 20:53:13.589203,Right,106.6521538023735,111.34029099777035,91.75789306679508,118.07951595255145,30.16936092187825,116.1983030618685,92.99542318977547,117.78729136195761
2025-12-12 20:53:13.593212,Right,101.13330183170547,108.30094141224254,89.44903755459018,113.36420627155167,43.33495845651487,110.60284118721029,89.06723657006296,115.05800713392819
2025-12-12 20:53:13.596180,Right,107.54831822504639,116.20136451199505,98.53703025392315,106.56803603992012,-26.972382907173596,117.09186697110272,95.73823997191357,124.10003424131719
2025-12-12 20:53:13.600200,Right,108.64354474761058,118.6601194897521,102.10483253280836,106.80306805369037,-69.58820438673138,117.52340726333568,99.36575754950172,127.8338963918286
2025-12-12 20:53:13.605240,Right,95.70765091269277,108.24720855219493,92.91999616767134,109.78821356381377,-23.54101910139434,104.87985804616619,92.8229294479388,119.92886636714684
2025-12-12 20:53:13.609234,Right,84.7011922074962,100.61298743713996,87.0381822399795,106.2919294089952,10.048768641237984,95.44699084848253,88.23878536782286,116.01133135419514
2025-12-12 20:53:13.613236,Right,87.75564532224962,106.16456276529789,94.38580509767053,99.59500405056315,-42.103826126527565,98.65993450667884,93.82308893087611,123.60041379933682
2025-12-12 20:53:13.617322,Right,93.75662694165658,113.103872533713,102.32673356457963,100.35164245517808,-89.0675421512642,102.06594826748187,99.95533969545795,129.02046895933745
2025-12-12 20:53:13.621252,Right,92.60245388112526,112.61687006290595,102.20077852488612,108.23501266795938,-46.96731270804594,97.95934028102056,100.15002878169616,125.82854703025077
2025-12-12 20:53:13.624300,Right,94.09849004603893,115.72323975121253,105.92962217684544,112.3730454493707,3.346700665410026,98.06186722019629,104.07215136628656,128.1200110589416
2025-12-12 20:53:13.628243,Right,105.29411354465992,129.04495714722725,120.38703428076406,108.91569230919413,-33.384147363714874,107.73330590997648,116.55692571078544,141.93899261642946
2025-12-12 20:53:13.633299,Right,111.35392162411881,136.8537919951341,129.3284938957804,104.6162055649038,-90.154603066665,110.34302860853495,123.46792295583873,149.55773108916765
2025-12-12 20:53:13.637300,Right,99.68187523426604,126.6631653221848,120.15930634684628,102.4725275811943,-64.23995980284963,94.99470931103133,114.33755002290127,139.1658926064265
2025-12-12 20:53:13.641415,Right,84.87644885432383,113.56143884290941,108.45595946419053,98.0623824850627,-9.355302454387129,78.70976584256277,102.77175713267934,127.5946241076308
2025-12-12 20:53:13.645352,Right,86.24231406216859,116.55324217783345,113.27038186078425,91.93918305760599,-33.95066579357808,79.86268595811998,105.57132977989386,132.71610855784093
2025-12-12 20:53:13.649354,Right,95.83903653746529,127.06523865737836,125.53518255797098,91.61489668559807,-96.54215244114312,88.06586912197963,115.52642878092593,143.38564733511885
2025-12-12 20:53:13.652469,Right,94.59641709843709,126.17878391779959,126.37782083073398,97.99043968533806,-81.75703755506402,84.60532404247351,116.19839515915373,141.2565530621505
2025-12-12 20:53:13.658396,Right,86.63620739267208,118.68510861456161,121.18407793421648,102.3533813511167,-15.41496395139984,75.84020819039142,111.15797755436506,133.95995769642468
2025-12-12 20:53:13.661425,Right,89.09207027462253,121.83315021629096,127.02824592246907,100.66499176353682,-16.334379851614358,78.59841943826177,114.52381512093416,138.62189955417125
2025-12-12 20:53:13.665412,Right,98.22352225219947,131.5046855142864,138.64480312923843,99.33773588754411,-74.54222278331508,86.486466414819,122.49184974413947,148.17647420852154
2025-12-12 20:53:13.669451,Right,96.12272525306616,129.77228290992207,137.4068675731687,102.27154585947574,-70.62871704449935,81.02062670626037,120.17785301098775,144.39363657613285
2025-12-12 20:53:13.673457,Right,85.00361365376739,119.01355324631731,126.20081156458764,103.34582427279383,-0.24733386496154708,66.31657131559041,110.20200212705822,132.47126878441486
2025-12-12 20:53:13.676452,Right,84.21925208054017,118.03904342204623,124.61246790234873,98.39003077833331,16.27586449789669,62.083354898379184,108.50822971649177,131.7438439229445
2025-12-12 20:53:13.680452,Right,95.07791568429093,127.4282633291441,133.28286966739688,94.31936199479969,-42.46181691747552,68.1606604250992,115.224463378152,140.021546820004
2025-12-12 20:53:13.684425,Right,98.55189511546632,128.80832312972052,133.65648602027795,97.71361895956215,-59.86524897916024,66.24898333224701,115.12909922163817,138.186492937617
2025-12-12 20:53:13.688489,Right,90.1012351547397,119.25340242536913,123.2381938676408,103.19728342660528,0.46715080968169787,54.759068370301975,106.67397747114592,126.20937114968547
2025-12-12 20:53:13.692509,Right,87.0098731987382,116.41915150673594,120.34226320250309,102.8736454656464,27.11172385194186,51.696454003074905,105.16736612803652,123.27656477596611
2025-12-12 20:53:13.697523,Right,94.64639030402759,124.54928390853456,129.25725282513304,99.23970239334449,-30.22395443428104,60.25410491826187,113.53437364251295,131.57865411572857
2025-12-12 20:53:13.700523,Right,95.58240500396641,125.5673369197757,131.64998755449778,98.5733027238166,-66.11673886417793,61.88472717293189,115.404782818674,131.75254297195352
2025-12-12 20:53:13.704485,Right,82.88641785229265,113.11181973060593,121.34710474943859,98.76636901461461,-15.74857214314352,50.69852289641858,104.80226609681267,119.40356117769261
2025-12-12 20:53:13.708538,Right,74.55102064527455,105.52474484476261,116.87601163229556,94.35965663741808,25.820188936886552,44.524789274524665,97.43190671817865,114.13598927092971
2025-12-12 20:53:13.712570,Right,81.27208908034663,112.70751210057642,127.38769561430672,88.45834983180976,-15.591918819769035,51.406787800820894,102.19513238189393,123.32889024025644
2025-12-12 20:53:13.716576,Right,87.62141489444184,118.44075017963769,135.36692369016237,88.45766639128851,-52.03290628585546,54.49775002981187,105.82269257657754,128.07724083017092
2025-12-12 20:53:13.720576,Right,81.26665863631933,110.86168477218598,128.4591807537945,92.81868877842498,2.2490118501809775,44.07961857650662,98.80882752293837,117.96792650473071
2025-12-12 20:53:13.726630,Right,75.58715670643141,104.42104830156313,121.72648512528394,93.65222330694087,67.3045514187761,36.99248112665373,93.8806549203291,110.56649871284026
2025-12-12 20:53:13.729624,Right,84.00528187058808,112.83658356041997,129.50495286349906,90.91058294057439,41.91903633207039,46.48812595839263,102.32018181191233,119.41630490953685
2025-12-12 20:53:13.733654,Right,94.13381315718289,123.19659920874983,139.0525960845698,91.69380011475005,-11.385366354876169,57.6258233730623,112.00424089742592,129.29828580917092
2025-12-12 20:53:13.736668,Right,89.55293608531065,118.54507725403528,133.96150063551613,95.44839040757506,15.435112974515505,53.34371086310421,107.77076898793166,123.49658701277804
2025-12-12 20:53:13.740661,Right,79.11729063918756,107.41165805820492,123.66465679940302,93.50473958686052,75.80273941758423,43.65334269426239,97.26085963398509,112.73278892037342
2025-12-12 20:53:13.744713,Right,80.24071832193295,107.1415610393451,125.43142010460724,85.38715258942102,58.75258785903134,45.838532329988084,96.1405755282467,114.1133738590579
2025-12-12 20:53:13.748720,Right,87.0812020580197,112.68108227167977,132.95126768868067,81.16240416666551,-1.6586805823171744,53.08751197074889,100.38713933499821,120.15105631880579
2025-12-12 20:53:13.753793,Right,82.41165757317503,108.22342764478526,129.5217196039739,84.01684931709315,9.471913031695294,48.71335754432948,95.91185051877983,114.59129242069321
2025-12-12 20:53:13.756794,Right,70.43068312505784,98.12489517682116,119.73726829350926,84.44434973683383,71.04933735564555,37.926781848000246,85.92058625866775,103.68031943863025
2025-12-12 20:53:13.759790,Right,68.7369734532258,97.97261797968531,119.56876141150133,76.67243503569625,64.2637772056114,37.48156116656901,84.097764427308,103.46762298492831
2025-12-12 20:53:13.764784,Right,75.60267141241638,104.02263185044285,125.21802433830453,68.32518412091304,-4.322404705664667,44.218060821527615,88.00196969859826,108.65532107735635
2025-12-12 20:53:13.768817,Right,74.44705011359474,100.10601439874154,120.75105839336175,66.80763059515448,-12.977108119644981,42.435183569192304,84.2179521045764,103.22828976117307
2025-12-12 20:53:13.772732,Right,65.76087072485825,88.66118520652526,109.26251767255599,67.05242150719278,49.0372713196557,34.7006944976456,74.70498099901306,92.02202775003389
2025-12-12 20:53:13.776792,Right,65.62137224990875,86.5990059391479,107.6348807234026,61.95043355891539,61.33915232804429,36.58821993031597,73.29215596341237,92.14779484897736
2025-12-12 20:53:13.780791,Right,74.2286877794395,93.52332010667305,114.3926458095957,55.6113759870932,-3.505424814145954,45.55219378575566,78.85005800994986,100.06983672137721
2025-12-12 20:53:13.784820,Right,74.92565031294362,92.52619554509874,111.8413687493885,55.639531754670315,-29.114746824772737,44.44010485788749,76.7882116366236,97.35933882088284
2025-12-12 20:53:13.787832,Right,66.06029533864057,82.43105880386429,99.46178731223335,59.53476440849772,28.342275138085824,34.60143841091485,67.0378719183791,85.43431955162669
2025-12-12 20:53:13.792848,Right,64.86109342120471,80.49612732356763,95.8609133392747,59.903061081364285,60.02871558343031,35.39191684954858,65.57907388506283,83.98278664780082
2025-12-12 20:53:13.796885,Right,74.44173301053524,89.37707075363141,104.30616029596422,57.4631653551769,8.280803795343672,48.32088475913042,74.94380939121766,94.49237391885254
2025-12-12 20:53:13.800873,Right,75.41507278216886,89.72643088339828,105.15037621892407,57.21207164262887,-27.08860808967438,51.75985162581492,77.62853725551395,95.83192234163289
2025-12-12 20:53:13.804837,Right,59.891810673245345,73.97607734982739,90.35307413892588,56.42247209348716,22.812459091161145,37.98453132969735,65.95915165675979,81.36538434246904
2025-12-12 20:53:13.808891,Right,46.35968208007398,60.188655423087766,77.60120983791421,48.83445581566775,66.73139091338089,26.207021981404978,54.96174057475582,70.45337986460072
2025-12-12 20:53:13.812894,Right,47.47209400450811,60.21842109254794,78.27608514582971,37.62089696811745,24.874429910705658,28.256982333463384,55.16692819788295,73.39015503719565
2025-12-12 20:53:13.815912,Right,49.77706552273594,60.79616139968857,78.72606868151342,32.085917497068294,-20.99442605843069,29.977218460117,55.7230473622767,74.55030806394643
2025-12-12 20:53:13.819933,Right,41.786662538244855,51.55092179897474,68.660787392786,33.11806011902809,19.07733304487192,21.02468121262791,47.86666171622346,64.01539325568592
2025-12-12 20:53:13.824883,Right,36.42892267119896,46.012802942539565,61.92999926148332,33.492162087291945,73.71617281780345,15.536096127689234,42.9040221034229,57.194419122854015
2025-12-12 20:53:13.828949,Right,45.952846229614806,55.90021799557144,70.34442054585088,31.995090513431933,43.227442617950146,24.929227488450124,50.47437292042014,65.45562018294004
2025-12-12 20:53:13.833974,Right,57.056888022401836,67.25529431950417,80.01853314749314,34.94430583904614,-13.123999153103796,34.91879947191046,58.623168441597954,73.45498245794442
2025-12-12 20:53:13.838991,Right,52.96156933254679,63.425968600349734,74.90531627830933,42.055302679902525,13.293075091773062,30.482937727094395,53.78545726410812,66.05447014109814
2025-12-12 20:53:13.842026,Right,42.29124435050471,53.292381100327475,64.65427735561389,43.81785860977834,77.97147097496781,22.549527863549883,44.37332218454685,55.17400269495556
2025-12-12 20:53:13.845010,Right,42.748007259040605,54.103018435271224,66.29892356475466,37.43198579129239,66.03623473079642,27.17808858329954,45.13419414040982,57.51671515079215
2025-12-12 20:53:13.849028,Right,50.24962329259142,61.31894016690785,74.08311550103826,32.85751385736512,5.801489841993316,36.22242619206372,51.33298142363492,64.8435046042141
2025-12-12 20:53:13.853030,Right,49.31754457000352,59.90071786631597,72.22768306790385,36.7312790563592,14.685453056779807,33.557822262795526,49.436901112800115,60.93700699135661
2025-12-12 20:53:13.857025,Right,42.95635116529593,53.461839540774236,64.84616552840453,41.86806503261323,79.39273780002259,25.304118545827805,42.683659833681304,51.98701754678041
2025-12-12 20:53:13.861059,Right,45.1415574933344,55.76143605831021,66.49067130545154,40.28840544712148,81.33468952681869,26.9968953171483,43.38124892656924,53.46692981434171
2025-12-12 20:53:13.865071,Right,51.36817486316431,61.884045107028214,72.40156232719892,35.76054705979186,18.85618506492756,32.717173884564545,47.73757419119647,59.38434000572306
2025-12-12 20:53:13.868090,Right,45.11719958629692,55.65409880137304,66.19760171844973,34.409841126500396,10.385005695614382,25.445268395036692,42.07859463435307,52.89568894263357
2025-12-12 20:53:13.872088,Right,30.113146105766646,41.186858253218816,51.918965031421976,33.206391370113124,72.99917395556986,10.366712440387346,29.848826054789242,39.286275102669606
2025-12-12 20:53:13.876047,Right,27.107418723608134,38.5486147551419,49.49922127192258,28.009519052357064,90.57336435088655,8.280420319904806,28.05274297062715,38.631014180369675
2025-12-12 20:53:13.880121,Right,37.79222275708162,48.40478882196476,59.25457667050068,23.81240934637026,31.276639811723726,19.03821954925661,37.26784810035315,49.370370882665156
2025-12-12 20:53:13.885154,Right,41.45432826920296,50.33713998492749,60.71604589995695,26.33525463407568,7.706610874141916,22.025220679090125,40.2232668933284,50.316451715814765
2025-12-12 20:53:13.889076,Right,31.580624800059013,39.18648183956975,49.248385098268045,30.601957248873077,66.53066906155436,13.311659944505664,32.46447261945286,38.6750510425627
2025-12-12 20:53:13.893161,Right,25.508062192049692,32.745922853195225,42.97892489581136,28.272342376192682,101.12802655923588,10.928856903949054,28.63075592579844,33.87727215063933
2025-12-12 20:53:13.896172,Right,30.92780752442195,37.88541200100735,48.33131889256765,21.56791056864313,50.93768107674259,19.90821935988788,33.999836327304365,41.064833926880965
2025-12-12 20:53:13.900170,Right,32.631940557126654,39.01419493116555,49.32173004411743,19.1333540668129,14.170725116578978,23.109460613959527,35.25491832464468,42.677741201245226
2025-12-12 20:53:13.904193,Right,22.53476888341538,28.749565096601145,39.098095164314145,20.922987583529903,63.282592133560684,13.640789693359693,26.371671297209105,32.166831059759716
2025-12-12 20:53:13.910150,Right,15.568934896597057,22.38468137771997,33.55482730959193,19.49108867700852,109.09652333099802,7.774222836429544,20.390145429453696,26.083159645670094
2025-12-12 20:53:13.914211,Right,21.970241365474067,29.343253908635234,41.5358563886839,14.87705048926,67.8280407404527,14.848769443982746,25.263666853439645,32.552466250097496
2025-12-12 20:53:13.917182,Right,28.0787905582838,35.03189628208929,47.2629360758001,14.60894380591344,18.552186777887982,20.179778072153567,28.770252612928743,35.44382060979842
2025-12-12 20:53:13.920182,Right,21.824940663864254,27.33182351886353,38.397741994354874,18.771953922812827,56.04028357852076,12.539260776502488,20.929364216470276,24.27853928958939
2025-12-12 20:53:13.924241,Right,14.800277424801607,18.31889254442649,27.889367640396813,18.553186936187558,113.45265385106904,4.711030520957138,12.334136176112224,13.839568341732956
2025-12-12 20:53:13.928292,Right,19.34895272196445,20.80241151699738,29.24843345861882,11.680335962955724,86.64231997422758,8.836272233842465,14.253089220641414,16.543340156946215
2025-12-12 20:53:13.932266,Right,24.528498005893198,24.530662820325233,32.16585279582068,6.847759722761111,28.20886596888886,13.49955952399614,18.16218361760548,19.817545721423812
2025-12-12 20:53:13.936366,Right,16.50529805100814,16.59415786358295,23.48349238827359,8.803315831442887,49.1565236672468,5.79400405564229,12.719531926952186,10.675543946010293
2025-12-12 20:53:13.941384,Right,5.321639574234723,7.121516460523708,13.354373521942762,11.029023049763055,112.18305154916015,-3.3564191823461442,5.686709141751635,0.9236772835574811
2025-12-12 20:53:13.945343,Right,7.73819564646692,11.548733198054833,17.327879130563815,8.765596585428284,101.76787318760762,1.2510011827616836,9.375854829035234,5.6552873841137625
2025-12-12 20:53:13.948355,Right,16.564120693321456,21.287287308077794,26.781414472017786,6.982312510059273,38.910235951887444,10.216295864040148,16.372549555861042,14.5364877631946
2025-12-12 20:53:13.952326,Right,13.026743750815513,17.510458331060363,22.861592236164142,8.743905089329928,39.511661116353935,5.672613370305044,11.67732798709767,9.724024522744003
2025-12-12 20:53:13.957306,Right,0.5410706016409677,4.248696284819744,9.647888532068464,7.653296184442297,95.52580505123478,-6.043221826272202,0.23650638475373853,-1.7723521359730512
2025-12-12 20:53:13.960356,Right,-2.065002791961888,0.28956852182454895,5.630418751185061,-0.49965256753057474,89.78078613060643,-5.853065019109636,-1.5543407049335656,-1.6026315441849874
2025-12-12 20:53:13.964326,Right,4.660056180306128,4.67430998448981,9.15891719837964,-9.219805645007,17.7030861901585,2.830060911779583,4.239337893195625,5.176305559449247
2025-12-12 20:53:13.968338,Right,2.5158832003799034,-0.5059170165623073,2.1101028257980943,-12.650326393792056,-0.02142735803499818,0.30990944782388397,0.9422170983743854,-0.872323347182828
2025-12-12 20:53:13.973403,Right,-9.455587778109475,-15.357532456269837,-14.869842143642018,-15.575917010239209,59.912394865823444,-12.816297646480962,-11.801113508103299,-16.87189463696268
2025-12-12 20:53:13.977386,Right,-12.424962041026447,-20.66032708606508,-21.646478398499312,-23.219387260978692,80.66336989487172,-16.52244820627675,-17.04720309743425,-21.561061950284056
2025-12-12 20:53:13.982395,Right,-2.9845150506007485,-12.99488514042605,-14.661740069495863,-30.16875122309284,23.044463279860793,-8.039935402070114,-11.316366098515573,-13.260760411358206
2025-12-12 20:53:13.986372,Right,-0.043879226490389556,-10.760939404906821,-12.745676311038551,-29.324560882487276,-2.3871820688946173,-5.972376820944191,-9.887899345318147,-11.770980609202525
2025-12-12 20:53:13.989390,Right,-10.005392921120801,-19.88290915924881,-21.949270663637435,-24.604225480681635,56.86477209982695,-15.037738907150924,-17.46654839981784,-21.207778960451833
2025-12-12 20:53:13.992522,Right,-15.35168551155948,-23.603196871416003,-25.258274931067717,-24.09227788526914,96.38364855159307,-17.928028775808343,-19.818016764555068,-23.25852268478775
2025-12-12 20:53:13.996432,Right,-7.3671095522804535,-14.585273573793529,-15.553031626404845,-25.845590261109464,49.30897348822327,-8.391367851378163,-11.390591535811836,-12.46345670663868
2025-12-12 20:53:14.002510,Right,-1.2761018187156878,-8.566768639429938,-9.377689753528102,-22.256058927610866,10.097502938675461,-2.7451438492862508,-6.29145193540171,-6.823929514808697
2025-12-12 20:53:14.005484,Right,-6.799207711126655,-15.001922640869452,-16.540514626234653,-15.239179871903616,56.77505895908689,-8.928087341446371,-12.437324307327799,-14.596040535747306
2025-12-12 20:53:14.008498,Right,-10.867226944013964,-20.655789511089097,-23.395445366288186,-14.244744836443715,104.92693728013546,-12.033131055024569,-17.93227249188203,-20.206500484819117
2025-12-12 20:53:14.012563,Right,-4.287470538678463,-16.074857655847154,-20.1789535873977,-20.05144076252691,66.35034646405256,-3.6283597291258047,-14.71727769554127,-15.015093063520908
2025-12-12 20:53:14.016560,Right,-0.23945281991473166,-13.490751344274031,-19.161001474043587,-23.15347326705887,14.41644007639843,1.1938396494151675,-13.83203974233038,-13.664035963694914
2025-12-12 20:53:14.020570,Right,-8.995998425300058,-22.283140645798994,-29.419679481579806,-19.516078738226497,46.08476343838265,-7.985442707205948,-23.255634703127726,-24.96812342452904
2025-12-12 20:53:14.024795,Right,-17.110772608590196,-29.58184866078227,-37.46487725917541,-16.069610984541214,99.61619721160969,-16.68489166182553,-30.956030380122684,-33.33181613714987
2025-12-12 20:53:14.028550,Right,-10.895493732532486,-23.301305479697476,-31.21342867727799,-16.941962966004212,70.2095390096365,-11.313216742964869,-25.635501219796424,-26.420310431909456
2025-12-12 20:53:14.032610,Right,-1.0677396655300981,-14.697536631785624,-22.656331946505816,-16.18168592425718,7.405483699578326,-2.880336644149793,-16.85033164165361,-17.56486945474171
2025-12-12 20:53:14.035584,Right,-3.45462630646216,-18.555593505705474,-27.02956368929881,-10.671420683211181,24.476870402053464,-5.6996761112131935,-17.985664594823902,-21.729094387497753
2025-12-12 20:53:14.041591,Right,-11.115316948147665,-27.033610405545915,-36.41976075399725,-8.04365879672332,88.08561745283077,-11.404115569530404,-23.528620069228054,-29.44363831456576
2025-12-12 20:53:14.044610,Right,-8.387197692318296,-24.780613261704275,-35.81511107750703,-13.249525682349486,80.38938400597544,-5.813880962348776,-21.369993785581755,-25.9887812357847
2025-12-12 20:53:14.048696,Right,-0.5066787241084967,-17.679246473308012,-31.967496612429386,-19.281140107290412,17.960134948487394,3.301824243291776,-16.52027008724326,-19.911428119885386
2025-12-12 20:53:14.053690,Right,-3.902865308795299,-22.171641787215776,-41.550091452358174,-20.190440753953226,19.748379021388246,-0.47589631874870975,-21.94395873940448,-27.760135552391148
2025-12-12 20:53:14.058704,Right,-15.091526076757873,-34.387591242517374,-59.69338484136097,-21.41284176341287,84.59119488819852,-11.860023542903946,-33.21834007004145,-42.60004000875051
2025-12-12 20:53:14.061724,Right,-16.310219575971132,-36.36028475324565,-67.00993429297523,-27.689901226651273,93.99356876820093,-12.579534133965353,-34.55579431899059,-44.69853542818237
2025-12-12 20:53:14.066793,Right,-7.8020825456187595,-28.285748002057517,-62.900469396110566,-32.11252379346115,34.63371300083236,-3.518183676595072,-26.207975992956563,-35.609137253894005
2025-12-12 20:53:14.069793,Right,-6.667686470915214,-27.1250725230675,-64.23748831768171,-27.77329359115538,23.816105876176152,-1.322536045259767,-23.188365129593876,-33.58126629630715
2025-12-12 20:53:14.073782,Right,-14.802313710730232,-34.90470931735763,-73.09297381733631,-20.896419755890747,89.7427240551624,-6.850993405907502,-28.156704456414445,-39.98924258043917
2025-12-12 20:53:14.076793,Right,-16.196216472639207,-36.360651763498026,-74.34866142597457,-21.106319038091897,117.8446263136866,-4.850725432173931,-28.804618547051177,-39.38445999415853
2025-12-12 20:53:14.080726,Right,-8.398471269079891,-29.57335072711976,-66.67122773871961,-26.10261284918488,63.99541716428939,5.236476217749441,-23.475728324740885,-31.413496710694744
2025-12-12 20:53:14.084758,Right,-8.506460266900831,-31.071603252737987,-67.18598763660702,-27.82245905729087,36.178187488840194,6.086340712747187,-25.847994840304636,-33.198707337920496
2025-12-12 20:53:14.087791,Right,-20.90800121601569,-44.300330343023234,-79.2065592465442,-27.06854735093384,92.08303945843363,-5.586255954935041,-38.595537264081486,-46.526062511113196
2025-12-12 20:53:14.091818,Right,-26.970593768750405,-50.57049646788619,-83.44892407104635,-29.601303287999144,131.33308472501813,-11.421023138405872,-45.628159471987146,-51.91207345283874
2025-12-12 20:53:14.095846,Right,-18.184190600608417,-41.8674704642699,-71.61822725386446,-33.308770552541546,84.01050920254784,-4.231227586358727,-39.82016146429589,-43.161639192427174
2025-12-12 20:53:14.099846,Right,-11.740372455275065,-35.05630725140509,-60.71005783347209,-31.348590733614344,41.859534853938385,-0.4513245718608232,-35.12698440344275,-38.19900684412278
2025-12-12 20:53:14.104855,Right,-18.99310303965467,-40.54407670008368,-61.38077286777843,-25.08769287639393,85.28681667495403,-8.367308691476865,-39.999156999162096,-45.023829151798054
2025-12-12 20:53:14.108850,Right,-25.546396519894188,-44.10149520974676,-59.889782596656005,-22.560016595347406,130.22108945072978,-12.278987332787437,-42.23007709554349,-46.93871202828632
2025-12-12 20:53:14.112862,Right,-19.479872914307634,-35.25302070730959,-46.825227121284115,-24.719085171826464,83.50861993861326,-2.88253851691843,-33.46727459304748,-35.180573998280124
2025-12-12 20:53:14.116877,Right,-14.38261639542361,-28.364003126344414,-37.774402927578194,-24.759184501448544,18.084420481085544,3.326400866779295,-26.7919766129462,-27.567129971739178
2025-12-12 20:53:14.119882,Right,-23.86557495867055,-36.28944947336004,-45.699061591600184,-21.405821842423393,40.32001144028618,-6.718130028644737,-33.3972804899131,-36.93544852147028
2025-12-12 20:53:14.123888,Right,-34.77356630059512,-45.226442177741774,-55.40761387947714,-20.636152003175994,95.45989369887684,-17.741795194706356,-40.91189662907527,-46.91506891474978
2025-12-12 20:53:14.127890,Right,-29.42174147914193,-38.3403028234834,-48.59501422501489,-22.809522745315007,71.99593621058739,-11.9894251407095,-34.29469851690192,-40.427255400798
2025-12-12 20:53:14.132849,Right,-16.76438687143127,-25.736623255495942,-34.967900973068026,-20.613083712485604,8.492447377022472,0.6398414037830662,-22.116228081878944,-29.240760310315636
2025-12-12 20:53:14.137872,Right,-16.186524963801276,-26.48335139089977,-33.668854569223186,-13.291509848941132,17.855143947264878,2.0151683636604503,-21.120878365694807,-31.49857161563432
2025-12-12 20:53:14.140921,Right,-24.59376663623334,-36.33924508704331,-40.342501496757905,-11.022305079033686,73.75233118409233,-2.7925699797115158,-28.400125509726422,-40.29650665072222
2025-12-12 20:53:14.145949,Right,-25.728397884572587,-38.823171530846594,-38.77367665249767,-19.128253504382883,60.15768183198816,1.1768678544767681,-30.672799916064832,-39.89779520122465
2025-12-12 20:53:14.149953,Right,-21.159481365877582,-35.93897892419591,-31.85101822382785,-28.63889992436816,-9.394365199783351,9.122744332449656,-29.865366849482598,-35.74308640210802
2025-12-12 20:53:14.152981,Right,-25.05146202414926,-41.647842328116894,-34.0298129206858,-30.69200290068875,-14.66881783567078,6.6632207784705315,-37.00234516122873,-42.01328555948385
2025-12-12 20:53:14.155991,Right,-34.802629986924785,-52.93678048957008,-41.89728182298495,-30.039279035092477,47.41680845916562,-1.0087335543339577,-48.278168521253974,-52.433764729565155
2025-12-12 20:53:14.163003,Right,-34.69077386915137,-54.5129753241672,-39.843457113031036,-34.47938155333759,56.196692557350616,2.3757999475215,-50.2875227978293,-50.78872337137
2025-12-12 20:53:14.166999,Right,-26.539621176400374,-48.78457084775437,-30.82062500378379,-40.85378376057088,-8.495207209896762,12.684420515631473,-45.61612242497722,-42.34073539708152
2025-12-12 20:53:14.170023,Right,-28.185803398953055,-53.01079367393686,-32.69436352829871,-42.31559783180819,-29.434006079944083,11.09734965611301,-49.52865160415968,-46.01588380665817
2025-12-12 20:53:14.173019,Right,-40.413881211343096,-66.67756641032611,-44.59660318513852,-41.142579708717676,28.618817316528293,-1.2271888201805154,-61.61182468551124,-59.453242319872516
2025-12-12 20:53:14.176039,Right,-43.8319683194627,-70.03215275215189,-46.064521582949965,-42.66311876917098,53.23290338451625,-3.4819493629561293,-64.60671288976664,-61.45433207904898
2025-12-12 20:53:14.180041,Right,-32.74503725905333,-58.23137648885677,-32.37695858498046,-42.90214554544582,-5.0364579200104345,8.60700850738408,-54.052985921662184,-48.75006245872646
2025-12-12 20:53:14.184060,Right,-24.875800901342245,-49.58346003435872,-22.42266727293827,-35.1144211164501,-39.317562335927505,15.825876297466948,-45.78079205636459,-40.813673071214
2025-12-12 20:53:14.188064,Right,-29.370534331172166,-52.85433218563048,-24.825788297956024,-23.64871938788565,15.158230646906304,9.892319844916983,-47.861088404963084,-44.37145728366522
2025-12-12 20:53:14.193087,Right,-31.85887490166442,-53.434839554589416,-24.34462340909886,-18.429548152733332,61.14825860505516,5.889014820783359,-48.3803770699742,-43.05137914876468
2025-12-12 20:53:14.197118,Right,-23.342409527139353,-42.96239865187454,-12.66752554849154,-19.35924423947654,21.451133916096296,11.307560858174838,-40.35183338803836,-30.515018259979115
2025-12-12 20:53:14.200101,Right,-17.448362801387702,-35.77091199754432,-4.774983096780488,-18.33598354183414,-17.80166666410514,11.734844127289762,-35.39267270210257,-23.72440855257082
2025-12-12 20:53:14.204138,Right,-23.84190364611277,-41.53374986670315,-10.346260341666493,-14.565978507656837,29.356203051502234,-0.02979364425118547,-40.67112566115611,-31.2243851470339
2025-12-12 20:53:14.208173,Right,-29.146351024961405,-46.442529157346144,-14.7579644011239,-15.23011665343438,84.78758093103534,-7.8219618307330165,-43.96288707661006,-36.527042640493164
2025-12-12 20:53:14.212148,Right,-21.557119914994473,-38.385500095748284,-5.532024626376369,-20.60112249141457,49.755350314924726,-0.5373703371005831,-35.682867266888934,-27.856980458003818
2025-12-12 20:53:14.216165,Right,-12.949268836035117,-29.139450852682785,4.921508003142662,-21.93055290961638,-11.407119995419635,7.143856683969716,-26.900680857597763,-19.17884895311363
2025-12-12 20:53:14.220172,Right,-16.753991736548414,-31.928754741813464,2.8164745004214637,-16.39483726009348,9.107969311386114,0.882406994327539,-29.04816899303478,-23.591915227272693
2025-12-12 20:53:14.224181,Right,-22.534637646504052,-35.99641583338598,-0.8182230357379012,-11.14744113882989,62.54360178717616,-7.673749976207546,-32.40837783662937,-28.525569377936336
2025-12-12 20:53:14.227142,Right,-15.807057624459048,-26.792325380560214,8.978899195004487,-9.989215283570957,36.3578384739958,-3.6635496406670427,-24.330592955600878,-19.697376272957626
2025-12-12 20:53:14.233212,Right,-6.555606006239032,-14.492414201111387,21.96045209078875,-8.02259584722924,-34.10983836671949,2.15278894043513,-13.715374867930223,-9.056690299374168
2025-12-12 20:53:14.236216,Right,-11.850654683206812,-16.354309007529082,20.78088391802885,-3.0901688511221437,-30.9650294988096,-6.741459006216246,-15.340065924858209,-13.227723776173661
2025-12-12 20:53:14.241232,Right,-24.365178591109725,-25.396209139333223,12.5867562114654,-1.8151171065837843,26.288199586750125,-21.260847355470105,-23.10513446459663,-22.698949424440798
2025-12-12 20:53:14.245239,Right,-25.709385242082135,-23.88418376070331,14.927537552117428,-8.312811246261845,17.698209550741012,-23.025995544732723,-21.93867587689965,-19.88426530407378
2025-12-12 20:53:14.248281,Right,-19.55466596442966,-15.818627751254098,23.169791788586735,-15.855114666843292,-52.40139122691471,-17.77018705147566,-15.354689609004708,-11.789154511159722
2025-12-12 20:53:14.252248,Right,-23.047182008229356,-17.830743612586957,20.552286700294644,-17.3593174171001,-63.268436163642036,-23.448350025915715,-17.39535870220061,-15.91351769335597
2025-12-12 20:53:14.255261,Right,-33.47730811934707,-26.68988488629475,11.149792912256089,-16.23351798156,-3.3699097140852246,-35.703909466832556,-25.104441373390728,-26.388125249151926
2025-12-12 20:53:14.260267,Right,-33.19611030875603,-25.111882505265385,13.138397565657215,-18.452643592278037,8.288078092809883,-35.778648310890276,-23.80137630176978,-24.355303083910258
2025-12-12 20:53:14.264297,Right,-23.67732944522504,-15.017259527427086,24.4912348472717,-21.502601438613056,-55.49365444838622,-26.18502928399539,-15.387405598390615,-13.513172171107726
2025-12-12 20:53:14.268371,Right,-24.120121627416665,-15.02613330026361,25.69491218273106,-20.461228566869977,-80.35228580101102,-26.86474851615276,-15.75381586732692,-14.002906780988269
2025-12-12 20:53:14.272329,Right,-35.57402708797599,-25.320822338373546,15.86236883724996,-18.180079165998905,-25.720693361450685,-38.19043533668446,-24.66007083126533,-24.888013617171964
2025-12-12 20:53:14.276343,Right,-37.11511962228178,-25.271671917689673,15.545592940241477,-19.307980716588645,-1.3487833271719865,-39.56806459280051,-24.211365899565862,-24.74302375660045
2025-12-12 20:53:14.280307,Right,-22.883840490074363,-10.056725301536062,29.773113891169487,-19.86587385382154,-61.200765312387375,-26.971311677236372,-10.498253317058698,-10.319831327458814
2025-12-12 20:53:14.283364,Right,-13.154829594997864,-0.09397107289623818,38.31155534422942,-13.772043283908715,-100.82809313511098,-20.81606968815686,-1.389178162535245,-2.9125502278220665
2025-12-12 20:53:14.288362,Right,-19.583424821590597,-6.3282573155920545,30.50320076243588,-5.726834208522632,-51.37022459707441,-30.26291207102986,-6.377229917041404,-11.34239660177991
2025-12-12 20:53:14.292402,Right,-27.472264538901072,-13.985790081820596,21.49378986566444,-5.590817277254246,-8.13016143940331,-38.945614848391415,-12.484534561150213,-18.794465723905887
2025-12-12 20:53:14.296388,Right,-24.57492799712054,-11.404407520174573,23.117473510148557,-11.983351799801312,-53.610337187310506,-35.70744231457866,-9.200480749241251,-14.748286235510022
2025-12-12 20:53:14.300334,Right,-21.471012357371364,-9.044632408444159,25.016289704322844,-14.265809180003998,-105.14782047344124,-32.50539083739568,-5.317614154882904,-11.582756873587641
2025-12-12 20:53:14.306418,Right,-27.713861798416474,-15.659835336919059,18.805696161038213,-10.26847382694541,-70.22054106323412,-38.57483592594144,-8.798973123590258,-17.272922475778614
2025-12-12 20:53:14.309422,Right,-31.373458293895965,-19.243600778831023,16.719419994889904,-8.618197308085655,-18.30714811891994,-41.63071348372614,-10.167405552423588,-18.368205758266413
2025-12-12 20:53:14.312442,Right,-22.13846513444514,-10.227082140823768,27.658178022782522,-12.781581449376972,-49.238617492115736,-32.53533505797168,-1.8985360847509583,-7.085922895603289
2025-12-12 20:53:14.315436,Right,-13.731769754667766,-2.465291479806183,36.555291416039836,-15.96694650813879,-105.97899427993434,-25.93791401303679,4.028493569618149,-0.2079141773210722
2025-12-12 20:53:14.322506,Right,-20.188409025653527,-9.177413245750358,29.71412581153345,-13.985245044928888,-82.27459673308113,-34.70100179027577,-3.087012394797057,-9.954927713744837
2025-12-12 20:53:14.326478,Right,-28.759428111254238,-17.25803707223895,20.731274209654657,-11.305928347312147,-22.43769388110377,-44.48479828337804,-11.218444915484724,-19.559687145047064
2025-12-12 20:53:14.329484,Right,-21.621329786958086,-9.637817030972656,27.055969697048567,-10.657114525296493,-38.29517707567993,-37.71635048586904,-5.457463553717389,-11.241035427847237
2025-12-12 20:53:14.332534,Right,-8.206807842841954,3.692726684636,38.57149757340994,-7.78173995558609,-99.01793969991104,-24.564034099603305,5.611587959385361,2.7074733645749802
2025-12-12 20:53:14.336500,Right,-8.774165552411432,3.0379640967730666,35.61428922743289,-1.8077204659311974,-88.41353803545553,-24.37457703988548,5.171443375198578,1.888132423751813
2025-12-12 20:53:14.339508,Right,-18.518222319380584,-6.255716564250179,23.756482569373475,0.08658061442838516,-23.576754739484386,-31.725559016656916,-2.446206923781574,-7.331682346801244
2025-12-12 20:53:14.343541,Right,-17.564929940559523,-4.910205352931371,22.115379950213537,-5.3391930544567,-25.290994764625424,-28.847536823970586,-1.4706267589681374,-6.629733328838483
2025-12-12 20:53:14.348530,Right,-7.740780745545635,4.470613120614871,27.862967369439502,-10.575936921315588,-93.26711699602697,-19.63248215292697,5.635035103845439,-0.4369888071087189
2025-12-12 20:53:14.352560,Right,-7.790944223066617,3.5042126039952564,23.139498919470498,-9.088349979148916,-105.12586318781405,-21.261266794677795,4.107392466841702,-5.234363795174431
2025-12-12 20:53:14.356566,Right,-17.103583437827183,-6.384216211994499,10.365155082927231,-5.317207727810455,-42.18344810896497,-30.350509226496797,-3.909378637858026,-15.51421952914825
2025-12-12 20:53:14.360584,Right,-16.565742797040002,-6.318062116755755,8.766820654236653,-5.898724957085506,-22.17624719943342,-28.574103681476117,-2.881530910519359,-12.575575458424282
2025-12-12 20:53:14.363584,Right,-4.29802534998089,4.707501704564493,18.71857828323482,-8.196629919893894,-79.38157845466776,-17.395202179312037,6.675060347184626,-0.020865889950073324
2025-12-12 20:53:14.368619,Right,0.7105095791630447,7.859868745861604,20.74548440622857,-6.418945088094915,-102.87415359569422,-16.238712564638263,8.346819539889111,1.0994189426419325
2025-12-12 20:53:14.372551,Right,-7.007012477501121,-1.215363143805007,10.642916492628501,-3.457854357755423,-45.99108475393314,-27.076093036786915,-0.7188056787854293,-10.684807788642502
2025-12-12 20:53:14.377643,Right,-10.73658843368321,-5.41174610694361,5.890425062850227,-5.681569092481368,-13.603057634658398,-30.766606119876087,-5.068713199474587,-15.308462234021135
2025-12-12 20:53:14.380643,Right,-3.5809156265313504,1.5696370269797626,12.559035306346232,-10.157795523889945,-64.57571897511843,-21.63427741842679,0.9339904963271692,-7.238725094459369
2025-12-12 20:53:14.384658,Right,-0.9288766921272327,4.055562826000823,14.485565437051264,-9.222151639085496,-100.55566840334541,-16.755232517727563,3.7397819615471235,-3.8905828044626105
2025-12-12 20:53:14.388677,Right,-10.517641564325459,-5.492831414107059,4.181913558601082,-4.8536756386602065,-50.15444621360075,-23.846997922351875,-3.617844401142065,-12.36717867319021
2025-12-12 20:53:14.391680,Right,-16.70786748350656,-11.8167533541382,-2.6662063597927954,-5.687228019916802,-3.960672117462309,-27.753115721421636,-8.788483512224047,-16.70761834350924
2025-12-12 20:53:14.395701,Right,-8.962980986780167,-5.1611394457104325,3.7615692412721273,-11.434109892146807,-46.92994872588861,-19.996563108066766,-3.671464166156511,-8.650493980323517
2025-12-12 20:53:14.399706,Right,-2.247182820272428,-0.3296235055968282,8.487334591933404,-13.932009409651073,-99.95225780846158,-15.775904699490638,-0.3055593127573957,-4.137145074546424
2025-12-12 20:53:14.405855,Right,-10.282329461817426,-9.857035795157572,-0.774343400450789,-12.124259505690134,-66.3358251307327,-25.20355405902592,-8.297641994882724,-13.48831414392771
2025-12-12 20:53:14.408758,Right,-19.369830306819495,-19.322880122297647,-9.267845589284889,-11.871587902700412,-10.877044318851404,-31.64093404902087,-14.799816829156043,-19.911651061400335
2025-12-12 20:53:14.412764,Right,-12.453582187306893,-12.228095640752144,-1.101745238429885,-12.870656589544524,-37.55761555502977,-20.281275254907086,-6.719182977678429,-8.918045279100625
2025-12-12 20:53:14.419794,Right,-0.3287253773851262,-0.13053298215163522,10.890208275242003,-9.356626718697953,-94.01309130549816,-5.958284386833839,4.228838962106238,4.0884706072174595
2025-12-12 20:53:14.422794,Right,-1.9816240868822206,-1.8546183542530343,7.518390238176835,-2.88976193032795,-68.49733731914057,-7.748503550916212,1.3396246638476441,0.5181555845592811
2025-12-12 20:53:14.425790,Right,-10.957080659361964,-10.572929913698317,-3.395929781583618,-2.3775745579987415,1.4905725173775863,-16.49272308149375,-8.287934664702334,-9.185119534544356
2025-12-12 20:53:14.429812,Right,-9.739878787237103,-9.16262765499414,-3.714017493078245,-9.917733602957014,-1.0815662624354445,-14.060950276052608,-8.57208724892189,-6.913878566734638
2025-12-12 20:53:14.432803,Right,-3.143099520193573,-2.740863513023214,1.5380647045158184,-17.018876672824263,-55.31738628897074,-6.8473873938346514,-3.7200748657305667,-0.39740494507714175
2025-12-12 20:53:14.435809,Right,-7.636366163558705,-7.0731467754121695,-3.670110210807252,-18.149377239853493,-43.96552038888149,-11.587266577374976,-7.773286114294024,-6.545561174119939
2025-12-12 20:53:14.440770,Right,-18.082438465869927,-16.387901970261737,-13.529665008745724,-18.09384591158232,24.39860925346329,-21.972467745814356,-16.03721355298694,-17.56016063595598
2025-12-12 20:53:14.444832,Right,-15.88868802106117,-12.709131811316183,-10.015397404149553,-21.033843859040644,29.63244599331665,-19.685088966041803,-13.094044528977975,-14.213472311712394
2025-12-12 20:53:14.448839,Right,-3.7475721457540203,0.30775406811517314,2.926792925398331,-22.199388102708326,-34.97743847779748,-8.9442561756332,-2.227039389912534,-1.512905790208606
2025-12-12 20:53:14.451866,Right,-1.6934476745682332,2.8207133299511042,5.153107488289606,-17.617407769361307,-48.36509574773663,-9.193513040172547,-0.5671083445195109,-0.09127052527037449
2025-12-12 20:53:14.455872,Right,-11.555535540474011,-6.047394523273397,-4.166201950127288,-13.488225027780572,14.054307404647261,-19.528536729016196,-8.626013660574245,-9.41695558993888
2025-12-12 20:53:14.460902,Right,-14.941984516459343,-7.865900398584927,-6.489615625669103,-16.429400932414865,35.925852002124884,-21.09960775790023,-10.405429388647462,-10.58378452639954
2025-12-12 20:53:14.465911,Right,-7.276243564727338,0.8713882861775346,1.5154942682493129,-21.684270099907735,-22.36061073156816,-12.493000116002804,-3.227815278885828,-2.2185328957421007
2025-12-12 20:53:14.468870,Right,-4.527372834756534,3.615654430559516,3.252081630347675,-21.202310998462053,-50.72942908103141,-11.95139857416143,-1.694486162472458,-1.9953937905811472
2025-12-12 20:53:14.471894,Right,-11.307232576886236,-3.614081952833658,-4.76077180269931,-16.93647359398892,3.501135323822382,-22.243777062329173,-9.022990552228293,-11.517060049885913
2025-12-12 20:53:14.474959,Right,-11.831055161484983,-4.2953627841270645,-5.531392093900649,-15.931295095462701,36.60311670249939,-24.489780607156717,-10.433074388787645,-11.945043394214736
2025-12-12 20:53:14.479961,Right,-1.3745043399976566,6.40936919322121,5.503246187585319,-17.541025934180652,-17.44145732880861,-13.418147432799742,-1.3419726450083544,0.30891849046747666
2025-12-12 20:53:14.483985,Right,2.009345504025987,10.535103273672576,9.755992843885906,-16.166115702810202,-63.24212943475868,-8.041526903907652,3.0507773380959406,5.193598493980971
2025-12-12 20:53:14.491025,Right,-10.471614414589567,-0.5971946254030627,-1.5433320105803432,-13.22830226721635,-22.20466377953926,-17.33046233163259,-4.652412392668339,-5.197606395136972
2025-12-12 20:53:14.494013,Right,-21.015350602607214,-9.978014259286283,-11.040941771621874,-14.8765749250706,20.814797565051776,-24.293964713724563,-10.290009540811297,-12.401465961927897
2025-12-12 20:53:14.498024,Right,-15.505951524168267,-4.756858069602458,-5.909232090052683,-19.252584090892924,-23.28624883390148,-17.269029785195016,-3.6821810682013165,-4.908131325664726
2025-12-12 20:53:14.501066,Right,-7.300739595511914,1.8270123271431657,0.24199922959087417,-18.410923035691667,-80.4471232054384,-10.426362438371143,3.234184303208167,2.084216167939303
2025-12-12 20:53:14.504064,Right,-11.902184018481421,-4.104200093632244,-6.477081513097801,-12.839167843263567,-50.856288722963654,-16.542829303674807,-1.4185139865294332,-4.231317801575642
2025-12-12 20:53:14.507068,Right,-19.34698129901335,-11.54745154684133,-14.731867823473294,-11.082553247772012,5.45633794778405,-23.03477608245703,-7.796208184739953,-10.662024247747468
2025-12-12 20:53:14.512086,Right,-14.2292644719073,-5.753847510644846,-9.701996852469165,-14.140602339670295,-18.639163460504278,-15.45508616389634,-2.797295992331783,-3.2094050752384646
2025-12-12 20:53:14.516096,Right,-4.7118086088121345,4.005594186153758,-0.8697292087417736,-13.58289455015256,-77.398661164445,-4.529555942652223,5.715830632932921,6.3495238227369555
2025-12-12 20:53:14.520116,Right,-6.361647724284921,2.0455850931793975,-3.950594977261062,-7.075692291273299,-58.576807435880255,-6.153240388566701,3.933852395193753,2.3732303458382376
2025-12-12 20:53:14.524113,Right,-12.157807448100357,-4.087182075720193,-11.278371490199788,-2.688141516313408,5.680150916890852,-11.738160300306845,-1.8713629934445635,-5.314027549309685
2025-12-12 20:53:14.529127,Right,-6.198309548198267,1.5820864170927962,-7.031548193277558,-4.596561421618389,-2.0942168302026403,-5.155131177152725,2.210954959726223,-0.3380044022233051
2025-12-12 20:53:14.532129,Right,4.367198554977222,11.71735972748138,1.2876119203792769,-6.638870292385036,-65.49332702545689,5.270949837333319,9.981243468379034,8.318929691253288
2025-12-12 20:53:14.537137,Right,0.9939740012323455,8.080555340475257,-4.059881143584789,-4.246852390617278,-64.56064499123022,1.2031675932503276,5.773157579622421,2.581955155412288
2025-12-12 20:53:14.540148,Right,-11.24019780827166,-3.9897477371450805,-17.00593945367291,-2.0313458930977504,0.6047025730531459,-10.83939244033354,-5.466186300966001,-10.028160517525976
2025-12-12 20:53:14.545102,Right,-11.476772873823393,-4.291893186740708,-17.54205282535986,-4.018249632728839,10.597847078601262,-10.27414964135096,-5.96901033258473,-9.150955923636502
2025-12-12 20:53:14.549167,Right,-0.12829780281026615,5.865679536334937,-7.937359678267967,-5.298810007519933,-50.289085336524295,0.46169819740680396,3.0390775834857777,1.5848073911038227
2025-12-12 20:53:14.553176,Right,3.17326631556989,7.055801485586926,-8.000883711472852,-0.7174016073549865,-65.8345012995942,1.3024340531128473,4.465383488235602,2.1585319961595815
2025-12-12 20:53:14.556182,Right,-4.344471897156836,-2.417815907536351,-18.820957823067147,4.963125399610362,-5.928447019401574,-8.538472241832096,-3.497524523512766,-7.124464753338543
2025-12-12 20:53:14.559190,Right,-5.392265840780965,-4.706232203159743,-22.0550752358904,4.570780473406558,17.7098921488232,-10.648611308526597,-5.852080985567227,-8.02050543842779
2025-12-12 20:53:14.563226,Right,3.85222648695526,3.850957512451714,-14.448838539523422,1.0069385404058266,-38.27704382644697,-2.2907321411921657,0.5232652055547078,0.6601799682503042
2025-12-12 20:53:14.568231,Right,6.972468187662798,6.817903722949268,-13.002974223869387,1.7629435449325683,-67.02565587245772,-0.14860612250413396,2.290305127400643,1.4786344587955682
2025-12-12 20:53:14.572226,Right,-0.8504211690687953,-0.6038720912929421,-22.35038178791001,5.252956961199743,-11.714988735660882,-7.296531396742012,-3.645414115910171,-7.778271077109821
2025-12-12 20:53:14.576188,Right,-3.028240201939525,-2.5455760473705595,-26.04128367967496,4.4410191222305,27.158902197221323,-6.615761130866758,-3.5577510123603133,-9.018171665549744
2025-12-12 20:53:14.580265,Right,7.009240803911553,6.564010895875981,-18.186215823669045,0.6926511385727281,-20.399102831916935,6.216260475017862,6.342344723390852,2.0758974579293863
2025-12-12 20:53:14.583220,Right,12.486930964473459,10.010949107274428,-15.424027388115064,1.6558168836354525,-61.9333597244713,12.458956128722775,10.593249655856198,6.804153143779331
2025-12-12 20:53:14.587275,Right,4.620187313016245,0.24851040358043974,-25.203027968658716,7.640103754036318,-14.639757408758669,4.206407134514734,2.496172869372458,-1.8597571438331215
2025-12-12 20:53:14.591286,Right,0.09274836129782216,-5.044393878974006,-29.98748448421975,11.740245432883967,39.25984980365229,-0.01848949138705791,-2.0042553246548778,-5.126279497544601
2025-12-12 20:53:14.595504,Right,10.682218874838895,5.708456391561413,-18.916144386079395,12.335247412205717,4.736408871022832,11.52313197577655,7.891591621979387,7.298699022223445
2025-12-12 20:53:14.600333,Right,21.24549166413999,16.693731344725165,-8.506430093933886,14.78988490215579,-49.70741210250981,22.584064272831938,18.69068503345443,17.85583481861977
2025-12-12 20:53:14.604394,Right,17.21638109821606,13.186627104603758,-13.232278310402762,20.230818051109964,-19.90286215758988,18.661113135338837,17.057757360991673,12.989276252648779
2025-12-12 20:53:14.608298,Right,10.662159952736147,7.352278158128684,-19.987648978072684,22.811033937089633,41.034349668595496,12.1731909185537,12.567665666359972,7.099723162013106
2025-12-12 20:53:14.611373,Right,17.17204576825452,14.525052047722056,-13.100908024869568,20.674971293606177,23.297267848005504,17.487194141390773,17.98245590627448,14.829742054071176
2025-12-12 20:53:14.615381,Right,26.605439711829604,24.269238260705606,-3.6315500636555953,19.474249742125266,-35.586471484312824,23.492418229091527,24.77236212861044,23.661740172849022
2025-12-12 20:53:14.619389,Right,21.01346532765683,18.818159411468514,-9.81045089813415,20.582971993191222,-24.252871827538513,14.392739661045198,18.617714049660208,16.81009734104009
2025-12-12 20:53:14.623411,Right,6.397690086887906,4.412917080211628,-24.94987867771124,16.535293998315638,31.569301477857607,-0.4915807426796164,5.5028859391313745,3.331292991359078
2025-12-12 20:53:14.629426,Right,1.089173891142309,-0.8973376937337889,-30.39252012345969,4.5497221703067225,17.68292562335455,-3.009174560434076,0.8415819378360538,0.8282284958713717
2025-12-12 20:53:14.632435,Right,3.67808195285852,1.1694508768214291,-27.961781242498546,-6.093319195126583,-51.0308083847558,1.8194718243157695,2.5909391984241665,4.196274501206062
2025-12-12 20:53:14.637448,Right,-0.24739555608812225,-3.398986728874661,-32.14109927885147,-7.334368243948518,-53.42853605247137,-2.5797137893459876,-1.7326935258852245,-1.5513266277594084
2025-12-12 20:53:14.640473,Right,-6.955497804418883,-10.310102105086116,-38.79328863189585,-3.084201606187108,14.18882860381018,-11.270901401276205,-8.312810709831865,-9.772796749366535
2025-12-12 20:53:14.646488,Right,0.3284350266922047,-3.06960503580558,-31.511634418820904,0.37079390813488544,30.378232471002775,-6.19569786754073,-2.6216605323788826,-3.1289677844106336
2025-12-12 20:53:14.649496,Right,18.175959581505595,14.219976192578542,-14.796523656077625,5.083199948174979,-27.701160576931215,8.796996508119264,11.865031028595695,12.192862506208257
2025-12-12 20:53:14.652544,Right,24.625524933766428,19.773467895494832,-10.47367898230732,13.835177819110868,-44.76337546481409,12.095139242564983,16.350185721249545,13.987522910283587
2025-12-12 20:53:14.656522,Right,15.864014830991437,10.662262077166815,-20.599450955938664,20.88110409296405,16.097833391863787,1.908579418040972,8.405678820684443,2.3406359725395305
2025-12-12 20:53:14.660541,Right,12.070540759216783,7.314590063455398,-23.899242032253824,20.799761274190132,45.5883194168382,-0.9173443621439219,5.612828546756646,-0.6090518945075019
2025-12-12 20:53:14.663551,Right,20.80751518633315,16.622150054375197,-13.655066893363255,18.6201794834501,-5.373550349111611,9.425924342627695,13.644192588879378,9.815607655151325
2025-12-12 20:53:14.667570,Right,24.4640241002935,20.591351928699623,-8.44711529326014,20.969765394464503,-32.52155929644505,14.474801907885194,16.82290655428369,13.78283251402172
2025-12-12 20:53:14.671554,Right,14.57629693211311,11.087610702164056,-16.493897131629637,24.498530673383357,25.93473955996342,7.166937325766412,8.387192896117085,5.005117905242514
2025-12-12 20:53:14.675552,Right,8.494406767568762,5.338111128786295,-20.538926145003643,22.77429564585327,70.80219600812597,5.097157154312299,3.61745174828593,2.547402491331013
2025-12-12 20:53:14.679547,Right,17.21811327084106,13.5345519442144,-10.894132539164275,18.675957394986654,24.206566136768743,16.934729898608566,11.490915277415297,14.534146037540268
2025-12-12 20:53:14.683589,Right,24.984990100867435,19.92380053155466,-3.7615631770604523,19.537914917576018,-26.483350532058466,25.655472681746687,18.320099236721035,22.512423152958945
2025-12-12 20:53:14.688613,Right,17.867897556825483,11.611860638576218,-11.552377002619323,22.957628890329943,8.590387833730347,19.15849408777831,12.567640259901054,14.871350979274212
2025-12-12 20:53:14.691615,Right,7.497004518585527,0.5122800663675662,-21.455118580459384,19.24581756828684,56.46135783574573,10.643424679386953,3.752579708126177,6.026538533569692
2025-12-12 20:53:14.696636,Right,7.903080600312023,-0.10474636666913284,-20.101575157146726,8.353009481686058,20.710813446867178,12.616040617092949,2.7722595007553537,7.869246719536022
2025-12-12 20:53:14.699662,Right,10.357668103119067,1.1297852077368589,-16.772518765596033,1.2860541274176285,-36.820567754057265,14.467864159229066,2.518133963711989,8.73191974891779
2025-12-12 20:53:14.703665,Right,2.0849427163993823,-7.0814402567330035,-23.129252290847944,2.382090383492141,-11.433503502135864,4.873043549308932,-5.735294054754377,-1.8698605841436802
2025-12-12 20:53:14.707623,Right,-7.741655277584869,-14.794019234836014,-29.283722241227224,3.920200891704553,48.97502555850588,-4.107843927125941,-12.509555523734889,-10.589731149491854
2025-12-12 20:53:14.713702,Right,-4.314312507440263,-8.54058364118373,-22.38164353329921,1.5216346911010987,34.64035563215657,2.158750287264411,-5.883134526057802,-3.5663413958009187
2025-12-12 20:53:14.717721,Right,4.389247665838411,1.7724685229686656,-13.275356404890772,0.7424116238344141,-19.17660728542978,12.864522461371962,5.182705430867827,6.605323942631003
2025-12-12 20:53:14.720788,Right,1.2409520506462286,-1.3957095467940235,-19.499184041771514,3.9021590998363536,2.327028583858919,9.696314429045742,4.448280445695673,1.5467967460863292
2025-12-12 20:53:14.723765,Right,-8.087093311904027,-11.555750719802745,-33.307226018943766,4.3993428953599505,76.44131106856366,-0.4738703784678364,-3.7573098663447126,-10.355392906147245
2025-12-12 20:53:14.727759,Right,-4.635718877865656,-9.32341065005221,-34.04838291394117,-0.07220403994233493,80.76328388106049,2.1113016499257355,-3.158952693480842,-9.12958040916601
2025-12-12 20:53:14.731707,Right,8.779386669059022,2.4063085270772717,-24.319515786279226,-1.66121603465308,17.956037767657108,14.983093886043207,4.514101910811405,0.7063872075268591
2025-12-12 20:53:14.736778,Right,11.76882777906394,3.62562686945148,-24.280707090969372,3.7936119886962842,9.390200580462988,19.527271716269752,3.218070654305393,-0.8571355188569214
2025-12-12 20:53:14.740786,Right,2.8474766287854436,-6.622052061463364,-34.68732599061332,8.79390603137108,69.45965845109822,16.027482899746246,-7.057162884974787,-12.101664163057649
2025-12-12 20:53:14.743791,Right,0.9916138717562717,-9.727028316009637,-36.7665240292481,7.343402326772775,81.1765869025221,22.13666082722557,-9.926330428401798,-13.190464754259665
2025-12-12 20:53:14.747807,Right,10.122486328000377,-2.6722117350345798,-28.168881248879188,5.248582289694241,17.097034181315394,38.362346530819195,-2.857124830189605,-3.3553135539468713
2025-12-12 20:53:14.750836,Right,13.211421052432343,-2.6123352279018945,-27.08514479571022,8.846282351310947,-8.629687488777563,46.60625954323041,-1.1221615302515602,-1.6464459794806316
2025-12-12 20:53:14.755858,Right,5.79627160822929,-13.23810493387009,-37.42167587590666,13.193916044455364,46.062184422400605,44.57175296081914,-8.542270683367406,-10.42743075819726
2025-12-12 20:53:14.759803,Right,4.597353167599067,-17.37834301433668,-41.49376718488929,11.308197923032822,72.79901747440454,49.850477532691,-10.83307984208568,-11.22459999421244
2025-12-12 20:53:14.763855,Right,15.316430896378733,-9.537805941457009,-33.72177783861116,7.198873785140677,16.585398791452462,65.18964956896525,-3.629228247383253,-0.4913819493522169
2025-12-12 20:53:14.767890,Right,20.905327874063005,-6.510261161950439,-31.34908691815508,8.551790891498968,-20.183887036888336,70.74417047060706,-1.6702294465380874,2.710008947624374
2025-12-12 20:53:14.771901,Right,13.205593258928275,-15.47814343069058,-41.500904776126845,12.776862762953897,31.20769556597952,59.62207460893114,-11.072030722701129,-7.69794971844658
2025-12-12 20:53:14.776906,Right,9.05233254293853,-19.28524140895388,-46.1695866542359,12.357132655753958,76.57813010663813,51.66971702000956,-16.30798792638052,-12.165563728694906
2025-12-12 20:53:14.780883,Right,19.473542582816663,-7.864689068684129,-34.60245981369371,8.979008264601362,33.29978749896691,58.87727719853865,-7.62752406104164,-0.5104648129863563
2025-12-12 20:53:14.784933,Right,28.85980351021135,2.2118672984533987,-23.568936062583816,10.033502456948554,-17.09763192536775,65.3156618603025,1.1526119545414986,9.62650065759226
2025-12-12 20:53:14.788969,Right,23.444509032835413,-2.7157961644461466,-27.371652785484912,14.502676443191376,17.57942495217503,57.972207900056674,-2.243686923234236,4.9828414748308205
2025-12-12 20:53:14.791981,Right,16.055721978356814,-9.329462503236755,-33.118548230115266,14.76143497447265,68.50034907186273,50.44883610285251,-7.087706956766851,-0.4187807101334329
2025-12-12 20:53:14.796960,Right,21.559545184165472,-2.822857712437326,-26.273298340427573,11.057575358154281,36.43811772398112,56.18044503717101,-0.9415563072875557,6.793622511219837
2025-12-12 20:53:14.802028,Right,29.55269174690511,6.103896067997084,-17.86601317138411,11.391117651581226,-20.89750490294682,62.47666007444059,6.824543917748315,13.994979065968437
2025-12-12 20:53:14.805063,Right,24.92026362386241,2.4214116479570293,-22.959908852186345,16.515274371833584,3.9320159914859687,54.22133768656931,2.9275340616864014,7.0869286535398714
2025-12-12 20:53:14.808006,Right,16.832393166430847,-4.424879986190717,-31.509150496145594,18.009603144646462,66.46733368893547,42.55830329926903,-4.668581657643699,-2.0173099580297276
2025-12-12 20:53:14.811014,Right,21.40251211773284,1.6933142526168012,-26.621434647437127,13.412638336172677,51.895255800201994,44.43961955094346,-1.7145146029056377,2.7242721859338417
2025-12-12 20:53:14.815010,Right,31.00945823738948,12.999123088038232,-15.85066442554671,10.857824676349992,-11.703818270787451,51.417615101265255,5.792316158971516,11.425554675136482
2025-12-12 20:53:14.820038,Right,28.321086060577727,12.04169219960886,-16.90712810149853,14.656425079494511,-6.464012133834331,46.12629533656218,3.5832639819759606,6.874889147786234
2025-12-12 20:53:14.824040,Right,18.971364211054606,4.016100392646422,-24.86638249184034,18.14504173302521,55.466659423185774,35.10210556522361,-3.3197704272166675,-3.0459781701247266
2025-12-12 20:53:14.828079,Right,21.44962855645099,6.671555062765492,-22.272044663244742,16.537325056076952,55.9520013769652,36.15677603531367,0.2758602054053654,-0.006102397282120364
2025-12-12 20:53:14.831074,Right,32.18307258893947,16.631645191678217,-12.857691001947387,15.350849618640495,-7.330102744203032,44.04869777349086,10.76130250548374,10.492789102218921
2025-12-12 20:53:14.835085,Right,31.367290840094938,15.763677466617082,-14.61221679495793,19.465872355979627,-16.628115911131317,39.8514321527291,11.91972923201439,9.798950351172607
2025-12-12 20:53:14.839100,Right,19.464198861534896,5.946755840439437,-24.835782549555006,24.167156243392128,44.89478809999491,27.174723297830496,5.335149451367101,1.621112311782781
2025-12-12 20:53:14.843111,Right,15.834825508680296,5.860827220596548,-24.300818618292396,24.040151520147447,60.7487251459861,26.12607620138442,7.307791507026963,4.842256709657704
2025-12-12 20:53:14.847080,Right,22.250194876465685,15.107261906197664,-13.78506109269074,22.273129821746807,-2.025577695832908,35.207451411864895,17.433388873194033,16.753678551432586
2025-12-12 20:53:14.852129,Right,20.01614327416246,13.512886371541072,-13.94676214842184,23.282772924202618,-32.44654823946621,32.54821495260694,17.955293065053148,16.296964487841706
2025-12-12 20:53:14.856152,Right,5.503979247112511,-2.194281473126921,-27.795276528369868,22.77917234589313,15.987792826486839,14.751753255501171,5.614175803913298,2.250235694764342
2025-12-12 20:53:14.860183,Right,-2.578991794423928,-11.88214646184133,-34.889743048021046,14.7278820625761,38.92840462103413,2.445266368733428,-2.5403730151637376,-4.325414099952013
2025-12-12 20:53:14.864192,Right,3.0659904882068076,-7.007029464217794,-27.361349240083655,3.839086074329316,-21.112153303642117,4.003477658055999,0.9064370263344017,2.345154695450674
2025-12-12 20:53:14.868270,Right,6.358198775435994,-2.9005621481308026,-21.663140340599057,0.263492817191036,-63.578463564783306,4.312928171735621,3.1928532309534603,4.476744554754532
2025-12-12 20:53:14.873211,Right,-1.77181525818105,-8.4023325083283,-26.882195293605037,3.982016868689243,-15.193886522600224,-3.979506985131593,-2.852810713830195,-4.905411128511332
2025-12-12 20:53:14.877215,Right,-7.76048867350346,-10.72566711478703,-29.551636237098137,6.065120710590236,32.98583295277058,-7.264736482158696,-6.166469878814041,-9.78885086496257
2025-12-12 20:53:14.881240,Right,-2.3449804460205996,-2.1633387569879687,-21.415811038052198,4.2924183169352546,-7.007051524920826,0.6745597347635339,-0.07608805407141972,-2.351893220950842
2025-12-12 20:53:14.885268,Right,1.0295322958090765,3.017488923277483,-16.677594501401472,4.566474221244789,-59.35950493544078,3.8398337650796748,3.7253508326843985,1.7913361300184079
2025-12-12 20:53:14.889263,Right,-8.786286873025347,-5.598554351668895,-25.62622488658235,7.2383851394306475,-28.53264970993041,-7.6841317757080105,-3.090886503382194,-7.080092073976175
2025-12-12 20:53:14.892272,Right,-18.59466809634887,-13.866585313205974,-33.88794906224939,5.798365739508881,22.748642649185058,-18.247951108900452,-8.689792411685175,-13.932972560781764
2025-12-12 20:53:14.895274,Right,-13.954115070736407,-7.701056899747755,-27.580745904408104,0.14792168207168288,-6.102229788906698,-13.86573377478635,-2.219514970902992,-6.9394757331710935
2025-12-12 20:53:14.899309,Right,-5.365708712367905,1.5480269509470759,-18.4445202140123,-1.7178577793965815,-62.219650956110854,-7.1705788128165295,5.490757641011669,-0.35042013378051706
2025-12-12 20:53:14.903244,Right,-8.526666308775475,-1.5566843803296138,-21.43156071181511,2.4705418348949024,-37.03367948617961,-13.43134181779078,1.3309338436158669,-8.13450143762293
