timestamp,label,FC3,C3,CP3,Cz,FCz,FC4,C4,CP4
2025-12-12 18:14:31.755317,Right,1029.0142988251425,1595.6982056088418,1558.7039595237584,1199.5488855818467,332.04717434205736,1090.1740803030316,1375.18729460177,1648.5435134761835
2025-12-12 18:14:31.771349,Right,5527.249408212392,8577.614286220147,8379.609350577708,6446.632096476929,1822.0552922093402,5856.836707789199,7389.96003337259,8863.532392743831
2025-12-12 18:14:31.775320,Right,12615.95866302176,19601.938155368596,19151.818970494238,14724.987958045836,4291.296763152661,13371.749390795394,16879.998993056288,20260.71179059701
2025-12-12 18:14:31.778386,Right,15695.648364021483,24430.79895388453,23873.026898273223,18334.995021762843,5563.179504779942,16641.379832357576,21024.332368324187,25259.28801820335
2025-12-12 18:14:31.781374,Right,10579.991542076375,16506.131882958136,16131.6490497544,12364.44049359622,3884.029579700231,11219.686983515607,14192.195396505755,17069.32801779711
2025-12-12 18:14:31.785335,Right,1248.9499050567465,1948.6678839517408,1907.711791634094,1441.8246475468477,284.01578535973385,1318.1316771302372,1671.5482824702194,2013.4017447202496
2025-12-12 18:14:31.789397,Right,-5733.176056373311,-8984.26901194005,-8770.495939323882,-6733.370701107182,-2596.8600157087494,-6093.147823393636,-7722.897285764018,-9288.368760041893
2025-12-12 18:14:31.793354,Right,-7575.379607143113,-11841.70191237863,-11554.848411151208,-8864.681365928234,-3152.5823532665017,-8040.03275347891,-10187.0727642813,-12226.486900733202
2025-12-12 18:14:31.798424,Right,-5534.256973365351,-8594.665851589292,-8381.28058332525,-6448.8535728997085,-1993.9666695762571,-5862.624946572352,-7407.867867043737,-8859.439429630118
2025-12-12 18:14:31.801435,Right,-2422.3205764099257,-3736.3922211292665,-3641.6372906145407,-2819.190643898968,-813.131847528115,-2562.009458983579,-3223.5681427436066,-3847.923288838647
2025-12-12 18:14:31.805446,Right,-622.5521132033609,-987.5212636048091,-959.8259833831689,-742.3156624691328,-468.29859974402643,-662.919043602189,-842.2606450048042,-1020.1632098412956
2025-12-12 18:14:31.809466,Right,-971.6759281745763,-1545.1743772310438,-1500.3546215686947,-1147.085950563196,-623.9632374554203,-1034.7918994471547,-1323.823556616786,-1593.4531021438888
2025-12-12 18:14:31.813475,Right,-2474.145075003151,-3837.851867716294,-3737.2483699424192,-2880.014068923134,-848.9858558814303,-2621.281907738128,-3312.7473385866615,-3955.4366899888846
2025-12-12 18:14:31.817422,Right,-3368.231989002612,-5221.703730520676,-5093.331571181538,-3929.5970170243527,-1114.5215816800192,-3570.489757841802,-4503.204740255373,-5392.029431440518
2025-12-12 18:14:31.821483,Right,-2895.792594768631,-4541.598688895581,-4431.776410629624,-3402.872149149305,-1257.628928098653,-3079.5970295207226,-3901.1264326319215,-4698.334858605871
2025-12-12 18:14:31.826523,Right,-1875.8273829555255,-2969.374615391833,-2891.678049021284,-2207.6027454819996,-954.5334799343982,-2000.0799306791741,-2546.7126487530186,-3066.682547860313
2025-12-12 18:14:31.829508,Right,-1469.2893119653454,-2274.8241890446516,-2210.781527859741,-1703.005006606225,-444.6392357219738,-1559.7867564627668,-1966.8747906078934,-2337.4596321317367
2025-12-12 18:14:31.833573,Right,-1818.4415927220252,-2785.233656203025,-2715.9283200378995,-2107.6861703317263,-409.3123355814314,-1926.4255714465398,-2410.7884576885263,-2871.0711308299797
2025-12-12 18:14:31.837591,Right,-2180.305927473353,-3400.851228271262,-3324.119121876196,-2558.4760103813023,-857.7786029974959,-2317.5193775717053,-2923.4471684896853,-3522.3721306850202
2025-12-12 18:14:31.841574,Right,-2027.7794579683687,-3202.118545125588,-3127.756079114508,-2386.7559718292905,-989.2572967967717,-2158.173486854881,-2745.6525937421247,-3316.38429428183
2025-12-12 18:14:31.845520,Right,-1577.7391258118441,-2453.5086995402817,-2392.1086030461593,-1833.4211114636855,-502.8245254895446,-1671.8491953502526,-2118.7158575664507,-2530.7087068718392
2025-12-12 18:14:31.849581,Right,-1338.4019467925536,-2034.6460780075286,-1986.761334972689,-1544.1268213540898,-144.83977206677082,-1413.765316924546,-1769.0395425024908,-2099.3297279439867
2025-12-12 18:14:31.853571,Right,-1479.3252427757252,-2296.4536211068043,-2249.171470511239,-1737.1371003926615,-451.2154470630485,-1572.5382572566741,-1979.5625067913206,-2383.832538761082
2025-12-12 18:14:31.856579,Right,-1704.3411643722793,-2702.509977028938,-2644.277682202286,-2016.4149923657533,-827.3941314943222,-1817.4357379930443,-2315.5172627161955,-2804.3301329108654
2025-12-12 18:14:31.861588,Right,-1620.1140505506773,-2541.556616609567,-2481.0449347260874,-1893.4309698860743,-581.2112255163229,-1718.4255919650313,-2187.343108250061,-2623.0196559032192
2025-12-12 18:14:31.865615,Right,-1208.5280564642744,-1843.635392041877,-1800.5348749653203,-1391.5772353748907,-100.79264932016667,-1271.0362349993084,-1598.2009885036387,-1896.6501775991637
2025-12-12 18:14:31.869613,Right,-900.7477982485434,-1385.329035689705,-1359.6412948709913,-1050.2249360954156,-139.74978494276002,-949.2466393229552,-1192.3578863202129,-1435.6630614510505
2025-12-12 18:14:31.873633,Right,-1049.985249364283,-1675.540946320747,-1643.8511852382217,-1244.772542224091,-525.7641362928262,-1117.4344879644923,-1427.8173615853302,-1742.7336291280808
2025-12-12 18:14:31.877626,Right,-1393.5399948521517,-2198.479143883218,-2149.165365671739,-1629.7055060139974,-540.2314852792624,-1479.7144353500917,-1887.07705457462,-2273.4233623845503
2025-12-12 18:14:31.881662,Right,-1342.672269304574,-2064.375933630625,-2017.3359716683626,-1549.2737725321786,-181.2900060818647,-1418.247182264924,-1787.4078890789533,-2127.9958738797577
2025-12-12 18:14:31.884666,Right,-840.1538353965152,-1290.730803798302,-1266.5268305850914,-978.098829540424,-62.71209041291149,-888.2494627590058,-1114.910270790686,-1336.8115495102247
2025-12-12 18:14:31.888680,Right,-513.9791166131618,-838.8346137288027,-825.0122727942653,-621.8992874503019,-279.93032464556745,-550.3419850587379,-710.0030183070339,-875.0563071566867
2025-12-12 18:14:31.893694,Right,-770.0400410598959,-1230.7628245570231,-1200.842468486051,-908.6430419700337,-338.9283822841535,-819.2194035096909,-1053.075470735901,-1268.9932087719208
2025-12-12 18:14:31.897690,Right,-1158.3263085212093,-1768.422698727576,-1723.3394258150365,-1333.4383534043445,-129.55405702984717,-1221.9324623219436,-1534.9378225744586,-1815.1663684586529
2025-12-12 18:14:31.901732,Right,-1039.0788937289617,-1567.0589704104932,-1532.2732338383794,-1197.3120279949508,-56.33361212960153,-1096.0880104454118,-1361.953062942659,-1615.4523716103286
2025-12-12 18:14:31.905740,Right,-546.5890059317462,-850.9238888595719,-836.2800278206123,-643.8746019341052,-188.28874551135232,-580.9056972310063,-729.734299437725,-885.5556993894279
2025-12-12 18:14:31.908749,Right,-350.03077472239966,-558.1026738570072,-546.1222665274981,-407.670644168742,-146.14754947039182,-368.9754936033278,-475.80193558812607,-576.0612946908223
2025-12-12 18:14:31.912786,Right,-619.5770665863529,-929.2827240866609,-905.9618794214912,-697.2662927075289,85.36400420567952,-642.538751754153,-807.7099976032041,-948.8520396901295
2025-12-12 18:14:31.916761,Right,-828.8758009812445,-1244.7103531770408,-1218.8641363515635,-946.5861054413253,75.69051517504704,-862.6791319894255,-1077.607720259868,-1280.608593357727
2025-12-12 18:14:31.921773,Right,-615.8640453631524,-971.5449929323513,-955.9981686148676,-727.238334465248,-186.62389804895065,-647.6520247745211,-825.8823857944808,-1010.4247916145832
2025-12-12 18:14:31.925766,Right,-279.5338116165367,-472.820259278873,-465.2274627520237,-336.48907800670713,-186.81903455249267,-295.3311264248914,-395.1883070304757,-492.2016313250642
2025-12-12 18:14:31.929782,Right,-230.1544424991007,-341.3306973677245,-333.5390798978042,-251.04869153053733,153.6314542546752,-234.61237977608107,-299.92175402800785,-346.38925281976117
2025-12-12 18:14:31.933823,Right,-396.91767411737237,-566.02683869662,-557.8649347953615,-439.74423405638663,256.1023039164502,-407.1149506372749,-498.489615082799,-583.0768229553942
2025-12-12 18:14:31.936803,Right,-459.29314717874513,-709.4426839980879,-703.4297652948298,-537.58434113767,-74.83922932725545,-480.39440485765226,-604.462214713858,-743.5527648832067
2025-12-12 18:14:31.940827,Right,-344.9963470627845,-568.5065517654875,-562.7648416392622,-410.6395222887513,-242.6555081340848,-362.69310029092594,-474.3728271747823,-594.8964059849386
2025-12-12 18:14:31.944847,Right,-209.10497201693943,-311.61234061652794,-306.673649132892,-225.98181169561576,89.5345419204059,-210.78137093156693,-268.73799652955495,-316.0441985555808
2025-12-12 18:14:31.948855,Right,-136.1297303052561,-153.21302554034628,-154.83265711332206,-131.89823697315296,368.09563809592873,-129.99347107252106,-143.91084111848613,-154.70766831800574
2025-12-12 18:14:31.953857,Right,-115.08767305428046,-162.27655590808718,-169.71384711319115,-136.5611582302372,124.91739097964819,-118.85805077967234,-139.78493646642892,-181.9909682162688
2025-12-12 18:14:31.957869,Right,-149.18370467811474,-271.5443622756284,-274.5996312869247,-194.99887411951204,-184.4462093148668,-165.346985970682,-223.17425923372502,-301.18719164829236
2025-12-12 18:14:31.961920,Right,-188.74916113726795,-304.1755572811817,-299.9367236328835,-218.65256405170658,-3.7675818464795157,-202.7445016965794,-263.7486090095481,-323.3862271387479
2025-12-12 18:14:31.964917,Right,-111.78637935643201,-125.1320986849314,-125.16734077673755,-107.5686224605306,335.4385695409819,-113.78162235865602,-123.24797817270155,-133.0625732053304
2025-12-12 18:14:31.968922,Right,59.916825011750916,126.04939976680907,114.82199366940768,76.38820616458543,242.6093686751692,63.22155766937067,102.906179265643,116.63098801951855
2025-12-12 18:14:31.972915,Right,111.14468208282779,151.89959631013335,140.43829531097435,117.2387396387785,-65.9851508474676,109.66068049069145,140.14734690182377,139.51030653572525
2025-12-12 18:14:31.976949,Right,-27.763301290178788,-50.484308591869194,-51.59229705124744,-27.636395878667827,-3.0765201259218884,-32.461098419677,-40.6470781461685,-57.60956884160987
2025-12-12 18:14:31.980938,Right,-109.4101832955057,-121.37658224167535,-121.0521684671694,-100.07043905727915,304.7086307221289,-108.452580392448,-114.9243364479189,-123.70682374607713
2025-12-12 18:14:31.985937,Right,50.06596955414716,118.92823628833867,106.74587563847308,72.73904874819709,287.9040326089671,59.93486240843049,99.68406683428475,114.64914077882713
2025-12-12 18:14:31.989945,Right,243.00394624992623,361.9656498923723,341.9052462565087,274.32042469664157,8.166044085483009,257.7866619968554,325.4507046980434,358.508998329773
2025-12-12 18:14:31.992970,Right,196.8380847639237,293.6026594187206,280.303792304956,231.79141244429047,19.80151959237992,212.70987419289304,262.21064105068217,298.56702227822825
2025-12-12 18:14:31.996984,Right,30.485177319171783,97.48389790128294,90.56480380998869,63.445680306800114,311.8800243596779,46.48407284605378,76.34834939503253,106.43413670605105
2025-12-12 18:14:32.001002,Right,50.32073845989726,137.16414930911924,123.87542005461728,78.56163704564824,334.7348599171237,65.66842854414426,112.19553053303753,139.43016314552005
2025-12-12 18:14:32.005005,Right,235.46722758248507,364.20210621960723,343.1894045656445,267.0400461510435,48.320149956736714,249.6099831124011,324.49624857705203,362.8215720519147
2025-12-12 18:14:32.009022,Right,303.0518345784003,448.68435469259566,431.3543036711344,348.98437204890797,3.258262314448075,317.5225245856418,397.74286754684,455.9499651616934
2025-12-12 18:14:32.014026,Right,208.5486751862918,352.5502611189877,341.36866527286475,264.5904897897708,296.6109723911359,224.88473224223708,298.6592935981025,367.1137453350093
2025-12-12 18:14:32.018037,Right,185.21546822400705,335.21573180452106,320.0569794553885,234.81009749033547,375.29085987171857,201.90458900778322,281.54706266980793,343.12463655447937
2025-12-12 18:14:32.021037,Right,295.9279544020974,452.86421968668583,431.05092630692525,334.29946776959696,72.53223899317527,310.8262604088377,398.69681418608525,452.2804183920671
2025-12-12 18:14:32.025061,Right,341.20466614313773,494.0924105097947,475.3974948837131,381.6490415458684,-65.29031582719472,355.79461546594393,437.74955278416746,499.1747367112548
2025-12-12 18:14:32.029070,Right,261.8075598590658,420.01914961918374,407.45612829591846,313.3727668322681,211.84048345083283,278.91304940142436,357.92617956589675,436.520599446696
2025-12-12 18:14:32.033079,Right,251.53820541515597,439.16391683134134,422.70779279764974,306.17031581507763,391.1387789426226,269.7117676018388,368.25828962988453,455.49594902960234
2025-12-12 18:14:32.037036,Right,371.42396625949186,581.0573987810349,556.9224691289128,420.64704328856897,147.72834155340388,386.4755722754053,504.9015423852834,589.7414227000554
2025-12-12 18:14:32.041099,Right,414.68404822913,608.315575084358,587.4297505282448,463.9201216491638,-57.63855156279169,426.6193543437985,534.984946380253,617.5769453067915
2025-12-12 18:14:32.046144,Right,299.24546708981507,468.667930488009,457.20838257455034,356.03871123312274,157.04302024033677,312.8636950260261,399.1321191340685,484.2426826801384
2025-12-12 18:14:32.049127,Right,248.78375309324474,434.8691235202132,422.2932409211644,310.2847726926266,387.86086930762394,267.015165958961,359.4045886879321,448.2935471550445
2025-12-12 18:14:32.053135,Right,391.92413245601347,622.7141860190313,600.1443777108798,454.26879189384636,209.462080375175,413.1515477031935,534.339585179172,628.682806646626
2025-12-12 18:14:32.057148,Right,505.9941088373307,751.5326909137075,727.5714016197599,573.4460710391868,-31.069676816288847,528.6111868282314,658.3399138916284,760.2895411041682
2025-12-12 18:14:32.061192,Right,399.717323302757,616.8276858325116,602.04615013476,473.5179565958679,124.21413883146306,424.5683711064048,533.6332816971117,636.4078870939557
2025-12-12 18:14:32.065186,Right,260.2805179450661,454.7063702720916,442.9242701189942,330.96595472702757,380.1281182574603,287.617723601521,383.9544038954773,476.03673873783555
2025-12-12 18:14:32.069176,Right,334.58405021810904,546.7604356409865,526.4513735203072,398.08386163250543,248.71744804107584,363.3348102445598,474.56202972494066,560.620890595892
2025-12-12 18:14:32.073204,Right,506.2986503127031,752.4654422668391,726.6537873934722,575.0778840336716,-24.76914873039641,536.9487354346202,665.3054185261135,766.9122541967663
2025-12-12 18:14:32.076150,Right,509.69696549745277,766.8698754960205,746.0056608700543,592.3348813130287,78.39983632916119,542.971606825653,667.8203746139188,791.5522626331076
2025-12-12 18:14:32.081231,Right,380.6714662677259,621.5956170930876,604.5014465071727,462.53550342988456,364.14726056170184,413.25923893396975,526.2332204339909,647.7504467484541
2025-12-12 18:14:32.085248,Right,356.10674021660816,576.3553906563902,554.456332394795,420.0396555782645,279.5376852081972,383.5348145591561,493.69036331312964,591.2792989485315
2025-12-12 18:14:32.089262,Right,452.4602961568162,668.516211058246,643.113306224579,508.933397473651,-39.97187047764601,476.8561678280239,590.0677806328749,679.5179512758041
2025-12-12 18:14:32.093296,Right,485.5830849247868,720.593313270947,699.5137127292692,558.535089462297,-3.9140784402407007,513.899340694421,631.2114629580756,743.5617704221513
2025-12-12 18:14:32.097254,Right,429.69389610772487,691.3157950727036,672.6510222631041,517.3903386901366,328.87506330834003,462.10634066950297,589.0290600332664,722.5510483278194
2025-12-12 18:14:32.101280,Right,426.4109452373232,689.1158260838129,664.8144273665966,502.541050661006,338.18497302041214,453.2581960594398,588.3729878774611,710.7629502229393
2025-12-12 18:14:32.104295,Right,481.23293856182136,709.652548099868,682.3917306991061,536.4197116969153,-15.005507706548087,495.78679413552163,621.7382932832115,719.7654609861784
2025-12-12 18:14:32.109314,Right,467.04804781166604,669.0057675604476,648.6080517075025,523.4157338367077,-105.84453010911238,475.7411949817324,584.9109415614512,683.6394833561499
2025-12-12 18:14:32.113326,Right,406.0934002335416,633.7546750277979,618.2608069715789,482.30008758528857,211.95130515373603,419.96125977288466,535.1616019618232,658.8910945199896
2025-12-12 18:14:32.117322,Right,438.276929563086,713.7518507826608,691.5752507941797,522.7088120069238,344.2874066421791,458.3402534247725,599.6681046996964,737.1458002865547
2025-12-12 18:14:32.121283,Right,519.1028929760214,791.7915924806148,763.0830617552856,591.1418775634957,52.54105928116769,537.778314946685,682.6380850354908,806.3663132711081
2025-12-12 18:14:32.125368,Right,468.7187723935349,685.3344591845525,663.0179370695259,529.0419339928194,-120.9503683229268,483.4339159943047,595.8448725868948,700.34073416912
2025-12-12 18:14:32.129309,Right,331.592333836481,520.8042575558648,507.6247716465732,395.5858209268772,133.37372084015806,348.37796922569396,439.5349336389918,543.3244734844193
2025-12-12 18:14:32.132368,Right,347.7124383748742,581.280353896087,564.3375190976076,420.82085569482297,331.55738780015963,370.72084360796725,486.90158681874163,604.5044628839241
2025-12-12 18:14:32.137375,Right,518.7226029995945,801.8032364299288,775.5245626238175,593.6141443998204,108.61839065406821,543.9454789683223,693.1615801638691,819.760647148476
2025-12-12 18:14:32.141381,Right,560.0257780510583,822.4835895511787,798.8645590406377,630.5058229874703,-114.83279289741768,581.8526758784428,719.308859251556,840.611935757217
2025-12-12 18:14:32.145393,Right,386.4941272015567,589.8311431396287,577.1082479871111,451.6288818483008,63.14575434218568,404.5917635538499,503.7540574679151,611.7689780856017
2025-12-12 18:14:32.149360,Right,283.53707697067875,475.45309768337756,463.6437956910813,344.14670781214954,280.0872085901501,300.59077914460795,393.72179637360387,494.09237952763215
2025-12-12 18:14:32.153427,Right,424.81679511239054,661.4120963943424,640.7678965037921,485.66811574745225,109.94899336220988,442.2171457937802,565.9800835539354,673.4059521374293
2025-12-12 18:14:32.156435,Right,567.5374256288633,831.608912837808,810.3171647679992,635.8371291357325,-129.79326444555772,585.9558229452232,724.7763888888294,846.577552763978
2025-12-12 18:14:32.160413,Right,469.21672966558253,705.5034967435058,694.8268695189618,542.394321020518,13.336635009909514,489.6697662662482,606.0395353928907,729.2480807612883
2025-12-12 18:14:32.164439,Right,298.018549733446,495.8006696293596,490.0408919126494,362.59225439454895,262.3045389654435,320.2105188007117,413.37956551706884,518.325813422678
2025-12-12 18:14:32.169482,Right,326.7703846335062,523.7319567629602,510.7017445892561,379.00887642335147,132.10549882303894,349.63903479091823,447.94343523995485,537.1291681540897
2025-12-12 18:14:32.173486,Right,470.86601285554934,692.300672377809,674.0707751967711,526.7728737518191,-144.66766097598156,495.70182638493134,608.474700913066,706.8408851950662
2025-12-12 18:14:32.177528,Right,470.96446330857,704.0265978580574,690.8456854998367,542.527481347206,-46.948220832920924,499.8106887405738,611.8338497064542,730.7403152434854
2025-12-12 18:14:32.181588,Right,349.20262644434115,571.100239736028,562.0644614979392,422.74801359826233,244.76014597820904,379.399726291711,482.6943724632729,600.6853296200279
2025-12-12 18:14:32.184520,Right,326.47899406478973,528.8128686418058,515.5061193275033,382.58361483563203,170.44843265818054,352.1372030291823,452.28295207966585,546.3706775270402
2025-12-12 18:14:32.188562,Right,408.82212103164056,597.1019508275203,581.1981458603404,454.25602781621274,-156.1619165829543,429.4460285952082,526.8365478561027,607.9977859194623
2025-12-12 18:14:32.192587,Right,413.0539306376595,602.4456144531723,592.4667046896648,470.78712549083866,-140.4532258516192,434.7616034806706,526.5605121863773,622.7770159607753
2025-12-12 18:14:32.196592,Right,332.5597390787443,537.4238415149739,531.2447136742994,404.644226218923,189.54026790722855,357.7884941106313,452.5618347659474,565.5870360019617
2025-12-12 18:14:32.200582,Right,329.88716070580995,541.68907541933,529.575906663551,394.653370924294,223.55880689844344,352.4129991973168,457.58705150382593,561.7553532363381
2025-12-12 18:14:32.205576,Right,400.46674775821157,589.8026289208792,573.2855970157543,447.910930436512,-105.94654849423387,415.4830832381267,517.3391734214965,600.0259641254088
2025-12-12 18:14:32.209585,Right,380.67211883165874,539.1494043945568,529.3659054824384,426.45507132896455,-199.4576155321265,393.78763978468487,476.43253990088124,554.46301548474
2025-12-12 18:14:32.212606,Right,281.7389718472841,442.434316810919,439.65003803395666,339.20526826928835,100.80820293391298,301.48331679054536,377.823002512916,468.0044351796387
2025-12-12 18:14:32.216608,Right,284.4735001058434,475.3743193297414,467.990413888474,344.678591765929,226.39481274195714,310.0520666135708,403.78548046026845,499.37114973110147
2025-12-12 18:14:32.220629,Right,384.96147945174016,582.2153663326753,568.0911388020031,435.40356687188614,-57.49492361656303,408.30973554134835,511.54642256943043,598.4748840100365
2025-12-12 18:14:32.224631,Right,378.19621801708126,540.4868848666083,531.1597830493702,422.94322405557614,-223.7679778096135,395.6569792186492,478.8246400844073,557.7316719321534
2025-12-12 18:14:32.229624,Right,242.6190569352475,376.8407146600075,376.2368417070247,290.756402135652,26.9198079717753,257.57051696727285,319.7029976322083,399.1788968029432
2025-12-12 18:14:32.233668,Right,204.19018191454234,354.2279711776646,351.06561385351233,253.1944464429398,212.83912740043888,219.32444001338445,291.24591028201394,372.12895151763223
2025-12-12 18:14:32.237673,Right,328.704081185977,504.6702513853088,492.9817727453774,372.9340392924496,-22.061525141707534,342.94294488732703,435.40762049972545,514.0240416771267
2025-12-12 18:14:32.240680,Right,385.5048492073547,550.5465756093618,540.7648093488533,429.04855835507624,-245.4232508667883,398.82994803000474,485.31986686680466,562.6553977524163
2025-12-12 18:14:32.244690,Right,254.277036085492,387.1568669566186,387.3481014560675,301.8176038386882,-50.891745464137784,269.0422013623174,332.5585035322001,409.34211326227523
2025-12-12 18:14:32.248696,Right,143.85729726875434,269.15437709051184,270.7920742733404,189.12406649725745,184.17248933254814,160.03691054106457,220.8303286905866,291.8937360420823
2025-12-12 18:14:32.252718,Right,218.5873689741129,359.15627444686834,353.06784028268885,255.4070674070972,14.173625516274114,233.0231974692433,310.6497876662761,374.166537740035
2025-12-12 18:14:32.256726,Right,309.9580756861251,450.4577024191385,442.94885499216616,345.3832580295857,-236.0977845715497,321.77587292779936,402.0088895378867,465.98123688576743
2025-12-12 18:14:32.262730,Right,234.66759916226147,355.21006307343487,355.04705934075173,277.0567117444007,-85.976922514752,246.88142538192915,310.4408894555527,379.7973588089226
2025-12-12 18:14:32.265754,Right,125.87102501589106,237.13419520051684,238.69173221651,168.72840102406917,189.97945134136899,140.0531871188432,196.65956164291129,262.51488825515844
2025-12-12 18:14:32.269759,Right,172.98442357842578,291.03009145415854,285.3251525069354,205.95877682662103,71.0778726667877,186.88026088662446,253.34394556842744,306.7139638757799
2025-12-12 18:14:32.272761,Right,266.62360321643064,381.6259582610801,374.05292577820364,294.7922831919277,-229.8418651658808,279.0439878180623,346.3436089674942,394.3962395413546
2025-12-12 18:14:32.276772,Right,209.15003887645435,307.9231667211279,308.7684135752497,244.3854934089468,-156.27083805891812,222.38681272504618,274.3627206488163,329.57648557587527
2025-12-12 18:14:32.280778,Right,88.50428561423905,183.63680795882829,188.74619641923346,127.41474991524592,154.35435216671408,103.18141787115019,149.11941241374006,209.13622913276777
2025-12-12 18:14:32.284814,Right,112.48360749549465,218.60203506913967,216.57287002459634,141.2928515476524,125.79019157712037,124.92476789961802,181.91199828824028,235.05151466536336
2025-12-12 18:14:32.288818,Right,217.3663119475823,319.4482224477688,312.374686876894,235.6993673982215,-182.72982653344388,225.49556866043713,283.7491567566758,329.3807557496475
2025-12-12 18:14:32.293847,Right,188.2022529579117,265.9507484076894,265.3229815750383,209.26213773875497,-189.92112565662865,195.6491412926116,234.52126855269307,281.93870521965437
2025-12-12 18:14:32.296849,Right,64.52724571124418,131.0673607584322,136.55971852719085,92.30019338527927,120.29124351057726,75.0346162809874,102.01988982525654,152.02344635745976
2025-12-12 18:14:32.300849,Right,67.99335052835522,149.86892923730193,150.4262742350693,93.02225385623751,170.9878877118499,79.39948512217961,118.9992462163209,163.13918362016557
2025-12-12 18:14:32.304837,Right,184.73281443153974,275.9448849640903,270.84201647999,203.8748223602306,-127.83337028629467,192.69317724567372,243.40143075271044,280.78197321947664
2025-12-12 18:14:32.308815,Right,185.64789574744646,257.7398002287373,258.02519095421303,207.2544756726711,-214.1241953539611,190.2816100374912,227.64310186594957,266.0161555572413
2025-12-12 18:14:32.312875,Right,52.806246989173815,103.35635900171474,110.99720141646685,78.60069686896168,70.71367817319697,57.01933913282119,77.42040714004543,116.75645695423009
2025-12-12 18:14:32.317921,Right,16.637275314249564,70.75010220485274,74.78018776141107,36.80154281388968,186.1808166703231,20.639297251123935,46.56720299180597,78.05872526246822
2025-12-12 18:14:32.320903,Right,129.88702084403485,195.42811436462216,192.51080235891277,142.1218224223121,-89.53548272177068,132.59574863576563,171.34867289743852,195.08603152795695
2025-12-12 18:14:32.323917,Right,169.3790080382605,226.93344920157688,227.89110523927957,185.13863470213255,-239.92446722243403,172.83054506307235,204.87234478112077,231.76400207926054
2025-12-12 18:14:32.328944,Right,47.13415504753357,87.32459959283005,97.43349461152684,70.87165889091557,20.93987958987418,53.878194528631866,69.73316880548373,101.54738212918164
2025-12-12 18:14:32.332938,Right,-31.50172729336191,5.304792728391476,15.027579881425481,-12.040802185598295,207.65602846174806,-23.504427432024386,-7.950322862016037,16.55290782143129
2025-12-12 18:14:32.336895,Right,51.4494152237894,92.2407724855002,95.24840103689348,59.13644194044173,-30.027658678205626,57.23565471766051,81.52571014908608,94.45710612752009
2025-12-12 18:14:32.340964,Right,117.30874153756304,151.38931392075028,155.84563788212836,125.15322294720681,-247.88403117849884,122.73446251128917,141.71207916212734,156.75167053227779
2025-12-12 18:14:32.344973,Right,30.695428223290946,55.68075819517253,67.88447949278634,49.91662227368215,-34.11762074201397,40.432820551795885,46.23303534119623,72.66040889569558
2025-12-12 18:14:32.349000,Right,-54.31310755352024,-25.549120511102956,-14.036935664364137,-33.17490258128964,219.21033152019663,-41.234174446959514,-34.09599298593821,-8.31987690035021
2025-12-12 18:14:32.351988,Right,7.715495742362691,39.539724978327285,42.23929236107506,16.77502649888629,44.55798835027235,18.040066040179227,34.495311349921394,45.285258487041574
2025-12-12 18:14:32.357002,Right,83.01511130589643,99.02664357260801,99.81481143564451,85.0643080168229,-230.01822856036597,88.63746321355575,98.40494139277143,100.71357081172755
2025-12-12 18:14:32.361022,Right,20.754428285436006,19.93484666198492,27.386074277514126,29.401503208413487,-93.71834000931995,26.048970214265864,19.33882240045932,28.67206050932873
2025-12-12 18:14:32.365035,Right,-58.801287306676386,-51.48815677728271,-43.28440223750658,-46.00507667171769,193.83066294760647,-51.548788006883115,-57.114091070980066,-41.58772361726733
2025-12-12 18:14:32.369007,Right,0.38801018393132836,23.256046748894732,23.470104335981887,4.07396134690498,88.06436351229786,5.721297036332544,15.162018223811174,23.40361996757565
2025-12-12 18:14:32.373056,Right,82.59499751549447,92.75933036502101,90.92235032637836,77.16670483347843,-224.4571505213098,82.95429287821753,90.3604070773581,88.14781669533113
2025-12-12 18:14:32.377059,Right,15.45213248670916,-3.825056470668642,2.83681459503714,13.659447557787644,-175.6577118012865,13.981205021060305,1.8319001418130938,-1.5171804668789264
2025-12-12 18:14:32.380085,Right,-91.73457493603928,-113.01445369029534,-102.1297772032267,-86.5879104322812,125.20704284009116,-91.18126803988707,-106.27406500373036,-106.89193306557718
2025-12-12 18:14:32.384103,Right,-39.382133800158044,-35.042904462781735,-31.369127304118592,-36.815521973359864,100.25462815635547,-38.60189962704317,-32.989766697137384,-36.61342622869415
2025-12-12 18:14:32.389043,Right,80.51948252368311,90.36217345809564,89.48786472665961,76.76415527111385,-215.84475968709012,77.9292655622412,91.54033722705208,82.84580113555421
2025-12-12 18:14:32.393128,Right,36.238972057486535,16.273135701776482,23.16777423021267,32.59367593956995,-243.42425570894557,31.409366015912383,23.064443913346622,13.948475062526995
2025-12-12 18:14:32.397106,Right,-116.2185922383942,-158.0469317693205,-143.76262138967286,-118.69265237470972,57.87964682577149,-119.86583447424346,-147.03054632616113,-156.0121045501146
2025-12-12 18:14:32.401189,Right,-122.37006933808152,-150.15461619090638,-140.79058010940207,-130.8048846765596,118.26413049160328,-124.95758763469348,-141.3482566110324,-154.25815429654904
2025-12-12 18:14:32.405149,Right,13.712037164266803,3.8072823943803087,6.359033787652152,-0.6191219301545061,-174.1464959609948,9.938572198414477,9.523570121556986,-5.118174838164123
2025-12-12 18:14:32.408190,Right,39.1807061144209,17.097690696871723,24.1550766301807,27.79582200756704,-271.05721514101606,34.336629628029186,25.531412549331435,15.500807793345302
2025-12-12 18:14:32.412226,Right,-90.0423298558162,-135.27717901846336,-120.48317695588048,-98.21769767216756,0.3888118899121764,-94.88626516095246,-120.55959495416027,-129.10428818328364
2025-12-12 18:14:32.416190,Right,-141.12254558026325,-188.0920199618704,-176.05159639647172,-156.57998017800855,114.53587850723125,-147.36376574831957,-170.39322193403495,-187.04542114710785
2025-12-12 18:14:32.421220,Right,-37.96234079889837,-74.484426084804,-69.54881329563796,-61.81631096943602,-157.64919399293285,-46.85610062142223,-58.66626751485455,-81.43447442274191
2025-12-12 18:14:32.425211,Right,7.066563663356646,-33.03921240969066,-25.596100644237595,-11.719831592054106,-309.62735439650714,-1.3741598574852105,-19.431842615820642,-35.44675648122211
2025-12-12 18:14:32.429231,Right,-106.962899025144,-159.34445413716458,-144.28987051446893,-114.83278056474956,-47.95878778603219,-110.64260856587498,-144.50595371783857,-152.28724179590063
2025-12-12 18:14:32.432219,Right,-186.35685031755565,-239.57729565665068,-226.01179195734585,-195.61849807582985,149.57887866537203,-186.0858479120143,-220.64980165095403,-234.98587481625145
2025-12-12 18:14:32.436230,Right,-105.84188452794115,-154.54207069647236,-148.5807242357405,-125.47788133673748,-78.58109383916599,-106.08502474686611,-131.59831009156915,-159.4589356206343
2025-12-12 18:14:32.440226,Right,-33.62912031434462,-89.02944396729072,-82.3520751336182,-53.59496297696205,-300.1325357453461,-35.785207951641496,-64.85681741864391,-93.02943613675234
2025-12-12 18:14:32.444219,Right,-107.47025549804493,-171.3224310622786,-157.11896200432784,-117.36721897058942,-94.33715522319835,-109.9345216990987,-149.4825305384977,-166.52912738044233
2025-12-12 18:14:32.449249,Right,-181.0036777397322,-238.50301602317631,-224.61205369157142,-189.51362421595968,159.85489519713155,-184.96987141773934,-219.6433798820599,-234.8357880569647
2025-12-12 18:14:32.453274,Right,-112.91428140555035,-163.06163186729464,-157.3053494007836,-132.678240707668,-10.764926835967344,-121.72511112098255,-143.11959629901685,-169.99360467961014
2025-12-12 18:14:32.457303,Right,-40.052114717789664,-103.0506282362403,-98.42331178714448,-65.38997381370791,-288.735596672821,-52.503786433549976,-77.95542172619025,-111.91988251723524
2025-12-12 18:14:32.460297,Right,-114.15452050952081,-194.63124985483591,-182.56577626004582,-131.60109883404948,-155.77369413168344,-124.53802445570909,-166.5221443154005,-194.62968934939272
2025-12-12 18:14:32.464329,Right,-205.31126734491409,-279.08884701970965,-266.0379523190568,-217.33906320924143,141.70067794827628,-211.51302697337087,-253.70678068987763,-277.16563557578047
2025-12-12 18:14:32.468312,Right,-141.37065313045605,-196.96390399504162,-192.82785622208758,-161.1477164084863,52.73351002494746,-147.805530247766,-174.71652715525124,-204.75257715879707
2025-12-12 18:14:32.472324,Right,-37.152632583842205,-99.55218733125366,-99.14718631582218,-65.55174964148318,-252.55429963127244,-47.774648402337334,-74.55457998924248,-111.80252500774805
2025-12-12 18:14:32.477341,Right,-86.86806979338144,-176.4322145870392,-168.60670531279175,-113.31050657079322,-204.6519087410561,-100.02677913435764,-145.81164327284205,-180.81254022971552
2025-12-12 18:14:32.481336,Right,-200.33853866532445,-297.0452326727536,-284.69078719528625,-223.38180478622962,102.65667972485244,-213.2323433658894,-265.40757072794077,-296.5282813170197
2025-12-12 18:14:32.485380,Right,-167.96061367988295,-245.74792664544657,-239.62141148737282,-196.3903514489939,94.1279212852387,-181.70542280910013,-217.4544148004643,-251.89469893059868
2025-12-12 18:14:32.488387,Right,-52.24651883756451,-123.50915590970544,-121.63671983315726,-86.24958319123834,-208.4424304485874,-68.62058194669953,-95.68154900045192,-133.97106581751723
2025-12-12 18:14:32.492386,Right,-72.69013362494297,-164.25846528742113,-155.51853647950338,-102.2356581591448,-232.2324808484409,-89.44804466045753,-131.8217097458546,-167.08211428206414
2025-12-12 18:14:32.496337,Right,-194.0916073371627,-298.7624135292426,-283.9744477851782,-217.6924204518873,67.60787485711626,-208.08310855425952,-262.61733679144527,-295.29116139854887
2025-12-12 18:14:32.500406,Right,-188.35960278425773,-278.4491873825318,-269.4308468566742,-215.8182419815712,122.11572146072285,-200.48370363049617,-243.3437257806072,-281.4358043295506
2025-12-12 18:14:32.505418,Right,-61.746336280484684,-137.94840892526554,-135.9718540116446,-95.04340740274347,-182.200358031856,-74.29809692603885,-104.6150431484566,-147.97158678853884
2025-12-12 18:14:32.509559,Right,-51.3133627755451,-138.64070583987632,-132.33993843159988,-80.31848702023854,-284.27030470485624,-63.282888239147724,-103.70052019419381,-143.07266146605252
2025-12-12 18:14:32.513434,Right,-190.1197073572257,-291.89640378873446,-278.55156380709377,-212.27325762494002,6.132524433778599,-199.85736398662266,-254.3570068917179,-288.60071533886367
2025-12-12 18:14:32.516483,Right,-244.9169147010398,-339.9656523358135,-330.4774814801931,-271.70835296128644,153.82573951259837,-254.77686505755992,-302.3827253442141,-341.32514403402456
2025-12-12 18:14:32.520408,Right,-139.71237291576108,-223.91845774912508,-222.38317759733764,-176.49555080215214,-102.75043621844088,-153.05226501796278,-187.51578142357175,-233.66523972235154
2025-12-12 18:14:32.524470,Right,-82.31041591288522,-174.7261118593742,-170.86254837774322,-118.34004309566808,-269.00670837676444,-97.68633922052686,-138.19588830543216,-181.03376403290895
2025-12-12 18:14:32.528427,Right,-172.2706508661795,-276.4405719409988,-264.8304528966546,-199.8160517034994,-27.212029187052394,-185.41986766137416,-239.60975555103505,-274.3018529865367
2025-12-12 18:14:32.532560,Right,-226.79423057253007,-322.83723667656886,-312.9284141022654,-254.42335001117317,167.00534560623055,-237.28930196686997,-287.1217281940626,-323.9588520008256
2025-12-12 18:14:32.537545,Right,-138.16212283374625,-221.0235756842012,-219.33108530711615,-173.83219665539218,-57.64669502181641,-149.08047698411974,-185.7618986669404,-232.49298617741442
2025-12-12 18:14:32.541528,Right,-81.95547382743098,-172.30500432345434,-170.23301636398537,-117.36864045271068,-284.9999125828617,-93.45081411706633,-134.83857154130237,-183.5133738993609
2025-12-12 18:14:32.544556,Right,-182.97525316101382,-288.5130164088332,-278.6437329747423,-208.34210683286074,-84.3213355482003,-192.0482807442313,-249.10147774490179,-290.84752204304095
2025-12-12 18:14:32.548552,Right,-268.2679134834907,-368.0920135425986,-358.38139648901415,-290.2183241606399,182.70033459868864,-275.4358988329768,-330.881501705182,-370.98506693483796
2025-12-12 18:14:32.552503,Right,-180.41611442153226,-263.4380402385141,-262.521606306138,-209.95905570487957,31.98016887072299,-190.27497543380014,-230.64185698720394,-276.8768472710508
2025-12-12 18:14:32.556548,Right,-72.58051202853676,-159.0433145124698,-160.02765559020918,-105.57714247977128,-244.42608949354326,-86.07826715931878,-127.54283933230909,-175.00123866571812
2025-12-12 18:14:32.560532,Right,-131.06056800394435,-236.0459847242455,-229.14735090051545,-157.03705161059042,-128.04613672263804,-143.05870464112377,-202.0647841692262,-243.12368603621144
2025-12-12 18:14:32.564630,Right,-238.3330438619596,-343.97955495037604,-334.3688399870298,-260.21528299117927,158.85132758210966,-244.95561242324766,-307.776596053096,-347.45885627291864
2025-12-12 18:14:32.568610,Right,-199.8589534086641,-287.53618285572156,-285.0924196220003,-227.5620285642508,76.64261805924616,-202.89304482546868,-250.789347326383,-297.74974180141
2025-12-12 18:14:32.573645,Right,-105.03127719956683,-188.09440291527426,-188.48153660522075,-135.7991169251909,-216.00950304714206,-106.799668721942,-150.22902096103644,-199.93522767536342
2025-12-12 18:14:32.576622,Right,-149.15992489943164,-246.65994489949662,-239.30014070804464,-172.48149791665492,-159.6574164737467,-148.57675146477413,-207.0342880594544,-249.00259048107546
2025-12-12 18:14:32.580639,Right,-257.33366579483845,-358.78122617903864,-346.8774328252766,-275.6656707682123,153.10633836851775,-254.1476412807242,-319.4459756370052,-356.05284699972253
2025-12-12 18:14:32.584594,Right,-220.7140570197662,-307.08411910996074,-302.2478234121809,-246.67307541167247,145.11357267964922,-218.5163290540513,-270.07861813833006,-312.3231912770425
2025-12-12 18:14:32.588649,Right,-92.08275881156442,-172.16049279115396,-173.52362588461256,-126.13857880586875,-166.6742510492477,-93.2820435820322,-136.4977052108734,-184.00194979988737
2025-12-12 18:14:32.593657,Right,-96.8474718638463,-190.401598069584,-186.9716249295161,-126.69377807347337,-200.18140061893064,-98.99337680186727,-154.81680063193198,-196.8520461115986
2025-12-12 18:14:32.596683,Right,-219.82666166493436,-320.33051912282826,-311.8522871772293,-243.05246867757523,105.97319570239051,-220.82970567065058,-286.66225595242577,-322.368194848008
2025-12-12 18:14:32.599675,Right,-235.77774545480497,-323.61055044666864,-320.75086832401576,-263.9836828103871,179.36227858340135,-238.63042808667524,-293.9564970016945,-334.18155555578414
2025-12-12 18:14:32.604729,Right,-124.59310770902084,-205.30268548766617,-209.0052907349309,-161.33256466238527,-115.4917634184967,-132.3746716271562,-177.78647827234818,-225.1609394691186
2025-12-12 18:14:32.608706,Right,-98.55924394383328,-192.64448215445736,-191.6375906455214,-131.9116012819868,-225.47000308165298,-108.27287804317893,-163.74002760351868,-208.02024702326162
2025-12-12 18:14:32.612666,Right,-199.09167792426888,-301.83051216450986,-293.23155571555253,-222.5523516733083,54.1124791665934,-205.7264506087522,-271.2583408075152,-308.48372970242053
2025-12-12 18:14:32.616736,Right,-222.87737901465152,-311.29510347923497,-305.8679599480238,-246.28521614294732,195.39653211744735,-227.20739242678974,-280.68951980612474,-320.6510029655765
2025-12-12 18:14:32.620743,Right,-113.2172820524429,-189.2778576099081,-191.45059073489392,-144.27526389894774,-73.50695300460939,-119.82966299241525,-157.58879240212264,-205.9305674530915
2025-12-12 18:14:32.624760,Right,-73.97772845320287,-162.6895584917511,-162.69272426853422,-105.05749046837445,-257.25643766560097,-83.0853373859427,-127.63750454317778,-175.67744516971288
2025-12-12 18:14:32.627767,Right,-184.78840682440205,-288.3501909849583,-281.1106912168325,-208.85411015321733,-18.304472268326208,-192.22935635322938,-251.4008937026956,-292.0663415794261
2025-12-12 18:14:32.631794,Right,-242.08949673781171,-334.6012449634727,-329.73980575503083,-266.7352544499445,190.90548805384606,-246.70153520448366,-299.3487410036614,-339.4099035006366
2025-12-12 18:14:32.636742,Right,-133.95516651394428,-208.00108261191053,-211.90314154612133,-166.8911842671805,-27.978868917078216,-138.692097176885,-174.12571059173206,-220.66972479963442
2025-12-12 18:14:32.640800,Right,-51.81444229642511,-132.04796899773646,-135.47268263809383,-85.66623542958405,-276.46505995848565,-57.679610086692264,-96.00247194990516,-143.27174266352085
2025-12-12 18:14:32.644818,Right,-138.8491578771791,-237.17665441753343,-231.86833578307414,-164.24764797562966,-104.78213214476273,-143.77721437125,-199.00227131316205,-239.9076758979354
2025-12-12 18:14:32.648832,Right,-226.01912159548374,-319.83015957905445,-313.5205178303877,-248.2512381915003,150.66115983750933,-230.29437936856993,-284.3432492623688,-323.796196675743
2025-12-12 18:14:32.651839,Right,-147.79899475723505,-220.6510011649225,-222.66048740048427,-175.77313996985322,1.9260315843494027,-154.78274208167568,-190.51695957023185,-235.0696221931139
2025-12-12 18:14:32.655861,Right,-50.175415965990396,-120.64650081575383,-124.97111717652297,-79.00436573725892,-276.2462989433552,-60.31385692904587,-92.55331033613766,-136.88045759231318
2025-12-12 18:14:32.659881,Right,-116.9117571952811,-204.21205711743096,-201.40180623106426,-137.53298011107836,-164.66487023036825,-126.2892988496169,-174.1632421327522,-210.97980255825678
2025-12-12 18:14:32.664824,Right,-225.45401353770285,-315.96224645664915,-311.15740908292355,-243.32397585822036,123.82479619908554,-232.29870495852083,-284.6971136259963,-319.2449559654924
2025-12-12 18:14:32.668892,Right,-174.77188709619804,-249.31716839165892,-252.50874074845342,-201.593642670603,42.271960183716146,-182.4732252857939,-219.6020869887434,-260.22575376112945
2025-12-12 18:14:32.672896,Right,-59.08360116483527,-127.9635818793904,-134.7102542182547,-91.81035246240208,-262.9758552148651,-70.04561045067385,-99.74776913615642,-141.55136357067386
2025-12-12 18:14:32.676912,Right,-90.20443908011657,-171.70276010339148,-170.4577301647514,-116.45873673335882,-223.11273141927813,-101.66873068123823,-143.54526644793805,-176.46211518842028
2025-12-12 18:14:32.679914,Right,-202.32024251308758,-287.84649803105276,-280.3279047892429,-222.90437546692556,88.1136086646311,-211.8033318707894,-260.47968084545573,-287.74531639768975
2025-12-12 18:14:32.683926,Right,-176.8949700825906,-248.709044927964,-245.48317480291007,-203.82919498695992,90.18466744401849,-186.9257096381043,-223.33354927413166,-255.86113218654646
2025-12-12 18:14:32.687953,Right,-50.52307538155583,-116.6185463508009,-116.60249555413611,-84.2668266191613,-219.63317034694137,-63.955526067496976,-91.99272623186698,-128.15257225983078
2025-12-12 18:14:32.691964,Right,-44.57027209032094,-123.55529198620934,-116.10351408895804,-72.91616567986785,-262.3198016504848,-59.35483796094195,-98.32785820751451,-126.41074514441425
2025-12-12 18:14:32.696933,Right,-153.93306554557057,-238.98343339428538,-224.57850451412378,-174.51769581908593,38.80036161047299,-166.66998786540353,-214.40866857755464,-234.1701220536488
2025-12-12 18:14:32.700983,Right,-163.0589137636416,-234.20831898628967,-224.67875670827925,-187.33833198074717,114.43746529638656,-174.30647111218423,-211.34724584541982,-235.50911585922586
2025-12-12 18:14:32.704988,Right,-52.8489564753836,-114.80543557927012,-112.22079953848151,-84.07424864842324,-184.51856932381452,-64.43214380007703,-91.73230752057862,-124.25161309330724
2025-12-12 18:14:32.708006,Right,-34.341282646375475,-107.52228991786251,-100.98795414867345,-60.61928223102586,-304.9318731438452,-44.314526741654845,-82.64773080556188,-112.87167766859056
2025-12-12 18:14:32.712007,Right,-147.76588335930137,-228.613808098773,-214.93539369892096,-163.43344915332273,-22.15586021679701,-153.34925901395036,-204.5193256821367,-227.09180624072906
2025-12-12 18:14:32.716028,Right,-181.87142792812665,-248.43132722884184,-238.00178052746924,-197.82564249483403,142.1325189420586,-185.2295143272786,-228.44184060482075,-252.1994770373567
2025-12-12 18:14:32.719995,Right,-68.37064948995248,-122.67770437023137,-119.60041743610054,-92.17784810153535,-105.540953081123,-73.81396210202365,-104.98114239209099,-135.48480409855256
2025-12-12 18:14:32.725038,Right,-11.665298429725226,-78.87641941534821,-72.63964778138325,-33.92051595568773,-286.85458186546384,-18.51648857476539,-58.62404924473958,-87.33488416159526
2025-12-12 18:14:32.729053,Right,-107.40395533185801,-190.4108475657995,-174.9311548974365,-118.99098148141638,-52.764553890156094,-111.04476964153582,-167.02347034355626,-186.63662135548657
2025-12-12 18:14:32.733078,Right,-163.8213959413115,-236.64649156772066,-221.24210778664565,-171.9647163603222,160.60747283287856,-163.01185340079246,-214.0442915360327,-230.87664161314024
2025-12-12 18:14:32.736062,Right,-63.127391955349594,-117.05968223907985,-108.74704070482403,-77.53942750807619,-50.64952486633047,-61.10242874728283,-96.84662604512414,-117.623767910467
2025-12-12 18:14:32.740087,Right,13.707055633771233,-45.287144388479646,-35.38200574798975,-2.341545400500763,-298.89561923596193,15.27643510341295,-25.097312844591215,-43.71818131703185
2025-12-12 18:14:32.744095,Right,-75.98135433299467,-153.24745510949288,-133.3808126814547,-85.75646616643644,-126.50974210876302,-73.1932022436522,-132.3807316402672,-141.48439095541835
2025-12-12 18:14:32.748114,Right,-166.0964401892561,-241.2164804203785,-218.9424215593026,-175.00517012286582,141.174398308729,-162.1855562585697,-222.62574122997466,-227.46133772766916
2025-12-12 18:14:32.753113,Right,-86.4181276136369,-143.65202299534576,-128.58280380896758,-103.03367404307937,6.476498500065645,-84.69394785256009,-128.71091165434336,-137.0383835444809
2025-12-12 18:14:32.757127,Right,22.57812474327511,-33.41911866964074,-19.780472155835014,4.38360932606156,-270.8703930214615,21.21332762602833,-19.035155827761628,-26.707076866412535
2025-12-12 18:14:32.761125,Right,-29.918340279895347,-100.73767635738477,-78.68835562025197,-37.92642256306135,-163.3280581252402,-30.779905498726293,-84.06271566741634,-83.94556875177659
2025-12-12 18:14:32.764134,Right,-134.04934215609683,-204.53511038224678,-178.8327902398305,-134.87539505463792,135.63880406930548,-132.09109910705592,-187.02753462758847,-184.36655965127284
2025-12-12 18:14:32.768170,Right,-88.65209641802358,-141.0353197865188,-122.23464765923563,-94.14495912753046,75.76960608310037,-86.14827044447884,-125.03370493120747,-129.4828108830261
2025-12-12 18:14:32.772133,Right,23.575158444582485,-23.485368647030555,-8.52379299455788,14.026518263766775,-217.08820609563554,24.44123514625244,-8.226982158143073,-16.40842185355723
2025-12-12 18:14:32.776220,Right,-4.858028927788837,-65.37004694499774,-44.107149348245,-8.14062535946141,-176.62977496946405,-4.168513562064618,-49.61606048210524,-50.94599897641456
2025-12-12 18:14:32.780190,Right,-115.65842963437899,-178.76052981661633,-154.06644904083805,-113.52183021660312,140.7167323387548,-114.03634549488197,-164.04675579554169,-160.00833400472766
2025-12-12 18:14:32.785154,Right,-95.76992098390474,-141.2600590820657,-124.64923271117732,-99.51518746090005,158.8798310203856,-95.89701907068957,-129.16897020916804,-130.68547308811685
2025-12-12 18:14:32.789210,Right,20.999756692966912,-14.969915708294138,-5.531450260663405,10.731119486299576,-139.34085297971615,17.071779517253162,-3.89403674917412,-11.528686812322121
2025-12-12 18:14:32.792242,Right,16.54613578846329,-30.235305392940063,-16.100997697969433,11.435273148177657,-178.037917101552,11.830599518871168,-18.177058456552913,-21.59930391603848
2025-12-12 18:14:32.796238,Right,-102.25368228109437,-153.12493436742807,-132.97087148803985,-99.77565618301742,136.2848951408523,-104.20652470650384,-141.59111280259094,-138.88739262864692
2025-12-12 18:14:32.800245,Right,-114.47010180389043,-147.64193067658925,-132.56528931332286,-115.99821998440893,240.77171882256516,-115.50407404295402,-139.11465750972275,-139.96727278700564
2025-12-12 18:14:32.804254,Right,4.737697166157886,-15.142577051126864,-7.933072969317436,-5.002476451074472,-32.98905906089931,1.169558432273334,-8.197357774683041,-15.536679657059722
2025-12-12 18:14:32.808287,Right,41.300235010217875,11.284328585956246,20.677279721363448,34.71493583515985,-150.04927214911731,37.00881362424116,20.17056845553452,15.465445681998972
2025-12-12 18:14:32.813288,Right,-57.00518188261776,-96.58252029452706,-81.65735625728848,-53.78853827546118,121.12957901903428,-57.63994478361565,-85.73032237659208,-84.04964209155878
2025-12-12 18:14:32.816304,Right,-88.71633189087152,-114.5056110494188,-103.77417300778325,-85.12240958667826,275.38391241461795,-85.95660245133331,-104.48895964311669,-105.21559802477714
2025-12-12 18:14:32.819314,Right,14.667800052033272,5.298233438807074,7.846988276025513,11.192563306394732,22.664290226064622,17.091188437188976,14.07637960856664,6.374346736585721
2025-12-12 18:14:32.824300,Right,54.43873687743326,38.34659834281774,42.666856842144625,51.52736843202729,-160.81036416001734,55.75035874149762,47.68683858937584,41.852165076328674
2025-12-12 18:14:32.828266,Right,-59.90765348507557,-89.15406335837906,-77.54892623523483,-55.72609472449403,80.82239094255783,-57.89741394284647,-80.01698896358721,-77.79034887099988
2025-12-12 18:14:32.832333,Right,-130.76731449790532,-152.07913787316647,-142.76147832674906,-128.28163549714372,316.04544616183557,-129.23713724740082,-146.23242216557264,-143.90476478729397
2025-12-12 18:14:32.836353,Right,-31.568124996876577,-36.73123237656546,-36.96062414575135,-39.59802856884198,128.17453748139087,-34.16213342861738,-34.37437183223665,-39.56386728087091
2025-12-12 18:14:32.841360,Right,61.49768766161287,52.35510817388422,51.01112199056661,50.704286442603916,-112.30470772995614,54.86553407390602,54.45567169645801,47.941462347254856
2025-12-12 18:14:32.844378,Right,-4.801138155802619,-27.976958718179958,-21.645753773947945,-7.08618021037546,53.20980423039873,-11.143737522623269,-24.753319558221847,-24.813346883340273
2025-12-12 18:14:32.847386,Right,-84.42532399197808,-101.58151083931443,-93.87573650822742,-82.02195009071147,313.1297524833062,-88.21876404827344,-99.188866616023,-97.9035075243446
2025-12-12 18:14:32.852394,Right,-14.978162276180228,-12.333864511485444,-11.85560243553482,-17.068429945298703,174.34199917223305,-17.84270991498488,-11.232995841564843,-16.236306187143782
2025-12-12 18:14:32.856347,Right,74.69538339591236,79.50880809794762,78.33892881972133,72.27503368307953,-107.72896479177871,72.60303517171997,82.05735707949498,75.7644905828347
2025-12-12 18:14:32.860408,Right,9.110055325727444,0.026985887641785666,6.091410512162838,15.713957185973413,-2.7551820497610606,10.61365460374509,4.96737854462117,5.722456054965733
2025-12-12 18:14:32.864431,Right,-98.35915632893739,-106.48605976352701,-98.54484969895566,-87.96347705277731,301.9667413736752,-93.3180209819111,-102.47584961354733,-99.68160923937103
2025-12-12 18:14:32.868451,Right,-52.3609162910725,-42.64614481400349,-43.1740359950345,-51.30949070083443,249.38244594057323,-48.778258825157536,-42.223726599273505,-47.96580519579584
2025-12-12 18:14:32.872474,Right,60.87312353843299,74.96903959018528,69.814565816283,53.84111678163754,-48.21625045637484,59.82735545793548,73.71240952546941,62.031268529972294
2025-12-12 18:14:32.875486,Right,34.3498355204938,34.176494806742994,35.65666279490688,32.15504675108241,-22.01018453639699,31.513111571621266,33.99680141566205,27.50991052671452
2025-12-12 18:14:32.879554,Right,-74.55193433967361,-77.34575477839098,-70.9383397049387,-70.20002922590356,288.6704385615303,-76.21898648339265,-77.58628777434933,-78.67460225435207
2025-12-12 18:14:32.884542,Right,-53.74149691344064,-38.36057309564785,-37.97356541961199,-53.68631848330551,311.97621702810284,-56.554192831448745,-41.37275639310246,-46.787674763647374
2025-12-12 18:14:32.888550,Right,64.478875004992,89.18508604777162,84.05701712731388,58.413530229823664,15.59666760356049,57.556320078336284,83.83683449742966,73.01283545346814
2025-12-12 18:14:32.892551,Right,62.291359239054145,74.10145364425262,74.42662200616905,61.044599753193324,-32.918795397359645,53.39218918880215,68.39629066735506,61.27635980039486
2025-12-12 18:14:32.896559,Right,-54.18952293333132,-49.29767769694445,-42.850594302784884,-47.599933539837366,268.7533621568291,-61.45211448355985,-56.13903469752404,-57.80594140922767
2025-12-12 18:14:32.900506,Right,-61.59491393341159,-40.18816643836908,-38.952089804486604,-57.95463921199553,361.5023810439743,-67.96065554043162,-49.85451004443166,-54.91893707917188
2025-12-12 18:14:32.903563,Right,64.85024222813081,99.96858792789862,93.27468019674416,61.02997433998098,67.73861157146166,57.14464319497347,89.6866987850226,78.80932023204514
2025-12-12 18:14:32.907570,Right,101.0016786116903,125.2053615309851,121.0149028490996,99.92632377290283,-75.5280025783577,94.13823404085997,118.7510562423995,110.84005432319827
2025-12-12 18:14:32.912534,Right,-13.335402594748302,-1.7714210709091276,0.23985811907914467,-5.612991430578404,183.08860240713693,-15.219228433343233,-3.794636667618761,-5.462839269603137
2025-12-12 18:14:32.916585,Right,-64.52961231638619,-41.57286340194696,-43.47341925177898,-56.82429254389717,344.71376277157106,-61.97732449398609,-42.83028015967284,-46.874749105627416
2025-12-12 18:14:32.920547,Right,38.5325424643961,79.28868522112316,68.46582846940146,39.85650618199725,97.16553556913277,41.518831564389984,76.28895538991492,65.78496589817223
2025-12-12 18:14:32.924630,Right,100.00713983674359,137.91277418710524,127.65683120887843,103.4074546922784,-101.52189448973513,102.53737820277456,133.8677923365467,125.69401960505638
2025-12-12 18:14:32.928634,Right,6.420864962565247,33.69888935182826,30.180218890323886,18.992563686086214,116.64417437653174,10.543396724111517,28.981343941632076,28.615848894696683
2025-12-12 18:14:32.931637,Right,-64.34498429812083,-29.23525675511337,-34.78642244564253,-51.052895151326084,339.5043882598111,-59.30477870604955,-35.94131052875309,-37.35713131399825
2025-12-12 18:14:32.935665,Right,18.290717512878473,68.75726938483422,54.016016417896026,23.447402199468343,148.2490740075591,21.39672647176485,60.68920240571606,50.133357742161024
2025-12-12 18:14:32.940666,Right,92.21448479850369,138.58608262352936,122.94375578522158,96.46636715832574,-96.24916353152366,93.96417870637379,132.40515147609403,119.44947602409229
2025-12-12 18:14:32.944619,Right,11.393537595038651,43.37228685671289,35.58561342698522,24.60656417295104,69.54829668268212,14.839163146563806,39.59716683367151,33.26856037070684
2025-12-12 18:14:32.948697,Right,-74.05102913602605,-37.70806139337947,-44.48690136782534,-58.27205522992881,338.1436927843606,-69.9406114978774,-43.21445522306749,-47.51554282203142
2025-12-12 18:14:32.952725,Right,3.560463323374279,57.2478774983465,41.75055658951169,10.068264735949924,200.6699632211239,3.211936841136776,46.88864089503477,36.30344680239796
2025-12-12 18:14:32.956743,Right,112.30691732713603,166.08239023060742,147.04110265834606,113.13726509596745,-100.98016848912812,105.783976215047,152.37669738424302,140.1366709030699
2025-12-12 18:14:32.959758,Right,62.150405180756934,101.08293850703194,88.54567104291345,69.07161085049302,-21.82186505672871,53.772371163031494,86.22158650979691,81.67025018288405
2025-12-12 18:14:32.963823,Right,-43.34742997592548,-3.033674407291983,-12.758160637386027,-31.906106431342778,272.06506501161493,-49.77903637334384,-19.545980638584297,-20.055160915639135
2025-12-12 18:14:32.967765,Right,-2.092957282497082,57.140719624308986,40.385959557577735,2.9553871605094173,217.20976282062475,-7.9174832294738735,38.84092219344893,32.00490964079654
2025-12-12 18:14:32.972705,Right,109.5548980206222,173.0269403784405,152.3018057763984,109.29521289452532,-93.65836045923061,102.0888496235275,155.61188297070476,144.1641102814101
2025-12-12 18:14:32.976813,Right,81.72355573976529,128.36020022642333,113.99116853975283,87.76430586725473,-87.71466728032101,73.79107305074285,113.41558450632874,107.63403587324137
2025-12-12 18:14:32.980793,Right,-35.16715669995756,5.1093793707186705,-5.0865180732362205,-21.86298807318235,215.36559298360953,-42.087281976579106,-9.911397859366843,-10.216082361992449
2025-12-12 18:14:32.983748,Right,-24.373422168599063,31.47415224037468,14.351409744936973,-14.402187280727958,242.74835655352217,-32.06587879676226,14.039041165022354,9.439700514136348
2025-12-12 18:14:32.987813,Right,93.50045254657016,157.77957522096403,134.37787802271487,98.76649989119323,-57.500290213152766,83.34549132774555,140.13862745403458,130.53427246580395
2025-12-12 18:14:32.991841,Right,102.49516582864453,153.09192505322062,134.86715463810106,113.73889242413134,-121.30707259807969,92.13731550957164,138.1274647008977,133.21500123931764
2025-12-12 18:14:32.995844,Right,-2.7997201830585254,38.660459188260575,26.8242389218467,16.138266320849652,171.30264275497757,-10.63098310974965,24.43390829850614,26.214412690158497
2025-12-12 18:14:32.999854,Right,-9.783293845670414,45.04389268271734,28.535694335547305,4.409506765125116,269.4581697858521,-16.32923076920997,27.896120567827893,27.261832031108497
2025-12-12 18:14:33.004853,Right,106.57159800564841,172.73336238186394,149.01259996543376,110.81717064747136,-15.172346602892503,99.4311507522907,153.97006191915625,148.23277798670097
2025-12-12 18:14:33.008869,Right,128.60119337975084,182.84480409111165,162.84119718397415,133.65085007378366,-150.53049725914025,123.1765549724987,167.05258448083555,165.3131885255607
2025-12-12 18:14:33.011871,Right,2.1489427200340288,43.10687852119372,31.170098016667907,14.805026069087035,123.7827143764298,1.5231886942601705,31.015744609368085,37.04349058973639
2025-12-12 18:14:33.015889,Right,-54.70968600131346,-4.102117219175852,-17.940548096539715,-42.991036244295174,308.01295456883963,-52.68368099859981,-15.790075157871797,-11.131197197188158
2025-12-12 18:14:33.019902,Right,50.864132220049214,115.60792307755582,94.33697937070792,55.393944748855574,72.04783252067864,50.84261170949503,103.18112878196553,100.83499343025687
2025-12-12 18:14:33.023920,Right,120.48995030460628,177.3815152790121,157.5870163078198,126.60383633373112,-133.9916653718683,118.48264877877591,166.23671276337154,164.5885530372517
2025-12-12 18:14:33.027861,Right,36.16947979899851,78.04391112486701,65.74665166517707,51.08023934973062,72.63388657543692,36.023248486549164,68.02993472010712,73.03234847271278
2025-12-12 18:14:33.032933,Right,-25.66190237047067,21.77977049621768,8.25416810340107,-11.208738641568658,290.8327466851333,-23.911329459043372,9.383038684318308,13.626179781185783
2025-12-12 18:14:33.036954,Right,66.31431533104137,128.25697094410862,106.11271822518029,70.05182306670895,91.63697387560387,65.78812502599567,111.91282593254073,108.42700926752696
2025-12-12 18:14:33.039948,Right,145.69762207110898,202.25185387742386,179.30180391249905,145.68929988736272,-170.79900623479625,142.16739079683498,184.42391011747895,180.03581081043012
2025-12-12 18:14:33.043966,Right,58.94590965172574,99.20209088669799,83.94902554902546,67.0456184098166,-15.374238423275528,56.96193229793971,81.7460260276639,84.68241330339515
2025-12-12 18:14:33.047969,Right,-42.320571618838585,1.534823084155505,-12.61148917986975,-29.7090076722543,267.426439145318,-40.26251103452341,-16.815664147427015,-12.20350162964678
2025-12-12 18:14:33.051993,Right,22.195743214144386,84.49796376909944,62.38003136945372,28.704277835984612,156.16935217834543,25.480589361973216,64.8341263414768,62.00708538501567
2025-12-12 18:14:33.055936,Right,129.43706488254975,192.69135223120247,168.5542155125986,132.7172560621475,-131.56802464625798,131.9579413293868,174.36391982676287,168.48346937901442
2025-12-12 18:14:33.061019,Right,83.42360467056642,129.88631928571704,114.36914045595404,94.12324106221422,-51.8056780230836,87.55023769603577,114.07310929115192,115.2275433441755
2025-12-12 18:14:33.065030,Right,-23.229329226167465,20.39538391197857,9.782620160578517,-7.1134481405388215,246.30218248139136,-16.08996446982019,3.983819663328177,10.053253164391208
2025-12-12 18:14:33.068054,Right,10.914530505455332,70.20824877759878,53.99196774851589,21.649516428606148,202.2771570403129,18.144608710124885,51.04159568934847,52.65870661444933
2025-12-12 18:14:33.072037,Right,116.69820831090692,179.79565273594926,160.4638139570161,123.30772628699197,-103.07230567149236,121.9858451609507,161.10855191832525,159.55770614315406
2025-12-12 18:14:33.076077,Right,87.20373154256595,134.4040750324566,122.43906357484593,101.00390689561391,-97.42745989985997,92.95906988339266,119.90889162956591,124.47031054914987
2025-12-12 18:14:33.080028,Right,-28.963874099870736,12.01006189997861,5.6171652347329655,-8.41755167903466,210.70380037781433,-21.184627114136674,-0.15306548576336354,10.06352929231798
2025-12-12 18:14:33.084061,Right,-14.383131302420225,41.181381221053016,28.826157529489137,-0.0642276397520618,246.01646919030463,-8.021988209864503,27.165421061436064,33.60101884027972
2025-12-12 18:14:33.089097,Right,110.72674355037816,173.42886053500843,154.6788469946987,115.88027550365587,-58.030551815085346,112.72094225114051,157.52654775310657,159.65213745181245
2025-12-12 18:14:33.092108,Right,122.51051103271311,170.21856997538998,156.29298397970706,130.36747544557147,-134.8895486536203,123.48873528420154,155.39645297402603,162.8315618291308
2025-12-12 18:14:33.096107,Right,6.662084022133058,44.009901596728014,37.13581889586203,22.51170705050754,155.5160390129895,11.82320480501221,30.82895264745457,45.11191508603952
2025-12-12 18:14:33.100116,Right,-17.8495663107351,32.147075054163,22.00318764909025,-3.399757557817793,265.7647753635829,-8.855216273335827,19.011918354895897,29.838807442749385
2025-12-12 18:14:33.104134,Right,92.09825780416577,153.07747138019477,136.4763671204273,100.00667075453384,-13.704503168177325,100.7979959801196,140.4640222157468,143.84643800714548
2025-12-12 18:14:33.108079,Right,124.96493840012408,173.05433937715134,159.6826900333981,134.98774711269652,-161.80511204581126,132.25241804540565,162.85338411645353,167.6558124225121
2025-12-12 18:14:33.112149,Right,12.546991652481665,45.3553966666077,38.89375606086833,29.63549801838235,98.44311835504777,20.268500306228816,36.443879074380675,47.16648320540844
2025-12-12 18:14:33.117173,Right,-39.81491536244721,0.7268605227582157,-8.875074780160503,-25.20550275962887,281.8659310788207,-32.22305760706513,-10.522330129075272,-2.4087483113107737
2025-12-12 18:14:33.120188,Right,64.87449640181876,118.85366936931678,100.59846143198229,70.09729856147169,48.70678380006575,69.55374897043657,104.15497804970073,104.28996551175078
2025-12-12 18:14:33.123186,Right,135.33294126950932,181.49496847300907,163.73629846568656,140.22044709824695,-161.66405699789175,137.3211271294058,165.3383119259379,165.8666802703665
2025-12-12 18:14:33.128162,Right,49.70831145477132,80.57135642971843,70.03538651697454,63.32777474096656,43.70914607681334,51.75427619370748,63.615123776035034,71.59883108233043
2025-12-12 18:14:33.132186,Right,-20.912201892511803,15.057859173801262,3.6992755059618503,-5.543463006979437,274.3282435572619,-19.153813393881137,-3.941815597616369,4.722984534106217
2025-12-12 18:14:33.136225,Right,59.123088615597226,109.48449989277287,90.08686221142852,66.75177448864997,89.17093948957336,57.580969060523785,89.74266059986257,91.98792983153544
2025-12-12 18:14:33.140272,Right,130.22589237007924,174.80435069056693,155.3306459870946,135.74757768704876,-173.39491575557622,125.65916173556616,158.20204495990765,160.81209000345552
2025-12-12 18:14:33.144264,Right,38.099114182150515,64.73156732725329,54.24422744344338,50.90641077076725,-25.143211890070233,33.96555773774162,51.56919904828828,63.30127748344967
2025-12-12 18:14:33.148263,Right,-67.74985022041074,-39.9956955397065,-48.02205603836774,-53.277654729245114,258.943892016614,-70.98709966096067,-54.56189370290667,-39.13439560536062
2025-12-12 18:14:33.151298,Right,-2.603142612504598,41.521596456470434,25.486717392370338,2.4005533539311728,153.02787153491226,-8.045209399831947,22.325509241272812,31.395752967044245
2025-12-12 18:14:33.155281,Right,112.64318064041436,156.1408334572625,136.129780115225,111.97997677310923,-138.96680127864238,104.68505947043013,134.95758958884107,140.60102993667533
2025-12-12 18:14:33.160339,Right,74.5563190012108,99.33536263032875,85.35816312793031,80.3830846368146,-68.36011520131433,68.37326622250112,80.20990170788718,91.66492472223763
2025-12-12 18:14:33.164297,Right,-29.54502168961335,-9.70961266150698,-20.44847563120129,-18.15422553573444,229.1515163857839,-31.43563942269975,-26.160956654974143,-11.221717611246277
2025-12-12 18:14:33.168361,Right,8.272186155700183,42.70322355670214,25.82511397489725,14.477426238445332,187.26339308690513,7.772272898058873,28.140243774279952,37.22793141902366
2025-12-12 18:14:33.172347,Right,124.95693397735158,163.20790590101387,143.11683343772893,126.71994829746836,-129.47246627192362,122.92002284910996,151.67963413425605,156.61650663407636
2025-12-12 18:14:33.175353,Right,105.93138653822825,127.7437197555555,114.94621677638497,114.66534524202143,-144.45696430226963,104.0557621987682,120.35940818265954,130.91495538809977
2025-12-12 18:14:33.179364,Right,-12.162927834120637,1.4028839997772593,-5.899173071382393,4.231697750663443,154.0098311980255,-11.709903699731512,-3.5139073987520533,11.849492627588916
2025-12-12 18:14:33.183385,Right,-11.72020563611295,14.152724602565286,0.7792988806613721,0.6205627578528947,194.0317033031606,-10.853323306197126,9.877908499125624,19.713256961273146
2025-12-12 18:14:33.188380,Right,97.24195435782894,129.0001641381823,109.07630394724401,102.76925835097063,-106.71685844747117,96.51380372728454,126.89834129319934,130.4882221165899
2025-12-12 18:14:33.192425,Right,98.23682145991188,114.29137176320364,98.94645341335126,107.68291324516031,-187.21410472036223,98.90554592564877,116.62475357481162,124.16946052742423
2025-12-12 18:14:33.196405,Right,-22.04879086343135,-17.496752211809508,-26.334605064650532,-5.239791175845312,103.6162280640201,-15.978280788767734,-12.469891640648711,0.9486459450126858
2025-12-12 18:14:33.200423,Right,-45.496045347063045,-29.597608056559693,-42.677894563792506,-32.432277864158095,220.71485321545333,-35.66363488949719,-25.837732898799004,-16.838376020852593
2025-12-12 18:14:33.203440,Right,69.71564257204591,96.06747250088665,75.43107902041811,73.5030649502296,-58.239907239127206,78.75776119445072,98.05538059821993,98.91156749300717
2025-12-12 18:14:33.207439,Right,108.69832093506557,122.60770906224207,104.6302233353199,113.52456842070387,-215.5686919822765,116.73049451034603,125.39605894779379,127.59716729531647
2025-12-12 18:14:33.211454,Right,-0.277010450612579,-0.7685598308016779,-11.430091830974561,13.016068272358098,39.449272970174206,9.413672650473018,3.007943960139528,11.392921546983416
2025-12-12 18:14:33.215459,Right,-51.40554137363506,-43.27005526600988,-55.86920630761597,-37.971959260394215,226.96874764763925,-41.20028201949026,-40.914600880263606,-35.22912855388131
2025-12-12 18:14:33.220529,Right,55.670186511124484,78.03550331543374,58.35950876165589,61.777175959832675,-7.182972951050033,62.73682420718251,79.00430537297507,76.08278652832087
2025-12-12 18:14:33.224540,Right,128.65289568976732,143.66270709542732,126.4133773620415,135.20194004249788,-231.5674313681011,133.3795349305874,145.72120441132574,142.7247971037723
2025-12-12 18:14:33.228589,Right,39.30367975956324,39.152118326717755,31.446612380168517,54.264897746594215,-38.19025543470707,46.206851928451215,41.63984287669882,46.714222589638666
2025-12-12 18:14:33.231526,Right,-41.78745488695131,-36.232907610567054,-42.80016409419477,-26.44400768045307,195.65285143745496,-32.10945273863035,-37.67201670947543,-30.228712885116693
2025-12-12 18:14:33.235562,Right,31.930738184404618,53.438581956288544,39.366645054193214,36.90203109473805,18.59733595034777,40.29088266293547,46.65763013297692,49.05340651255392
2025-12-12 18:14:33.239539,Right,110.35527989019465,127.54169539238501,112.5247501591075,110.09323804570158,-244.99219736329906,116.03800871244312,119.86867937866191,122.33950221988198
2025-12-12 18:14:33.243551,Right,34.12118453122821,33.27292818384012,26.28408748206857,39.59216294473299,-101.12082352878679,40.3485496876383,28.976335182858747,39.21880028738815
2025-12-12 18:14:33.248549,Right,-60.92026291464572,-61.94501161466178,-66.12597722273495,-52.550931292928,186.42690499952369,-53.29164076610323,-63.84616325539537,-50.19318805851799
2025-12-12 18:14:33.252558,Right,4.284641045342141,18.978328579323716,8.84924908982066,5.987147771564196,86.33772879668322,9.225963605116704,16.754653933050577,26.162467666741577
2025-12-12 18:14:33.256595,Right,114.73036184802913,129.79989572915656,118.78280296417506,113.02650387318135,-208.12265507771008,114.71254873351427,127.24386673535628,137.14543533246615
2025-12-12 18:14:33.259581,Right,71.54763036808436,69.74853642379458,67.56782103294245,77.1329768583746,-141.72116915552408,70.220410238966,67.52746058058983,87.33852988804574
2025-12-12 18:14:33.263585,Right,-40.07157228032156,-45.31996543466812,-43.08869709499413,-29.286374583702127,164.23750102727672,-38.68177822554571,-48.42789063625969,-22.409026068708044
2025-12-12 18:14:33.267618,Right,-11.266145524052263,-1.227348331696703,-6.0712667713087285,-6.681210150316474,140.67514182193554,-7.867925606362405,-5.413904324639589,15.2832783539925
2025-12-12 18:14:33.271615,Right,100.9158763506639,114.57575588453619,104.61159061963554,99.6207055363484,-162.78172089983673,104.4722969235736,112.4629608469404,127.9112467609084
2025-12-12 18:14:33.275645,Right,82.89816408954357,79.2596096516354,75.674888339272,86.80181630171137,-171.16618747185566,87.85322280553373,81.46097380873834,101.64915646611189
2025-12-12 18:14:33.280649,Right,-32.98167670374096,-45.314614734088536,-42.53255539757083,-23.43918665847741,137.6826837968474,-25.597143048624275,-41.520077826782654,-15.908952628509724
2025-12-12 18:14:33.284671,Right,-29.02413117634569,-28.1200042085693,-29.750132059460157,-25.864589471813815,190.79420691404084,-22.077912831875437,-26.554817979777,-5.274083381576929
2025-12-12 18:14:33.287685,Right,87.38595356011501,95.82095813812339,88.86913632239884,81.18768223682855,-105.69819158725295,91.22855401198467,95.92649032450572,111.14109071448911
2025-12-12 18:14:33.291683,Right,94.3429368025827,87.82651619499666,86.16162866056402,89.96236549883179,-187.76730572802262,97.3219345825928,89.6671689559953,108.20234214940865
2025-12-12 18:14:33.295634,Right,-30.331748990422057,-48.90997303259792,-43.393364355841186,-28.35727014792792,113.24902020980153,-25.3439465452102,-45.61913480252406,-21.426052442999207
2025-12-12 18:14:33.299707,Right,-64.9382670253326,-72.8158827485604,-70.82848039820965,-66.75292325288319,255.14211700182932,-60.59318960102246,-70.84881743360893,-50.984850973734865
2025-12-12 18:14:33.303734,Right,46.43084022475523,49.324988263215346,44.3733624703309,35.58365058522759,-3.6284955300507136,45.768360498623224,50.128458982559096,61.31086037297791
2025-12-12 18:14:33.308774,Right,93.55796421354898,84.97448619923671,83.4150222173921,83.7843195115056,-157.8869750893282,89.65486720552872,87.01808144481765,98.72378276039672
2025-12-12 18:14:33.312755,Right,-5.126820882149332,-27.05255167238647,-20.370210210960067,-6.647211658266315,92.74729410034342,-6.5687510835778085,-24.449020732085046,-6.417252951490809
2025-12-12 18:14:33.315773,Right,-52.02096045133658,-64.09711806174164,-58.88457760529127,-53.86695628632151,278.669071256576,-50.36976986354421,-64.43869500754226,-47.85774792493612
2025-12-12 18:14:33.319762,Right,54.433702584705316,57.63073971166159,55.16637686413014,44.44567543311132,40.75331514977006,54.247193661300116,53.60314420062787,62.85149056544469
2025-12-12 18:14:33.323797,Right,124.01631012112921,119.68570886203088,118.40904790173227,113.80343736005307,-192.73880268025096,119.81940159270744,114.8792006303047,124.65596742437629
2025-12-12 18:14:33.327802,Right,27.87227283007087,6.744676553280442,14.173531221160374,26.48615264192631,-2.273329229312367,22.604000380582875,2.45020585659222,20.337362598846084
2025-12-12 18:14:33.331811,Right,-59.739726083651476,-76.93740512205113,-68.26325074478518,-59.032358454802306,242.08766115604521,-64.44803143772879,-82.73438327672193,-62.965742662679986
2025-12-12 18:14:33.336764,Right,16.234053409294575,14.72157927465014,16.75250364444946,9.035290085455927,74.78037816577125,10.352226659662847,6.880297841860738,20.708069540996803
2025-12-12 18:14:33.340829,Right,106.92692261760385,102.47393781701976,104.76671312334656,97.15269480676216,-196.23248979654454,100.27785352133651,95.35446716337901,108.65889075533778
2025-12-12 18:14:33.343839,Right,41.45177502747538,20.6675271431086,32.02202065879828,39.653116090885305,-69.8886578699894,37.609820854471764,15.406986091504223,36.34365313198941
2025-12-12 18:14:33.347825,Right,-55.208916634335765,-75.11359591304063,-60.93328544731776,-52.987170880842314,208.25846871781687,-55.557739107040106,-81.21173889932834,-57.75868823219207
2025-12-12 18:14:33.352872,Right,-1.05918318303884,-4.7996966891223565,1.906985775080102,-5.72717016133538,107.29231590327981,-1.3277360340871383,-13.002196569541411,3.4375227010750677
2025-12-12 18:14:33.355874,Right,99.0065239423493,95.45388731999992,99.01234672738065,89.88200568523462,-192.4130171697907,97.70943334633921,88.17484297535702,101.23649948867387
2025-12-12 18:14:33.360880,Right,49.165406316460576,27.72680084496824,38.83228066925949,46.12777216204995,-134.83739739914017,50.121853109529184,23.32081373046094,43.38978156472149
2025-12-12 18:14:33.363900,Right,-68.49650983654283,-94.49970036554441,-78.49409155173635,-67.66206133179367,171.6400493641413,-63.944460794577026,-98.7129420030833,-73.36421722614614
2025-12-12 18:14:33.367872,Right,-43.34613792700111,-53.95038710151857,-43.68260967332026,-50.6407931867725,156.4915794270928,-39.03619842515036,-60.113751997749205,-39.916832384427835
2025-12-12 18:14:33.371926,Right,72.1707915053048,66.74483935503667,72.66222119139275,56.88694866365404,-146.7619091776287,73.30572284609661,61.26339919107704,76.47937080567499
2025-12-12 18:14:33.375939,Right,60.00101129892573,39.260819467650435,51.34983502041723,49.32829863726511,-165.45987704624713,60.7333543301429,37.287437295075506,57.62278515057551
2025-12-12 18:14:33.380968,Right,-56.90504010881705,-84.5333473500068,-66.86874666055519,-60.08407265107235,138.22487134141556,-53.17393544690276,-85.03030211014266,-58.74316755011387
2025-12-12 18:14:33.383956,Right,-59.04686865574331,-71.53934692222538,-59.39532046727254,-65.57881630415795,195.70960365302744,-54.285568839113694,-74.01786090927635,-51.93045228124538
2025-12-12 18:14:33.386958,Right,57.00231634634838,53.795074998670316,59.32035270196502,43.511769897253544,-102.2809863894945,58.91786995386792,50.13019261611407,65.5616231379754
2025-12-12 18:14:33.391923,Right,71.11367741065624,53.576087936147815,63.2494318129975,60.955880950212304,-198.42371200710477,70.6725158354966,51.975188150059694,69.73540212304943
2025-12-12 18:14:33.395992,Right,-48.58544736173644,-78.54577887796768,-62.41353724415967,-50.75527244308614,90.60548907035263,-48.527964266097115,-77.89893434216356,-55.33061947787792
2025-12-12 18:14:33.399987,Right,-85.46168323435268,-104.27364605813636,-92.18339567066869,-89.20582559372997,232.5492248100345,-85.3722878211338,-103.86112676791163,-85.93304415262537
2025-12-12 18:14:33.404007,Right,23.041514675431245,17.103291427065415,21.61793986824341,12.242750972109206,-24.8156554614543,20.72193635624717,16.727877211018495,26.15199888974894
2025-12-12 18:14:33.409034,Right,73.73031216130767,58.30715513275936,65.52543643572426,64.7076525930388,-185.67991198095842,69.5930193826789,58.42644238050343,68.70061852831714
2025-12-12 18:14:33.412036,Right,-18.61353702947963,-47.669097666417656,-32.541692028025864,-20.12928538633423,59.794170155597385,-22.24576092723146,-47.82732816978387,-30.843395344803866
2025-12-12 18:14:33.415044,Right,-64.25710617018922,-85.64777535336543,-71.92854280309257,-67.71592719548062,251.92133099454804,-68.19515324079111,-88.25203081667132,-72.37466888850031
2025-12-12 18:14:33.420033,Right,40.07017450146668,32.22109575188733,38.12398654715071,26.820309642840584,22.5479753340187,33.36265284284309,28.01083946768631,36.47540693465271
2025-12-12 18:14:33.424009,Right,111.26562174778519,95.73933777004277,102.1886521218039,96.90516392925929,-212.30545729462756,103.38846157996886,93.34623801431371,101.79446831445966
2025-12-12 18:14:33.428072,Right,18.884745218485477,-12.794754388447473,1.6949947035318473,13.703159973571019,-26.767838197294623,14.266656374864397,-12.477005501234089,3.3486855394148733
2025-12-12 18:14:33.434042,Right,-68.76116298820853,-95.63690880886861,-80.35769128539687,-70.46714938711739,220.87621032155585,-70.07110556481348,-95.23918504992616,-78.62744252603443
2025-12-12 18:14:33.437114,Right,4.813953664535802,-5.167947405545419,2.69816790772893,-3.508040163982514,60.16408823477104,2.190040906505601,-6.172612561796996,2.782628004977596
2025-12-12 18:14:33.440101,Right,94.2930943978572,82.38586186921384,89.12423618739558,83.3778522401044,-210.97323810841772,88.79719620965625,81.69668839425867,88.25106239140587
2025-12-12 18:14:33.444099,Right,26.474749279219395,-1.6388192643789807,12.660206912751164,22.274132111881045,-85.83592607744504,21.91327944980003,-0.9260952523654851,11.924419429153204
2025-12-12 18:14:33.447135,Right,-74.25489032804398,-101.69461008071085,-85.62068825646566,-75.75330456915253,199.22816022616462,-75.61242618194956,-101.2099338194821,-86.67640074193332
2025-12-12 18:14:33.452083,Right,-19.0883637639854,-29.75583988744802,-21.871471465008653,-27.80692500159421,104.70385099801933,-19.882314792484976,-29.900532956944517,-23.415194249835622
2025-12-12 18:14:33.456155,Right,89.72585818090738,80.58838584507794,84.58161139602817,77.83245536928371,-202.3701556827,88.04363377295522,82.98817903358758,84.43858008003735
2025-12-12 18:14:33.460158,Right,47.43410134024816,21.514210866231224,32.21817930386533,44.76859656169836,-159.06231206149096,48.35047739873335,28.491985692347953,35.07074328215822
2025-12-12 18:14:33.463182,Right,-71.84194391284109,-101.43436999036749,-86.7953670920615,-66.47354026240282,142.7051778944151,-65.93794574850835,-93.0120139761948,-82.34985435564886
2025-12-12 18:14:33.467185,Right,-53.7699916221427,-66.42111426319934,-58.706999102127156,-53.277297629378154,131.12359232085873,-46.518959161814564,-60.73891045156597,-55.251809902019886
2025-12-12 18:14:33.471196,Right,57.13089035262965,51.48756566767588,53.742755156235944,50.3496435898669,-173.42391570919426,61.108824978036864,54.70517242072674,55.73002906261172
2025-12-12 18:14:33.475221,Right,44.89359650106417,24.386340062566887,32.38171390067146,40.84979182024472,-197.60250912624178,46.09004454909882,27.729218235996086,33.755532454255444
2025-12-12 18:14:33.480212,Right,-69.4979703126628,-98.40417638539384,-84.47084818135409,-69.08893634974083,107.63385726633715,-68.35969016441959,-95.077815356075,-84.29845736801144
2025-12-12 18:14:33.484231,Right,-66.33742517158316,-82.01421535221743,-73.07523161649442,-71.78824374680698,170.734515959688,-65.79670109990184,-80.30152847078443,-75.32427048945829
2025-12-12 18:14:33.488232,Right,58.769292797915114,51.871049329488415,54.278658225568506,45.32126074723055,-133.0115619301214,57.03339103946928,53.25602976852679,50.6858211589315
2025-12-12 18:14:33.491252,Right,82.01188922497386,61.66560695904809,67.97227898543497,72.09871076659329,-247.56262905697804,80.06340055821784,65.56568393517409,65.78865387916812
2025-12-12 18:14:33.495351,Right,-34.51036763424054,-66.35478991661648,-53.80750764229015,-36.135445040330524,26.32104692645953,-33.59868055364859,-59.83715776833469,-53.34677704072601
2025-12-12 18:14:33.499275,Right,-75.11319526270381,-95.76560571467735,-87.48549808184907,-78.8868952996454,163.15781715264893,-72.99256375584082,-88.21648152683429,-84.87186963305794
2025-12-12 18:14:33.503265,Right,27.27106360171456,18.76341713628949,19.075733086625405,15.21869693355984,-100.12158176550292,26.873846674025117,28.044768768933864,23.781925701689033
2025-12-12 18:14:33.508306,Right,71.89916987314973,52.951912752682574,55.66153881331047,60.90633616247942,-272.78263596072793,69.92394550364406,65.62425031079692,62.486333332890354
2025-12-12 18:14:33.512332,Right,-28.582006223352437,-61.535707413465616,-50.850836510242516,-31.315002536110114,-33.36817519215401,-28.18395734884689,-47.42031105714523,-43.872920253554184
2025-12-12 18:14:33.516336,Right,-83.73895404266477,-107.78987105986766,-98.30680211865547,-86.31624527115127,163.7276232932345,-81.01208491326906,-96.47070681946411,-94.04437974215398
2025-12-12 18:14:33.519325,Right,15.016160619876246,7.386474213388283,9.070992679935443,4.895284452428314,-64.05863725455129,16.48166895454051,15.562316275416606,10.54370824768921
2025-12-12 18:14:33.523331,Right,85.55520986216834,73.11512271361244,75.26037448150964,75.40710992721324,-310.7837629384303,85.32504114043695,82.13306968909797,76.87038279643639
2025-12-12 18:14:33.527292,Right,-7.6907335700798285,-34.96528767741165,-24.772079940761614,-9.23789130485784,-139.16103060432943,-6.48062752954138,-23.295470697919427,-21.36361869958455
2025-12-12 18:14:33.531351,Right,-97.7940759013236,-120.02776712840114,-108.93911853333339,-97.60196384194023,102.3140969494707,-94.82145685338764,-108.572605754076,-105.55154491500434
2025-12-12 18:14:33.535386,Right,-21.988711986410635,-26.710007512384436,-22.817991627262018,-30.087805041146567,-68.81253002129961,-20.696641140109932,-17.848313605730254,-21.893580370933705
2025-12-12 18:14:33.540377,Right,77.65193621833714,72.10937792997174,75.42750496778535,66.6161959380479,-365.8099245884223,76.465972321148,79.68258589859079,73.630590754492
2025-12-12 18:14:33.544409,Right,19.374754255042717,-1.8992786234884989,10.072490293912779,16.341886276818514,-267.8523079304723,19.334091425742372,5.542913677320939,6.179168713333638
2025-12-12 18:14:33.547420,Right,-82.87269507078327,-103.68204985665216,-88.56148770635446,-81.36983188097292,7.052191570459399,-79.86329533710705,-98.15788284066275,-94.95568524492683
2025-12-12 18:14:33.551425,Right,-38.250976442994215,-41.96576704713516,-33.99643251763882,-43.159931537164084,-87.9229913338786,-34.663733847570256,-39.56247396510571,-43.01997703136658
2025-12-12 18:14:33.555377,Right,62.88675774402873,61.99700018556359,66.37143065531382,53.90933135218256,-403.3919292735518,65.51357376951091,63.35899432709539,56.312523658778446
2025-12-12 18:14:33.559448,Right,23.71505865821655,7.4243411396491865,18.24924125798134,22.230439056658724,-373.70290621806635,27.72605763469437,9.846266828060834,8.75594342133354
2025-12-12 18:14:33.563451,Right,-84.5349727200005,-103.82726604437084,-89.32232456995916,-78.97061467237017,-76.74932099127909,-77.8384685341498,-101.20034895277331,-98.46353389682918
2025-12-12 18:14:33.567564,Right,-54.93800287316708,-57.17127236377564,-49.60646623622415,-53.80320607612521,-87.67018579650903,-48.66333467166987,-55.65593584285671,-59.20626580028966
2025-12-12 18:14:33.572532,Right,64.9124883844429,69.76466275694293,71.80989174939805,60.057863277453635,-401.434703162231,68.21057591815588,71.33242825858179,62.15570272407717
2025-12-12 18:14:33.575520,Right,57.641035140701206,47.737734415490195,55.29315970422431,56.92278856572739,-442.66954518290004,60.45314553338358,50.84639293487271,46.46632728637212
2025-12-12 18:14:33.579593,Right,-61.51877015152526,-79.71760359849395,-66.35280153994245,-56.57068511976172,-142.99331067787716,-56.142969747403185,-76.34540855445266,-74.5692152070776
2025-12-12 18:14:33.583522,Right,-74.7744206527558,-79.23925254326241,-70.90340462049062,-75.04674310489622,-68.17406510323053,-68.82227851684092,-77.55612099599966,-79.06904670521362
2025-12-12 18:14:33.587511,Right,32.81545290255258,38.0907900508264,39.65862928098704,24.097190814751684,-358.04967097047484,36.03431630578325,39.02434748352425,32.25747620043148
2025-12-12 18:14:33.593486,Right,49.007681315604714,41.44055278154701,46.8027332391066,42.54397911202966,-464.74254981038393,51.31059647758502,43.60029935163948,41.08378409572151
2025-12-12 18:14:33.596540,Right,-64.55723179359347,-83.69415472946821,-71.32870210380224,-63.77001653021546,-179.9498528414406,-59.147711679716394,-81.42250528377735,-76.47654139894166
2025-12-12 18:14:33.600559,Right,-97.89583560305073,-105.67673565919904,-96.19619749104822,-99.49967459701725,-27.940681429521646,-90.35045466871452,-105.93525404336287,-102.83144149907639
2025-12-12 18:14:33.603555,Right,13.873076928897717,19.18974214609625,21.651476046192784,4.299641462622731,-286.97908639896195,19.52773722384427,17.274201327372793,13.70571175501209
2025-12-12 18:14:33.607560,Right,66.28360291917488,62.04833805219823,67.14186329007998,58.64464528867711,-469.70589616463985,70.66661836312755,62.182506196942995,59.95801722114811
2025-12-12 18:14:33.611522,Right,-34.59114874917486,-52.854973538142076,-39.693636860428796,-32.54834334708039,-234.78542699309764,-27.01197156910706,-49.92792791676584,-45.83302038020429
2025-12-12 18:14:33.615592,Right,-98.31611610286018,-108.27228153733085,-96.092396801532,-95.20771661400158,-23.290898145816755,-87.18696316953606,-105.71987233581785,-103.4216209961287
2025-12-12 18:14:33.619603,Right,-7.760905608311987,-1.9637307204320678,2.5313672700674488,-13.037075071309118,-229.4391206157743,2.3850052532438895,-1.593696476702462,-7.262224618223627
2025-12-12 18:14:33.623617,Right,62.3033329533464,62.25577502708984,67.00276728981248,54.8162213707501,-460.1418054110254,69.31584258461476,62.09202716925029,56.14629564293864
2025-12-12 18:14:33.628640,Right,-25.13361100441398,-41.663487038211315,-29.492603994494857,-25.522874085878357,-270.9094339524745,-18.884336966227238,-41.07488467834264,-39.7103714558325
2025-12-12 18:14:33.631636,Right,-110.32074922342144,-123.48226479319055,-111.64618485934875,-108.49102946683888,-0.10408730775816366,-103.46849727125664,-123.12630190693199,-121.01946815519841
2025-12-12 18:14:33.634657,Right,-34.19767951675021,-30.914824066345318,-28.264292123767888,-39.22664556428572,-138.95588775986107,-28.568610905017522,-31.08163758468436,-36.788839790920974
2025-12-12 18:14:33.639657,Right,63.14271811069193,64.92510008383397,64.72236807044118,55.73592003671183,-415.00002400222,67.01005488334249,65.76142424115824,57.68437374441055
2025-12-12 18:14:33.643629,Right,0.8485895884259662,-13.828277131040522,-6.948786766329306,0.9164282930487389,-302.0215648674057,5.630672282684827,-12.11933872080408,-13.00292197750241
2025-12-12 18:14:33.647682,Right,-108.12823203852895,-122.74974267189828,-113.23775871824364,-103.93956079402051,-1.1682053674012423,-101.152578573955,-123.14831520382177,-120.72187848759677
2025-12-12 18:14:33.651692,Right,-68.95480635545391,-65.91598703877753,-63.75513659943965,-70.80406873636184,-59.30507634481182,-62.36488606822604,-69.70349448245179,-74.18997609926191
2025-12-12 18:14:33.656716,Right,34.58648392041505,41.56114284904834,39.69565556571024,29.531529391485492,-343.50916337780654,39.17759268431746,37.619188043094255,27.972626572682202
2025-12-12 18:14:33.659714,Right,4.070103243284393,-4.052155473033054,0.3319878665845408,7.432050082527894,-294.3889684682945,9.323161236186934,-4.798699436985771,-10.112101738062847
2025-12-12 18:14:33.662722,Right,-96.97758281633469,-109.11854662412952,-100.59448544209476,-86.07421908275683,17.77200338500552,-89.05671846121368,-107.7814536988044,-109.52522187244176
2025-12-12 18:14:33.667676,Right,-63.06936179681543,-59.61373876671496,-57.38774805281582,-57.125911496455956,17.16116724879248,-55.671668073397086,-58.988444543703736,-65.8937656037051
2025-12-12 18:14:33.671749,Right,61.47454138584908,70.81385239935116,67.72176423548126,59.9997816271989,-300.2020136799256,64.37999677711196,70.89921154986587,59.99862493323235
2025-12-12 18:14:33.675755,Right,56.92669740128258,50.40916039050353,52.58443408200151,58.284792865733834,-352.8539977222681,56.617675362382215,51.40849795007489,46.7120736876459
2025-12-12 18:14:33.679773,Right,-64.57032780734153,-80.136223540012,-72.69002638782126,-57.858554971455305,-54.96968042195658,-63.89301330372291,-79.03477646567626,-77.20128411280166
2025-12-12 18:14:33.683792,Right,-78.93838440103355,-80.34364057482526,-78.79049249234185,-76.72585269086085,26.22102194596664,-75.9922365536022,-79.71911797466237,-82.72035538515411
2025-12-12 18:14:33.687793,Right,35.62862191321619,45.28988328690684,39.27161515150624,30.946705281088725,-268.889416783466,39.83026851051909,48.72141280766846,37.45070965836203
2025-12-12 18:14:33.690807,Right,60.07820981821715,57.60152556849425,55.352658348510204,60.05649792591612,-395.2386528287898,66.48185601731166,67.3855242428508,57.93957790437344
2025-12-12 18:14:33.696824,Right,-56.360725283166175,-70.8894070462411,-65.43203611172339,-46.260361527829446,-122.81835373904323,-46.45396122780039,-56.683021372204166,-59.07305469350831
2025-12-12 18:14:33.699819,Right,-102.98068851255812,-106.6908950046818,-103.51996787319081,-93.22836368802928,35.825043498160085,-92.61575126798925,-93.37185790715921,-96.65178009678857
2025-12-12 18:14:33.703848,Right,-2.388735004275077,7.254343109609181,3.465530815138436,-0.6143088891440129,-211.8542016375286,3.4992276296688942,17.77152970736097,8.835097443999985
2025-12-12 18:14:33.707844,Right,48.28475349199289,48.806956544602144,47.45267989379363,50.207126269660876,-391.2701420345402,49.7338003370769,58.623105843429585,51.84269106296779
2025-12-12 18:14:33.710866,Right,-48.894727268205315,-62.54792881385947,-56.02449653924418,-39.19055571399076,-153.2762458982761,-47.52968899476946,-52.718112394915806,-52.338257068891835
2025-12-12 18:14:33.714859,Right,-110.18636000560946,-115.81179798836092,-110.65809223278029,-100.12430591323573,69.06790344792535,-107.5899239114733,-108.2576567569431,-109.20376786587076
2025-12-12 18:14:33.718885,Right,-19.932464499048365,-9.229055042840628,-12.652545190250294,-17.94587539099848,-127.94752559871995,-19.14622246827639,-5.210386460632435,-14.581926003989793
2025-12-12 18:14:33.722888,Right,48.81346874304654,55.176743996242294,50.83867898467179,49.13742357557385,-360.0540937099722,47.02782979483527,57.08671570582737,46.52365048289721
2025-12-12 18:14:33.727831,Right,-40.581697660600184,-49.12994490696292,-46.791542588227685,-32.77291344715741,-173.52260301448405,-41.31247058853296,-48.41450967609671,-51.9200806804547
2025-12-12 18:14:33.731921,Right,-126.72050630074591,-130.78453115790398,-128.72074154807183,-116.89510435350712,101.73544558903086,-124.71300479691854,-132.01395918075104,-134.19258575538697
2025-12-12 18:14:33.735932,Right,-45.73873479580652,-32.5784845846465,-38.980722817951346,-43.964648258755915,-36.89640804522787,-43.97414716710773,-34.87847708480149,-44.43873537116451
2025-12-12 18:14:33.738919,Right,63.609829436976725,75.6371931522408,67.55102404019689,61.62943052293849,-328.30812360186246,63.56788923648128,75.44798778552467,63.09668743356451
2025-12-12 18:14:33.742938,Right,15.074335687349958,10.314447159707925,10.761090789065548,20.51565397092054,-235.076523728756,16.359607221225815,13.111256374697405,7.119617365642625
2025-12-12 18:14:33.746948,Right,-83.61102474603103,-89.07445175077737,-84.71997881603761,-72.74318123377907,56.84809292361024,-78.8863235139288,-86.38771148528394,-89.51402728123867
2025-12-12 18:14:33.750978,Right,-38.16290451999885,-26.569309041191445,-29.01891981724941,-32.06075916417012,-5.899490274081472,-32.67691722077143,-25.45384794320489,-35.185049201612856
2025-12-12 18:14:33.755972,Right,66.74200559522433,81.65451792570457,74.99703585921088,70.2354594567887,-302.95594877467374,70.68730071202663,84.99153356709758,71.30077938986142
2025-12-12 18:14:33.759933,Right,28.205404189451656,26.64100326085463,25.8169098459864,40.599252033647645,-265.55853200584534,32.65508871200109,35.89473007829474,28.429267780804366
2025-12-12 18:14:33.764034,Right,-91.29340292548295,-98.80946544232211,-95.89614400593655,-70.81581946716324,54.66608588346571,-84.82814405351746,-85.80337894158765,-88.24904544448873
2025-12-12 18:14:33.767022,Right,-77.29833181566573,-70.32620976197904,-74.17483550120187,-62.02194757503639,77.64499541682017,-72.2490894234088,-58.4833663477184,-66.4599177766213
2025-12-12 18:14:33.771079,Right,37.711935087012534,51.0053058821577,41.52495555048654,44.154084193490235,-222.3295950012689,37.913940587981415,60.311608870084456,46.02477319655736
2025-12-12 18:14:33.775067,Right,35.03417508437269,33.44907315457749,29.673582836805508,42.8403301267017,-268.99350682900695,32.941201944833665,42.08940397580045,31.119891343954805
2025-12-12 18:14:33.779093,Right,-82.95165519494185,-93.36715480219755,-90.31250626218116,-70.18334708064504,39.19262337544933,-82.6039386318098,-84.68570441564589,-90.73443618151941
2025-12-12 18:14:33.783091,Right,-97.55972334854596,-94.26251946578122,-94.7757780374568,-89.23680258421791,141.5410703389789,-94.95685712050727,-86.03811578690875,-96.16935541067505
2025-12-12 18:14:33.788093,Right,18.55321911824467,32.489286798152534,26.702553266842187,18.91491275050157,-134.51176600709732,19.862970526739446,41.42022143319991,25.637233859561093
2025-12-12 18:14:33.792114,Right,51.525538337746184,52.58739168484681,52.344014197197794,53.90399423118106,-251.8103206191663,50.73781566490652,63.64855251303197,52.39773400251215
2025-12-12 18:14:33.795119,Right,-52.05583363583901,-64.6287129628181,-55.92200234390111,-42.50391050784401,27.56922434563603,-53.583524556490374,-53.12108506620643,-56.24320095350777
2025-12-12 18:14:33.799131,Right,-85.39456272317693,-88.68925064814721,-81.49495460558774,-77.66326344584468,193.43364824855234,-88.76121238735686,-79.66746599278304,-84.63814344006641
2025-12-12 18:14:33.803132,Right,27.225239216069895,37.0293799486717,37.57329590333666,27.635081508893563,-57.57735932390642,19.890686614166043,43.739516598515365,31.28656679570304
2025-12-12 18:14:33.807140,Right,84.00529696949707,85.15275541616029,88.18584002202533,86.5010012209359,-250.36758023714356,74.53302160130988,91.65747320766332,80.36499787715002
2025-12-12 18:14:33.811164,Right,-17.801863998865883,-31.13920714955566,-20.189359399872046,-5.714352687451083,-15.731668708540383,-25.317839849940356,-25.646931633155873,-29.157200704352363
2025-12-12 18:14:33.816166,Right,-86.81649169478442,-93.17462783399606,-83.69810714349842,-73.66843235533861,222.00611584288527,-92.1479122483579,-92.06995895014916,-95.32720768328
2025-12-12 18:14:33.820182,Right,9.363132335502087,18.515310040404074,19.094075446273564,14.088695030457075,39.01394895773319,3.2307054953726038,14.740568012369295,4.387267520380192
2025-12-12 18:14:33.823186,Right,100.04799531717435,103.88862350844101,103.6665630240077,102.67545865661987,-199.13380645401412,93.1115397456997,98.96009641060482,88.07154294115207
2025-12-12 18:14:33.827189,Right,29.419476787763415,16.101804031163738,23.86352478191293,39.67106313679005,-27.51924568902905,24.730211306366982,12.8814436891289,9.661478370386249
2025-12-12 18:14:33.831201,Right,-58.30048545802856,-70.22052449832063,-60.60990384756951,-45.58397524675229,245.0994515349048,-60.68734264860541,-72.59564878299307,-73.19359497299047
2025-12-12 18:14:33.835225,Right,5.429052591467553,8.337590720248045,11.04991520495605,10.39348091381703,115.83019728026193,1.8116502812881663,5.915357857486015,-0.17123238478961866
2025-12-12 18:14:33.839230,Right,98.31647385965516,98.54363559734247,99.66407716592039,99.37097646361326,-167.68622967128613,92.67005629044434,97.86340130740905,90.89846191867582
2025-12-12 18:14:33.843264,Right,40.85753386689976,22.211830956021004,30.82939208109383,48.28436998949974,-68.55607135177706,37.00313481790727,24.3413525108499,25.505109127519972
2025-12-12 18:14:33.848205,Right,-63.44502551016194,-85.99936349083055,-74.67404072851605,-52.84989108749073,235.01566069335968,-63.06533488363675,-83.21726131900755,-77.42443000651292
2025-12-12 18:14:33.851267,Right,-20.085660056405686,-28.777375594137084,-24.900240668481274,-17.488766729929694,182.94626917466667,-17.644696959259818,-27.02473020444586,-26.332066556240534
2025-12-12 18:14:33.855289,Right,91.1515748340571,83.61761523048449,83.64872143260982,87.6945152006175,-118.6236412433791,93.79589810915786,86.12814431128422,83.74510726500193
2025-12-12 18:14:33.859295,Right,62.556089268200594,37.15488168757656,44.57319311816718,65.26441498739052,-95.47180277050938,67.60761481592272,42.16004882422749,46.549938306859985
2025-12-12 18:14:33.863304,Right,-54.41162008554966,-86.66554150585273,-73.30999082635208,-45.001010173092595,220.74797936905816,-45.07164730899058,-81.04658295869729,-70.7683979007088
2025-12-12 18:14:33.867271,Right,-45.49697319654115,-63.18110127020469,-54.84965394574101,-40.995749436840356,252.4612323178735,-34.78679180435938,-59.27498235856001,-53.09923383565547
2025-12-12 18:14:33.871315,Right,65.4397698289813,55.13718219309487,58.60454797152306,63.059587448213506,-42.40424354674178,73.62866188232147,58.81621528758683,60.59098644255573
2025-12-12 18:14:33.876372,Right,62.02391497149438,37.78739987271456,47.24936757014075,63.78013069506278,-92.29375008470379,68.08404350569253,43.87991342513578,51.39953779172902
2025-12-12 18:14:33.879346,Right,-57.58409962860242,-90.55743897710272,-74.17943137533439,-48.90751254739331,217.0212256203813,-51.74304744298206,-83.22826430605528,-68.2153433552794
2025-12-12 18:14:33.882361,Right,-76.01620647588061,-95.44450887557605,-83.42458877458921,-71.82757564522399,328.58319976273924,-71.96886932123016,-90.1302532321256,-77.81357234180632
2025-12-12 18:14:33.887356,Right,36.17807132391863,27.945320958012417,32.571013225169736,30.75219669079968,57.87850185902789,35.90675864157129,31.100882058771276,36.79045443443738
2025-12-12 18:14:33.891364,Right,65.18131622499095,45.711757989287435,53.24237478894793,60.013942042510735,-61.54427935971762,62.22311640692351,48.75848262920317,56.35785184869383
2025-12-12 18:14:33.895401,Right,-45.74926335712735,-76.20232437738832,-61.7164441887835,-44.699471237056656,221.1457507967134,-47.954821655388514,-74.02029577517533,-60.405032017834856
2025-12-12 18:14:33.899345,Right,-90.5794008859666,-108.1386192962018,-96.46605394316066,-91.98390579061129,401.3284721914097,-92.61683921481927,-109.66474837340593,-98.58382203812471
2025-12-12 18:14:33.903419,Right,13.260734512401541,13.02398361277028,16.653285625034187,3.651025528146363,161.3172165203723,8.228587786290518,8.217390889682974,11.17589191751631
2025-12-12 18:14:33.907467,Right,71.35279750408517,66.33904011845607,70.75333755196698,63.1945873360058,-35.46626746613765,63.983686438861696,61.77762371247991,63.93817527990359
2025-12-12 18:14:33.911450,Right,-20.90383181471043,-37.72050481599126,-26.83808859144483,-19.29802815241659,188.4152851239487,-26.688535790761307,-41.258970521881565,-33.981640293808596
2025-12-12 18:14:33.915442,Right,-79.71478731813295,-87.93638381706478,-79.34291893967747,-76.69825575192709,418.28917837669724,-83.99203720096193,-93.68331997524729,-88.10162086271794
2025-12-12 18:14:33.919501,Right,23.016164430425306,31.718271758130868,31.118756249150465,17.250768231020572,223.69624604212004,15.348064435134802,21.914870299510767,19.65001196388903
2025-12-12 18:14:33.923518,Right,115.356904747925,120.53001595490423,119.26903792706798,106.89729853586971,-35.53189386599115,102.22831838543061,108.68908984744485,106.00620591719371
2025-12-12 18:14:33.927461,Right,39.6141759246766,29.900947110301786,37.106637466935354,39.405518717573386,119.02682532984181,24.700953805389872,17.770140779843132,23.129334251162163
2025-12-12 18:14:33.931527,Right,-58.060754965714295,-63.24298526558414,-53.8470197004317,-53.403468561607156,392.5555610827578,-71.26469848868146,-76.41471543404077,-68.8001649839357
2025-12-12 18:14:33.935508,Right,-0.46960085130012885,13.572939887162647,15.955615686703823,-0.36140610849304267,272.2142438143783,-12.235701413945208,-0.1681178519356763,0.13051983514037602
2025-12-12 18:14:33.938508,Right,95.18714045214165,111.62517490023129,112.51195558109976,94.34483683301505,-12.727713998960098,84.46070952394439,100.51817855958325,97.17364827949064
2025-12-12 18:14:33.942540,Right,43.30380148938275,45.469034155086774,55.011755510426156,51.517362498457715,76.84885293463594,35.212930518526264,38.342791892611785,40.68056146874187
2025-12-12 18:14:33.947533,Right,-60.19025008743847,-58.24744432283296,-44.24185844227031,-46.36010524444862,377.5207364196249,-65.77015007896625,-64.0894739861269,-58.67485835953988
2025-12-12 18:14:33.951494,Right,-20.77299372572088,-2.230277989145179,5.195199483416218,-13.648079049675744,329.17109925541445,-26.98859884874946,-8.636704390475643,-9.597135925294637
2025-12-12 18:14:33.955557,Right,82.99329909100288,103.96852851473886,106.72748607283938,83.33086168145257,27.113510220922763,75.23221430108606,99.47238471841592,93.56160134586747
2025-12-12 18:14:33.959633,Right,41.89555780760111,44.75109970119229,52.86381931381766,46.35472245691801,47.871004414511845,36.3372069342131,44.81856292965858,43.11011831567703
2025-12-12 18:14:33.963582,Right,-87.92380926612259,-92.18907261949789,-80.55035167032838,-78.3447065601597,370.39089745105593,-88.85714665624073,-89.13350473559149,-87.82970292745154
2025-12-12 18:14:33.966575,Right,-80.20065942128895,-68.43109996152634,-64.06083283877888,-75.78009582509691,411.32121488824487,-79.76646616202925,-65.4873371611593,-71.27823878848949
2025-12-12 18:14:33.970586,Right,45.364345277261236,67.42853004673088,65.3260678943443,43.3838173231228,111.4146101330989,43.480572178999864,70.08587617340163,57.031283436339436
2025-12-12 18:14:33.975618,Right,60.9144192864087,71.45453040638677,74.75196241878439,63.580188844449026,42.80633256750298,58.53441131265936,75.0682679575948,65.54519439414935
2025-12-12 18:14:33.979571,Right,-48.71766844220838,-46.06932031874749,-35.53519348793998,-38.52310123492515,338.5545497497951,-47.833207277602924,-42.665497840876924,-46.01047655299499
2025-12-12 18:14:33.983657,Right,-65.51610829129822,-49.36308718833243,-42.43208009902082,-59.120484569112676,447.79835259038373,-62.51038548548058,-48.288702281370206,-54.9512459236671
2025-12-12 18:14:33.986629,Right,49.965833972472865,77.07215375923624,77.45595717775359,46.98973421456094,170.59107269521337,50.392614859489186,76.72057357028825,63.32408971597033
2025-12-12 18:14:33.990655,Right,86.50910336890593,101.50268158222025,105.64036016158207,83.51672931325314,31.76475324248895,82.53946109234312,102.24897321225944,91.1442029454306
2025-12-12 18:14:33.994663,Right,-19.493501468844443,-17.378192401720298,-5.6837406391969125,-16.486718142868625,295.3342318016221,-26.406785656827196,-16.071167999714817,-20.489498333118263
2025-12-12 18:14:33.998674,Right,-64.72880937465834,-51.974891445635876,-43.08224799259915,-64.19244386042882,468.2020900074858,-74.21536134086455,-52.9433499510269,-59.20746437246362
2025-12-12 18:14:34.003634,Right,37.95185396751549,66.06211434012948,66.69266692222664,30.013837207372482,224.2440305117634,25.713794096111087,62.80223740891961,49.244977552746604
2025-12-12 18:14:34.007705,Right,94.59696285872451,115.97686589624936,118.04047376119343,87.69429371930862,17.52722581650596,82.69186862556671,113.31806413015511,100.25889284311415
2025-12-12 18:14:34.011695,Right,-5.60592096444816,1.9078974813637615,12.38410040546296,-2.330531921886916,233.78383375378326,-13.117789683714363,0.47066592474948266,-5.924540704366336
2025-12-12 18:14:34.014724,Right,-80.01546467494882,-65.15495072226258,-54.94251428037023,-73.64151021625355,467.0366201092256,-84.48608221373252,-67.97828812766966,-75.11202577467611
2025-12-12 18:14:34.018725,Right,7.8060093934618635,39.81829019370343,41.227298799625714,7.35069605157355,276.4944133651443,0.7357336175173259,34.81143648626312,19.597199826450378
2025-12-12 18:14:34.022744,Right,92.8486792678159,122.05403582056533,121.19974647781419,90.50411663490706,9.202120053581893,81.91064782793183,117.75046909319644,100.96833227844945
2025-12-12 18:14:34.026761,Right,16.239159570191987,30.262879488203907,35.398317700022744,21.25293761597834,149.9614414399257,6.8704994202525995,28.573492071453074,18.53167022634716
2025-12-12 18:14:34.030776,Right,-78.91173401599735,-61.802795651445194,-56.67260505332524,-71.39000231369118,415.6506040386157,-82.5943051982722,-62.662366565644334,-71.3611315863136
2025-12-12 18:14:34.035769,Right,-16.200702114905653,18.485959731598996,14.97619638528704,-16.530296503212185,288.7209710869356,-16.490574271307196,16.743999193295167,0.39128126501236693
2025-12-12 18:14:34.039803,Right,84.25719007346288,119.82351857867616,113.55515446310892,79.45078110656323,-10.54048122925451,83.6948644629665,118.2476290207087,98.70342980721853
2025-12-12 18:14:34.042867,Right,30.49212230874764,50.07812151031976,51.51818432633445,31.664955989591135,65.69861772208242,29.38215710590157,49.092453933313664,36.711316958979296
2025-12-12 18:14:34.046812,Right,-83.24007095027173,-65.01173931299854,-59.7216623653876,-78.76732186559116,367.8632836904726,-84.98031897936198,-68.12356718670708,-75.27165060326661
2025-12-12 18:14:34.050830,Right,-53.10242040056164,-16.959593131094152,-18.69974389710478,-56.57703612031605,328.0519431811408,-58.160645099456815,-24.18740790745869,-35.777192085558454
2025-12-12 18:14:34.054795,Right,54.51695654051764,97.20125967764398,90.56547889875583,44.844824623340855,21.08617597137345,45.40590635387707,88.3068203531111,72.91053089571597
2025-12-12 18:14:34.058871,Right,30.387004510085717,59.484113279289886,58.586351398371335,27.696174813498146,21.90289854159346,21.756004603084875,52.527775056471,41.797150779929325
2025-12-12 18:14:34.062863,Right,-82.76739072638702,-58.44132736316169,-55.02887878926049,-76.32775944617924,326.8840172533528,-86.8172582507741,-63.5278676570706,-71.10283852315024
2025-12-12 18:14:34.067835,Right,-68.79615861626735,-28.605170240203734,-32.39267398980883,-64.56760110519826,359.09596193087054,-70.46924905422202,-33.92056860279263,-48.57062255762867
2025-12-12 18:14:34.070893,Right,56.106626369438345,105.17621321757906,93.60819476176766,54.715943047798646,47.90694338188041,52.30971311236135,99.71356551896315,77.83604482275314
2025-12-12 18:14:34.074907,Right,70.27032753372168,106.32808777272294,98.28067967998504,73.31489971599603,-38.04841875168495,64.40825002869678,101.81050063107614,83.81311831687799
2025-12-12 18:14:34.078867,Right,-42.53782515296189,-14.938595000170608,-16.991674139368115,-31.14596665889303,246.37829237795086,-47.508644521336464,-19.673085927206557,-30.86507807886028
2025-12-12 18:14:34.082939,Right,-65.36261986403224,-22.98251939839247,-29.089635807125887,-54.98060225360314,353.08502018859144,-69.2724539399278,-29.272910890435014,-43.51942769324705
2025-12-12 18:14:34.086912,Right,44.696656299559436,100.71015899247504,87.87336601082643,50.045568849062875,68.27295554883312,40.303339057965786,95.02963578157505,73.71836755374079
2025-12-12 18:14:34.090954,Right,75.81109064166048,121.49215342499156,112.46608836962332,85.86807758391797,-86.2041403503681,72.2924752754061,119.40392971578694,100.26990148081768
2025-12-12 18:14:34.095974,Right,-41.03018536786021,-9.327852680740762,-10.224932961926243,-21.512447196530957,171.24778917321237,-41.31706880231832,-9.407213932496234,-21.148238420580128
2025-12-12 18:14:34.099000,Right,-100.2099889100873,-61.40051281227352,-64.37178601979394,-82.74605230855741,355.9270915801462,-99.62032248109608,-64.26367401793323,-76.89100980737567
2025-12-12 18:14:34.102976,Right,-3.475564269159804,46.491908007003076,35.3494934605078,2.157606936186312,125.04526949065621,-7.563670673605884,39.04052367546319,19.755148598986125
2025-12-12 18:14:34.106982,Right,58.94208376994993,98.21212859628213,87.80738914602262,59.79006144811365,-81.20728605077602,49.12736696018692,88.5114614301092,70.55889246259176
2025-12-12 18:14:34.110950,Right,-32.718770333201064,-10.894088672135695,-13.63689428903308,-27.472448003618865,133.492909890163,-43.63781974457561,-20.75890504840936,-30.487840610861895
2025-12-12 18:14:34.115015,Right,-102.84244007306188,-76.44542505848949,-79.43845707431319,-98.38386073790616,375.9557918430655,-111.90432481347852,-86.21547582476705,-95.01714147822895
2025-12-12 18:14:34.118970,Right,-12.678915227716061,29.039521960970887,18.372045449337747,-16.65858380291229,197.27084182552062,-21.563584844037905,20.592952300357865,4.751750554465616
2025-12-12 18:14:34.124042,Right,74.84111191362445,112.0899146706397,101.3304406579191,69.05346379224875,-66.97954669021419,65.43171306571821,107.3522467699404,90.75313545597874
2025-12-12 18:14:34.127047,Right,-2.9399159597260223,16.947711269684078,14.799896979657206,-0.3983465463556968,76.20072408573469,-9.97409392143527,15.455024929447973,7.0096675603317635
2025-12-12 18:14:34.131065,Right,-103.4654122009224,-82.64851897566768,-82.93926215895408,-97.24803308546461,356.1045919867465,-107.0983979009161,-84.84132328159467,-90.02651490497465
2025-12-12 18:14:34.135090,Right,-40.91573742342098,-3.771711381195928,-12.550740757735184,-41.504562309984976,245.69078714435454,-44.61137204704028,-8.631132043039543,-19.935056385023927
2025-12-12 18:14:34.139086,Right,72.24715775778532,109.4558039279982,96.80950194182878,68.49002267822016,-53.83129671722418,66.5421743219249,104.71234625424768,90.90213482240142
2025-12-12 18:14:34.143108,Right,37.76072254534938,57.29039404494688,51.345375801593036,42.11286926501725,7.277272086794255,33.08438908363132,55.11872541191042,48.3984007076524
2025-12-12 18:14:34.147104,Right,-61.423345020966735,-46.11344781243315,-48.41796471710404,-51.20440431325096,296.8541031248169,-63.012696573730864,-47.792384089410916,-50.076121248861455
2025-12-12 18:14:34.151120,Right,-24.577402243917277,5.3233302523622115,-3.793843633866345,-20.756883056021252,250.31170865133754,-26.278064409198123,1.5282904561245232,-6.628260517874878
2025-12-12 18:14:34.155137,Right,83.73774578102893,116.54254893480538,102.71377799435868,80.45130606616931,-67.58266568669933,79.07004940720253,112.23721343514626,98.9261879080841
2025-12-12 18:14:34.158135,Right,54.25897093603453,69.22185544406602,61.411748740340045,54.363420275267345,-79.47628879905096,49.10642137788818,67.15596378540795,58.415983602567394
2025-12-12 18:14:34.163237,Right,-68.2176548927896,-62.236910639025155,-64.97972912620571,-63.89263122342709,225.01510074044927,-70.96606500317648,-63.09278720817383,-67.1314984938681
2025-12-12 18:14:34.167139,Right,-60.962919959157716,-41.96938451522874,-50.62021135876057,-62.92074921578296,268.3823323948309,-63.43850371823282,-44.031823577672185,-52.98909719726089
2025-12-12 18:14:34.171107,Right,62.70233853639047,89.27002425511091,74.39034977476331,53.48455868982546,-35.89251973698265,57.60319389464894,87.1741609346791,72.54781904850643
2025-12-12 18:14:34.175189,Right,75.4962612079139,88.17831194719838,78.30868388204544,71.47329347265622,-122.9688089985284,70.08993064143124,88.71301823658723,78.8721900516557
2025-12-12 18:14:34.179202,Right,-44.30292605631848,-41.351387631104444,-44.208955154892465,-38.617812291331575,165.9163826640579,-45.83198951240138,-39.389043745048184,-41.571897471617376
2025-12-12 18:14:34.183201,Right,-76.33075423226046,-60.119447099106765,-67.01321467825801,-71.93256905416001,287.60172908674576,-74.731939336908,-60.14110092786359,-64.50898399928519
2025-12-12 18:14:34.186221,Right,30.400224387110484,58.799219618045754,44.02450371217856,27.221369321169732,14.641126758913742,31.101994241126704,56.952124708288466,45.953824205286764
2025-12-12 18:14:34.191212,Right,67.6408141932693,84.51631315726627,71.7942311759798,65.88048660367349,-140.4056414918159,66.76558707317145,83.60420577340119,74.60296826078866
2025-12-12 18:14:34.195221,Right,-36.7133094749488,-34.14342887190287,-40.18451898960484,-30.978708667021237,112.38003855879651,-37.09988453407186,-34.70272035450034,-36.78161880945845
2025-12-12 18:14:34.199257,Right,-82.72859774988274,-71.66875157773029,-80.37811911580684,-78.65370622847331,295.25492970686173,-83.56469686925539,-75.39272860749588,-78.7165911101365
2025-12-12 18:14:34.203269,Right,23.328563732202838,48.48609462637614,31.833174352519563,18.311585439583723,57.35474296697066,19.35411678134551,41.59981890265226,31.43658622025214
2025-12-12 18:14:34.207268,Right,88.0420368346904,105.43046505543862,90.32681924988083,82.5682746746279,-166.12738838538644,82.87091036941183,99.64776937711395,90.68328309394747
2025-12-12 18:14:34.211292,Right,-10.919138580108665,-9.595696097978362,-15.949672974176792,-7.790955400897474,34.463583015749464,-12.144672892879498,-12.40644654539392,-13.059248976704112
2025-12-12 18:14:34.214241,Right,-96.13881378844258,-90.25857093509694,-96.11261811834311,-91.8203744024122,278.4791726809344,-93.22219437759759,-93.03494352137386,-92.30970454639191
2025-12-12 18:14:34.219304,Right,-18.8589291668834,2.214801557953251,-11.640480687093714,-24.01914421182937,107.18620013282634,-17.42391165356139,-2.7059170162556256,-8.815258394616649
2025-12-12 18:14:34.223310,Right,67.85787205840927,84.59390278391584,69.19614112501995,58.02092156185154,-159.9360332111537,64.29487476289796,79.1338253100248,71.61738306772895
2025-12-12 18:14:34.227356,Right,-0.5219657120622969,-1.4666808844158368,-9.865968270742314,-4.988527462633101,-25.97229838707426,-6.893043126836346,-6.283200398311237,-6.764030611012458
2025-12-12 18:14:34.231348,Right,-91.03663942971781,-91.95468842561058,-99.21607665838928,-94.11795323030128,251.42503767782182,-97.22495343714218,-97.58668510054213,-95.80560446351592
2025-12-12 18:14:34.234349,Right,-24.540224561565026,-9.901608107313223,-25.23475283756266,-36.159935484759444,142.27127689258486,-30.022648200204912,-16.163018185025976,-21.53616950574542
2025-12-12 18:14:34.238308,Right,84.71551035733678,99.16729643620965,81.15156177610913,68.76859061433242,-162.1615396272682,80.96549645793789,95.96440982762851,86.884884999331
2025-12-12 18:14:34.242368,Right,39.54169177894909,36.362014267713676,26.623826475095257,31.600965859438475,-105.86369723011012,40.246500651795486,38.13818614929096,35.560287459571555
2025-12-12 18:14:34.246370,Right,-72.00180035581445,-79.14459566956612,-83.56331506195056,-72.94311524456953,191.59548155589437,-67.0127577576227,-75.53335961408811,-72.85765450114104
2025-12-12 18:14:34.250403,Right,-40.04235319766144,-31.860343748240666,-41.62222819632143,-45.617809745780505,158.3911070218237,-35.596289481084796,-29.833616205801718,-31.034653106344194
2025-12-12 18:14:34.255413,Right,75.38983650976263,87.6983715084234,74.28563521852493,64.69384429771071,-159.81468598971696,76.08566063385013,89.05285717544166,85.13402484050039
2025-12-12 18:14:34.259377,Right,55.89794075333725,51.638464524192386,44.918075224728454,51.30289403074312,-184.81025212586974,55.90024859711701,54.46459303597794,57.352415772390486
2025-12-12 18:14:34.262440,Right,-67.78427425223003,-79.86426695337195,-81.17228374671322,-64.57252543796858,114.15991593882791,-64.37870002989371,-76.44477508618002,-67.56549930243727
2025-12-12 18:14:34.266499,Right,-72.59233708654642,-70.28845499379622,-77.51537920465489,-72.57379921655502,165.6240376020687,-66.99110575357668,-67.83463755603134,-64.11057793529926
2025-12-12 18:14:34.270496,Right,42.816728924294466,53.987870905042655,40.287589324535475,36.592709865009965,-133.63947841029585,47.35652952942269,57.088014834370995,53.77649045564294
2025-12-12 18:14:34.274508,Right,59.18908471401619,56.363341315655816,47.62909675346782,57.3031311229488,-227.60858136624665,63.750591867374624,62.59584208660837,62.85218703765804
2025-12-12 18:14:34.278523,Right,-51.812939711849594,-66.44651561937235,-67.69615977589274,-45.217664689080266,54.46785853586289,-44.02181570768698,-58.21012637781314,-50.46538794081516
2025-12-12 18:14:34.283497,Right,-75.75085973119121,-79.74013456297644,-84.30890597674625,-71.36735519986723,175.3429704192631,-65.86546045582554,-72.76567175168225,-66.6508467144854
2025-12-12 18:14:34.287550,Right,40.734678947706016,47.207114519007064,35.25579740954345,36.235903281820356,-105.60171280103168,48.462357341740244,52.25855679181086,52.17862442210071
2025-12-12 18:14:34.290514,Right,87.70645532153458,81.27594035716197,71.64280610642527,82.47073601112697,-280.8946476203564,92.16792936389083,85.77063464495495,87.82627207901578
2025-12-12 18:14:34.294538,Right,-15.981532343462732,-38.818876475096005,-41.53497106802206,-16.2267810819053,-42.95557166009894,-13.02757402014231,-35.77818926891132,-26.447951546179866
2025-12-12 18:14:34.298483,Right,-71.30713188693562,-87.91123740158025,-93.20606198585301,-75.5855051000035,142.4610151494926,-70.52270061091895,-88.88887368799351,-79.99712300933925
2025-12-12 18:14:34.302555,Right,27.031550371133108,23.527518341067662,10.027807745816972,11.456252925682747,-89.27338781292201,23.239246305294728,18.90349460798643,21.891712236094918
2025-12-12 18:14:34.306585,Right,92.37338547833042,81.47922743573872,69.23455733016272,74.77179027082093,-317.0278794706537,85.54255766665119,76.48495554342117,81.39268749959228
2025-12-12 18:14:34.311593,Right,-4.018888645070547,-30.210679753038676,-33.45968318410269,-12.981174692531113,-121.5180838054439,-8.835775713559087,-34.1793656334612,-20.71314965791953
2025-12-12 18:14:34.315581,Right,-89.46752525445754,-110.25690587210147,-112.25891676057108,-95.43928173435506,128.953787180355,-90.35081659411935,-114.63173457612265,-100.21686510664995
2025-12-12 18:14:34.318592,Right,-9.155431098497502,-13.50544456931766,-22.72622920287722,-22.041764604968193,-34.60492958589748,-8.452844582851867,-18.119656434113494,-11.33496350195037
2025-12-12 18:14:34.322564,Right,87.49423303855929,80.07758046358231,70.18262772016897,72.55674089188096,-307.8895872848807,89.24107947709217,78.19864696300101,83.22318517693225
2025-12-12 18:14:34.326616,Right,26.40612913790119,1.8734099430448623,0.3496223621623358,19.781875470061095,-186.47853002384363,31.978434681749604,3.612502786649202,16.287029333437204
2025-12-12 18:14:34.330625,Right,-70.33268408983349,-94.55392574839061,-93.32475205278206,-72.25601373225891,89.72567004694429,-60.88284428527459,-92.4423213858754,-76.2511165735018
2025-12-12 18:14:34.334676,Right,-19.604631792641158,-26.94751060141425,-32.9689380002128,-27.200902376804606,-10.397405612442526,-10.973016155743608,-26.90274939943083,-16.79785991951485
2025-12-12 18:14:34.338638,Right,77.35159283771372,72.31727642325404,63.01340119536326,66.9833458197977,-309.60947729267355,82.27397515499615,71.66787005210426,78.43487779402517
2025-12-12 18:14:34.343708,Right,27.111770798979705,6.633154746542459,4.013893580318836,24.739123334809847,-250.91467407121672,31.074729563917572,6.456009579311285,19.40360448088677
2025-12-12 18:14:34.346671,Right,-88.4934401906221,-111.9996746007364,-111.18118512333967,-85.30311607548401,59.34191499657754,-82.64336341394483,-113.84583476565058,-96.48535889017876
2025-12-12 18:14:34.351706,Right,-60.122655714761095,-67.84065410079347,-74.19919785736784,-63.82482232037819,47.038896261685295,-54.39451413760071,-73.15043450805751,-60.81568636050076
2025-12-12 18:14:34.354696,Right,60.42996780143403,57.628770353510845,46.19253717058018,49.638090873686906,-259.705533236207,63.172907318292346,50.94346848050918,59.402209569356955
2025-12-12 18:14:34.358703,Right,57.424710446699464,38.511023053993995,33.31680120980309,51.798531895624365,-287.10735426862084,58.43633284106909,33.14076338663108,47.50237030604944
2025-12-12 18:14:34.362833,Right,-47.571342333220855,-75.05722512520515,-74.27070743250442,-45.679496059983194,8.404169949164498,-45.999974849810314,-79.98887974799982,-60.22718014668476
2025-12-12 18:14:34.367707,Right,-41.8934927459095,-56.58948072595376,-61.05018011190623,-43.92679269411701,59.910237673291704,-41.086607294271744,-63.00331963885765,-48.96746982780627
2025-12-12 18:14:34.371728,Right,73.43435910631615,66.04259030011781,54.99347565771677,63.225088164303315,-245.06064951920416,71.51068055414362,59.4266421276443,65.4175077428082
