timestamp,label,FC3,C3,CP3,Cz,FCz,FC4,C4,CP4
2025-12-12 20:48:52.009647,Right,2262.152090879048,2460.140785682453,2495.933617572918,2354.729589497098,1962.0950322724364,1996.1843519460283,2305.116532631479,2618.116987576471
2025-12-12 20:48:52.030746,Right,12180.80405397404,13248.569289139108,13440.963166169291,12681.71228962372,10563.789579133809,10750.615352915816,12414.218593745252,14100.095477012144
2025-12-12 20:48:52.034765,Right,27904.389941651694,30357.365249622424,30796.732896397945,29061.904868033413,24191.75953413812,24636.58111016182,28447.933123376075,32311.104730592055
2025-12-12 20:48:52.037709,Right,34888.93567326519,37973.64211988056,38519.0734806232,36362.38485473365,30221.53570951361,30826.276875187054,35591.57247898757,40422.719929137646
2025-12-12 20:48:52.040740,Right,23633.47942300907,25757.24766002263,26117.783818410404,24683.044902910653,20425.053451507752,20926.498851348224,24152.86890757792,27426.59829325184
2025-12-12 20:48:52.044788,Right,2710.9149739600252,3017.4027919473883,3039.9325052747445,2926.8126848897664,2276.561486582941,2480.738683708216,2846.6258834711334,3227.91949883863
2025-12-12 20:48:52.047743,Right,-13060.432240249298,-14134.992487312702,-14365.477465807751,-13490.225776785548,-11360.931524891494,-11443.316129055922,-13232.124329855782,-15023.986485603382
2025-12-12 20:48:52.050753,Right,-17055.448650459934,-18487.54605305585,-18778.802494946285,-17662.212118385825,-14788.92281773605,-14984.52613108058,-17315.704207866685,-19651.997593399603
2025-12-12 20:48:52.054833,Right,-12217.878634934255,-13234.070808592252,-13442.784454020264,-12640.22797330172,-10600.18574825069,-10723.80056458892,-12390.415747399442,-14059.535082521441
2025-12-12 20:48:52.057844,Right,-5287.778508473886,-5702.723613412818,-5797.549829450902,-5435.227511552628,-4611.909261297085,-4609.875322919281,-5329.129355918791,-6047.5467002873775
2025-12-12 20:48:52.061792,Right,-1525.7644109362736,-1614.3109789403388,-1648.94869670365,-1523.8290485533653,-1343.2311624485883,-1293.434310274548,-1499.896143552498,-1699.7948560114019
2025-12-12 20:48:52.065876,Right,-2326.525882348651,-2484.7288396395743,-2531.6754041698296,-2358.678735899972,-2018.5753537460696,-2003.9935695602326,-2319.888356027077,-2626.588931501494
2025-12-12 20:48:52.069894,Right,-5455.047408910003,-5885.453202060075,-5979.193555579754,-5615.370128273964,-4736.735188574414,-4764.278904763516,-5507.14104624209,-6246.82086138404
2025-12-12 20:48:52.072889,Right,-7431.986131078331,-8037.420202550595,-8158.9152239836985,-7676.514063523035,-6467.097780486918,-6508.454483615817,-7522.689178038738,-8540.763418088201
2025-12-12 20:48:52.076888,Right,-6610.6566229350865,-7150.610783816781,-7256.771495465189,-6829.381742258556,-5745.2207366164075,-5790.142221199581,-6693.849741299753,-7598.729143744451
2025-12-12 20:48:52.081839,Right,-4358.048957606894,-4706.6289313180605,-4775.107745741261,-4492.076671821531,-3769.607058001333,-3810.4963338579983,-4405.476672717137,-4994.012897971203
2025-12-12 20:48:52.085904,Right,-3174.583458016976,-3421.5072321578627,-3468.75372311892,-3263.164203805849,-2748.7707806230756,-2766.6680794011336,-3197.3734442942077,-3622.3388168455567
2025-12-12 20:48:52.089928,Right,-3855.4185869003413,-4163.285452498007,-4220.425163555192,-3973.5230147722177,-3362.1801523495233,-3363.9956904898863,-3887.4358476864873,-4414.100718573085
2025-12-12 20:48:52.093920,Right,-4908.782750331215,-5313.325812068768,-5389.196195750264,-5075.720442080637,-4270.934077037033,-4297.163187968661,-4967.057448886102,-5644.711199885467
2025-12-12 20:48:52.097933,Right,-4694.399430977879,-5085.820188336773,-5160.605418562307,-4861.243831463158,-4055.781387513387,-4117.6223247546,-4760.531560441712,-5407.678243534174
2025-12-12 20:48:52.100979,Right,-3456.9308047894156,-3743.506908570067,-3798.4049311348936,-3579.4403339669807,-2977.17590965156,-3029.9362987844506,-3504.7627581898123,-3982.4949582901318
2025-12-12 20:48:52.104972,Right,-2762.627491673338,-2991.217199683306,-3033.661958520999,-2859.9620379272383,-2399.4329359680414,-2415.2812353527406,-2796.724667254486,-3186.672224326292
2025-12-12 20:48:52.109931,Right,-3295.3450750746997,-3575.6763579791877,-3626.790945964167,-3418.7551906562876,-2868.262837604503,-2888.5666357842274,-3344.6713605064433,-3813.042128658388
2025-12-12 20:48:52.113987,Right,-4005.515149241546,-4353.76397054852,-4417.230616904097,-4164.292642234359,-3459.5056571096648,-3526.7985384935746,-4079.479202790535,-4641.0988172532525
2025-12-12 20:48:52.118035,Right,-3646.5826600827277,-3966.1551120479126,-4023.2157508006785,-3795.3788260626607,-3136.9715566966916,-3218.743969369796,-3719.468043216504,-4226.6286370502785
2025-12-12 20:48:52.122044,Right,-2501.65605139907,-2721.592834386276,-2758.6271576704457,-2605.465150559321,-2166.922992628766,-2208.0252734913956,-2550.5942747722147,-2903.744109889958
2025-12-12 20:48:52.125129,Right,-1943.1674572958145,-2116.135521597462,-2144.140085495077,-2026.4965956738451,-1697.7572226545308,-1714.3743106871843,-1981.6191513817757,-2263.1987548994366
2025-12-12 20:48:52.129096,Right,-2507.901159286499,-2733.169201795594,-2771.3066320689395,-2618.7817612417275,-2167.0566868667956,-2218.2686179982265,-2563.064451525337,-2919.3016600511037
2025-12-12 20:48:52.133040,Right,-3184.1593399768462,-3469.2257159861038,-3517.521670935792,-3326.2508258625166,-2733.6098760315217,-2820.2106078510405,-3254.7314799191663,-3697.1100491448306
2025-12-12 20:48:52.137093,Right,-2851.9773533130065,-3106.6556985935895,-3147.1972304341616,-2981.339020124753,-2459.3811765172286,-2525.532731380197,-2911.456465265248,-3307.0648301416077
2025-12-12 20:48:52.142099,Right,-1816.2239678448532,-1980.5495515023358,-2003.444732259144,-1903.9195484675001,-1579.8668083475204,-1609.4224294761661,-1853.1258824157994,-2108.3665769144427
2025-12-12 20:48:52.146087,Right,-1322.3977320104605,-1445.932163825375,-1461.9861369860591,-1392.3631199352676,-1140.4053698179778,-1177.5748378721764,-1354.3768302877434,-1538.8913134092
2025-12-12 20:48:52.150096,Right,-1815.1187020038487,-1983.5165302357636,-2007.8908153363736,-1907.72373238008,-1550.1911157644354,-1617.0201742906356,-1860.6422337843105,-2108.505386445322
2025-12-12 20:48:52.154052,Right,-2388.8249375143787,-2607.9829395443667,-2640.1990446426207,-2506.2033355323365,-2059.0205704002874,-2122.3751786256908,-2443.6450631669722,-2772.7239514823304
2025-12-12 20:48:52.158109,Right,-2101.0070292040473,-2296.7120578654576,-2323.4903582588304,-2208.7173837560695,-1829.113780614105,-1867.4973627943546,-2149.807541385293,-2444.5273891625693
2025-12-12 20:48:52.163139,Right,-1234.8960691154934,-1357.7352405824931,-1371.5150674195029,-1310.9394785837503,-1069.572569035343,-1109.2830263066571,-1272.9132246826775,-1446.6947321030311
2025-12-12 20:48:52.167167,Right,-819.8553786188131,-907.6089335283032,-915.2467679205583,-881.4675623383373,-689.8666162025183,-750.4932127761422,-854.6015446473612,-965.0276249782182
2025-12-12 20:48:52.170147,Right,-1204.7592380498536,-1325.5535814901814,-1338.3470128517365,-1281.7177244810155,-1030.2213135088095,-1090.4932953794487,-1244.324731865432,-1407.9021527639125
2025-12-12 20:48:52.173181,Right,-1663.6757961635012,-1825.6981894442579,-1845.5933358399197,-1759.0897908206098,-1447.5386199393542,-1492.9148852387443,-1709.7814117746893,-1942.6491874810308
2025-12-12 20:48:52.177169,Right,-1448.5638500096975,-1595.679392864462,-1614.2819841624005,-1537.8320525803138,-1253.6712779495865,-1306.6441911495058,-1496.5204557219986,-1701.2239154183771
2025-12-12 20:48:52.181138,Right,-761.7350624538958,-851.8655943563208,-861.8218256835826,-826.2980384433176,-634.6170676997863,-707.0828506810358,-804.235062376014,-910.2962006293237
2025-12-12 20:48:52.186208,Right,-395.6758153944975,-453.8640849451767,-458.1462677558884,-445.9858144465834,-320.53642957890406,-384.20237886649556,-430.9969981671311,-487.4841588148847
2025-12-12 20:48:52.190233,Right,-653.7750707999803,-734.6105946712196,-742.4995358692249,-714.0856991547626,-569.177191739087,-608.0745853068074,-690.5649629151449,-790.2210908314446
2025-12-12 20:48:52.193233,Right,-1014.9444865988335,-1130.16971779929,-1145.074279960245,-1091.76121747063,-882.6470050277421,-929.3687140828115,-1062.3290580020985,-1215.1653380350908
2025-12-12 20:48:52.197243,Right,-885.466960154241,-992.4303443948738,-1007.4645921181655,-960.2063355833525,-743.7866841073846,-823.4873421358061,-938.6171099233907,-1068.7727595927427
2025-12-12 20:48:52.201252,Right,-363.46284461929463,-425.0308372628642,-432.7572236803826,-417.85216756362934,-284.1265823491849,-365.3958427205798,-408.6777061658795,-464.3326044260757
2025-12-12 20:48:52.205268,Right,-43.59964368195506,-76.71526599128265,-79.8251932291314,-84.04209966538474,-29.80709385476075,-77.44354630686576,-79.29330096789636,-96.93324470857624
2025-12-12 20:48:52.209274,Right,-206.54682712012436,-256.09864773624577,-263.368127462978,-254.79081193788443,-180.35275165975327,-217.89406604127726,-246.78210174909327,-292.5941059013712
2025-12-12 20:48:52.213299,Right,-488.09918318432756,-565.3910246262676,-578.2514332684223,-551.0857995845727,-403.1327551723225,-469.86264720885083,-540.1232252907939,-622.233632638061
2025-12-12 20:48:52.218277,Right,-410.7151040881872,-481.229193233361,-490.8435370096704,-471.660760412924,-324.4791114028776,-403.496644128114,-462.18042901490116,-529.7169633181184
2025-12-12 20:48:52.221301,Right,-13.899934716522694,-47.21273579430999,-46.59755292418413,-56.56947843381204,-0.25553266861243173,-49.20571953832405,-51.727625848550815,-67.14035685366252
2025-12-12 20:48:52.226282,Right,246.91637526958948,237.49451853596838,244.38703146058833,216.1487131359172,211.9570267534,183.0301185877761,216.3679448645562,233.88096198998392
2025-12-12 20:48:52.229330,Right,136.49131824576762,116.85565876858891,121.95537228148896,99.54422655887902,134.1179490617942,80.6733052264317,98.58077859613695,105.87045157677494
2025-12-12 20:48:52.233267,Right,-77.27404726462555,-114.621111026383,-112.1413915202138,-124.39599563324009,-35.89461226623098,-111.38786320909276,-122.31184399072663,-137.0180078143021
2025-12-12 20:48:52.239355,Right,-33.92482944771473,-64.90378679640708,-59.338002359698294,-78.09904845932033,-16.27180612401571,-68.25892179802759,-73.4484393321327,-82.3107035033172
2025-12-12 20:48:52.242338,Right,239.33014097964042,232.9765271416254,244.40822245078743,207.67401318183693,199.55000334701617,178.5256107596506,209.2543610631983,233.76526241502143
2025-12-12 20:48:52.246346,Right,427.0850503149268,435.4205096074875,449.747119950669,402.46381833258783,372.94955362678957,342.45548131511896,398.33455471381603,450.36191463907016
2025-12-12 20:48:52.249365,Right,385.32828275848124,389.10868613803905,403.7315069314827,358.64316713068547,354.4912078987072,302.1778557192665,354.3043045135928,406.326724942337
2025-12-12 20:48:52.253357,Right,287.37522598952637,283.6535036035748,299.9024479371765,258.5277598672701,257.7846609131593,218.93996131728454,259.96276817834354,298.9246939816454
2025-12-12 20:48:52.257395,Right,326.081456397922,326.18515813611157,345.77330772673304,300.2614337739069,270.84775411128066,258.31430012983765,304.54025398753583,345.3679810691683
2025-12-12 20:48:52.261396,Right,467.86070315407414,479.6157750328275,501.6171243119752,446.68824242267874,404.19100440734474,382.30487661394,446.4878132315789,509.12378376859124
2025-12-12 20:48:52.265417,Right,567.1415348328592,588.7912177669932,611.4478158706916,549.1457060748071,515.1869292377669,466.5764899313217,544.1680675891403,627.2973559201055
2025-12-12 20:48:52.269433,Right,580.8250479067792,607.4583458456909,629.8338425316615,565.727517635707,523.0542911040538,482.194082375383,562.1383761122997,647.0495804346574
2025-12-12 20:48:52.274469,Right,569.1251556123316,596.7367395629699,617.5823202799656,556.4348081271746,489.2725205014285,478.85727634088835,555.9569656445819,630.8770552236238
2025-12-12 20:48:52.277403,Right,575.4240957319271,601.2364007988654,619.261966095888,562.4353264734673,495.56005322307465,484.3152076518745,559.9830117298407,630.7460704366094
2025-12-12 20:48:52.280477,Right,608.6719134122832,634.1267042967374,650.469181685301,594.3597220180673,546.4576401637751,507.5334934614366,587.0094465709408,664.9845322031179
2025-12-12 20:48:52.285420,Right,684.9409721987322,716.4755277507938,734.0253852057504,672.6107257666299,612.2907257412444,572.7714198813192,663.0280894457828,752.4259424809134
2025-12-12 20:48:52.289497,Right,789.659908739326,830.7595497451839,849.7791367024765,781.4682559778448,679.0179760139436,667.5135359829874,770.7899844068452,869.4321686904295
2025-12-12 20:48:52.293517,Right,842.8617525357986,887.1375348588335,904.149232641561,834.6334923659451,721.0336190966191,711.8104261492263,819.7201831304119,923.2108566657989
2025-12-12 20:48:52.297541,Right,795.7823589423206,833.9047800810076,846.4541673287749,782.0787524837651,702.7670984708238,661.8623986413586,762.5770023025107,864.6655859094462
2025-12-12 20:48:52.300544,Right,731.577626610233,764.2102058444871,774.429876629205,714.1788554695086,653.2383094683755,601.326133112656,694.9456579605467,792.2034831326455
2025-12-12 20:48:52.306524,Right,774.1068240149762,811.7282735419576,823.2899837603327,760.4547268294846,667.6392770502134,643.0643609979888,743.5164652144304,843.2280871196417
2025-12-12 20:48:52.309525,Right,906.2633028599666,955.3136346588144,968.8750163706718,899.9785660373745,772.8707149251131,763.7132239319035,881.3085390373599,995.7992006349377
2025-12-12 20:48:52.313603,Right,976.5157669602195,1031.3053575213999,1045.139968157746,974.0824256985215,855.5025069127441,825.5386794395163,952.5872814945178,1080.6130726822885
2025-12-12 20:48:52.317615,Right,906.7779838886345,957.6007828575093,971.0048234857386,903.8101556225447,808.4937316084979,766.3774831368355,886.1104909620481,1009.6344743048539
2025-12-12 20:48:52.321637,Right,806.2470558941131,851.7377526721684,865.5858554242877,802.9091469610576,702.9851583167911,685.0518097801832,793.2394457295304,901.6538666416891
2025-12-12 20:48:52.325639,Right,825.7556805394124,874.1465634077322,889.3675157083198,825.1699280036846,705.3230801130412,705.6691477906425,816.9454659346957,925.7053218742367
2025-12-12 20:48:52.328667,Right,957.073751780903,1016.3648252137937,1033.7900342616485,961.5269961534068,835.9978268895065,816.5308995479718,946.350186979631,1077.5167924520792
2025-12-12 20:48:52.332675,Right,1046.1140246009454,1114.5569383237744,1135.029982692562,1055.4932796342764,929.5288242165698,891.5280179143883,1035.7241811610293,1184.6234684538795
2025-12-12 20:48:52.336696,Right,990.9383633766556,1057.8642166395439,1080.6497189820511,1002.4651485114591,866.5500197068322,848.3855733633973,986.6589682623744,1125.3624465093017
2025-12-12 20:48:52.340635,Right,870.0536884409375,927.7286955881864,950.2316633140435,879.9785933975363,743.8758886000142,748.1865732031874,869.1365232728422,985.2691002399661
2025-12-12 20:48:52.345725,Right,848.5275192131521,902.9135907826712,923.9723632229725,856.663414844661,739.561936022481,726.9749064713251,843.8768262816593,958.7946712134872
2025-12-12 20:48:52.349720,Right,972.3211531037232,1037.0819283968303,1058.7628220965853,983.017360001686,868.2963713060599,830.7223157502012,965.5182305672206,1104.415637527476
2025-12-12 20:48:52.353721,Right,1096.812263463973,1174.1888848089147,1197.8454000102356,1111.6425144624664,964.9076536939247,941.1899348546285,1094.497792301001,1251.1537847605068
2025-12-12 20:48:52.356744,Right,1059.1894097828772,1133.8345195609145,1156.520071836072,1071.516690828139,907.2579268472036,911.0448445018847,1058.707023330615,1204.5364758261712
2025-12-12 20:48:52.360769,Right,902.4641642669449,961.4717850481393,979.9089441379765,905.6204389384948,775.3269205773249,769.9707037674962,894.8548094466096,1017.8417727398919
2025-12-12 20:48:52.364756,Right,843.2496413562912,896.4677995746024,913.080690179253,842.5745909356046,745.1831202971516,712.9999173770193,830.2766365132993,949.6334908639546
2025-12-12 20:48:52.368710,Right,982.715721456334,1051.3586502836552,1071.7356526855147,991.2221874509705,862.1313641992165,838.5162068613572,976.5046339333057,1115.7192898381036
2025-12-12 20:48:52.373771,Right,1145.5038987329463,1232.2088270990644,1256.7690984406509,1166.5014179806458,981.0828727749176,988.6233727390645,1148.7522460023174,1305.2124408782693
2025-12-12 20:48:52.377779,Right,1106.0886631937465,1190.3582080568885,1213.449678605888,1128.7294627167284,949.5385274194414,954.2023899655323,1106.9853900443995,1256.5441601693165
2025-12-12 20:48:52.381739,Right,912.5812011884991,979.9308523221407,998.2113795310725,928.1578160107601,807.0405796264531,779.5229007273447,904.6714710901724,1032.5796724655665
2025-12-12 20:48:52.384834,Right,832.4817363226321,894.6547628802946,911.5645992911886,846.6722742632264,741.1276966094738,711.2929616919719,825.5101360919653,944.4341329385061
2025-12-12 20:48:52.389804,Right,971.4668246482033,1048.046973251272,1067.7003682762152,993.9176490587415,838.814987215912,842.1704012091504,974.4028034564108,1107.8447063334752
2025-12-12 20:48:52.393842,Right,1116.9972166161751,1206.609586548875,1227.4390423379373,1145.4429954193765,958.9432482509874,972.9009138924303,1122.963007386541,1274.4257919669617
2025-12-12 20:48:52.396838,Right,1046.4320759769762,1129.805221861694,1147.7568317212863,1070.1162951228907,918.5482765909983,904.7556658398826,1044.6948579683667,1191.9691378020216
2025-12-12 20:48:52.402798,Right,848.4579287914094,916.5339779704809,931.6308916611597,864.1786307322327,753.2445359288249,726.7281013112515,841.2522609375883,965.3734765828121
2025-12-12 20:48:52.406876,Right,787.6292440379038,852.6890650535934,868.4867266020738,803.3815539138159,677.9499122923007,676.7155488617718,784.0356643501436,895.7891667883378
2025-12-12 20:48:52.410973,Right,924.387447178131,1000.9792342679575,1019.1889849836007,947.2815737336641,785.32529542665,799.7809297273634,925.4271911614342,1051.68533125869
2025-12-12 20:48:52.413908,Right,1046.7052692553261,1132.484342635842,1151.6263164721895,1074.8583589473274,911.5191768634832,905.0283170962939,1047.969483907451,1194.0740686310455
2025-12-12 20:48:52.416917,Right,983.5155133627122,1064.9002902267966,1083.3422405417077,1011.4474875408923,870.405634240713,849.8264514763141,986.6029967326904,1127.6128854861017
2025-12-12 20:48:52.420867,Right,827.2512661807705,897.8984200507402,915.5114788741339,853.5931603264762,717.001172530232,719.8239947602851,837.0247393515892,952.3795385519043
2025-12-12 20:48:52.424969,Right,777.0908551528119,844.265504618641,861.7277600246016,804.5609612998087,658.3181897107279,681.6259574213764,791.7044715852244,894.3879246560391
2025-12-12 20:48:52.428966,Right,867.4086695486913,941.5837714765221,959.9858683208004,898.6449470138177,753.577505113557,759.5445824628696,881.9435164278839,999.3738763723522
2025-12-12 20:48:52.433972,Right,949.6735153656919,1032.0237713947427,1052.2695811777376,984.7555537186563,843.3715932636987,831.0891532032983,966.1654093515826,1100.7796887373552
2025-12-12 20:48:52.438005,Right,903.0361889109481,984.2981183901429,1005.2868255909998,938.9897579295794,789.3875540292356,797.2596922449302,926.1104899037164,1053.320878164377
2025-12-12 20:48:52.440966,Right,775.9247395060956,847.1739705293439,865.9466831733007,808.7041379612638,659.8546073050238,693.2326888354728,801.6733924439177,906.2804205298889
2025-12-12 20:48:52.445018,Right,708.0544965772424,771.644358612597,787.2392136240378,737.3223994130967,612.846875365125,632.6452021166915,728.560478630825,824.8724470189773
2025-12-12 20:48:52.449073,Right,758.3498468558537,825.2756639050785,840.8845696910284,789.0833903185558,677.7867296412587,672.2260404081317,775.1239082845859,883.9275770038366
2025-12-12 20:48:52.453097,Right,840.4892055691453,915.6039788089693,934.5094668888487,876.6523273526691,739.8984799451428,745.5087725858903,861.8381345261587,981.4318062444218
2025-12-12 20:48:52.457086,Right,830.5685812187148,905.114434221061,926.0332055846229,868.7904882238945,708.5502491524676,740.7301188631682,856.6782826845301,968.5837646063883
2025-12-12 20:48:52.463111,Right,722.6295175402192,786.4110445771366,805.952980283415,756.7658860802185,621.2807548858691,644.431138295331,745.7269602117594,841.59012479987
2025-12-12 20:48:52.466036,Right,640.7708248235285,697.8359382695053,716.2929481905885,671.8116051931866,574.733569594915,568.9064461184898,660.8200991733465,751.1572020300664
2025-12-12 20:48:52.470096,Right,676.0777599003632,740.079770442564,760.6619930618908,711.405206382391,603.3628428878728,603.2421354922699,702.8538964192849,800.6998619812075
2025-12-12 20:48:52.473131,Right,757.1693217515713,831.9456024793908,854.4922737667803,799.0701911596116,649.5557710550493,681.675148357288,793.2255405901233,898.8569043376483
2025-12-12 20:48:52.477116,Right,744.8545555175515,819.0322599456413,839.1247657423373,786.4739522110904,637.2546345471637,670.9054228632012,779.5959650467848,883.31942890957
2025-12-12 20:48:52.481125,Right,630.4570475425571,694.1666526062181,709.6493972283788,666.1391743775457,560.7411328917369,564.0137123186141,656.920501250308,751.222195768496
2025-12-12 20:48:52.485086,Right,549.755371493171,607.8412553968374,621.9481924367137,583.2792141292011,493.6373016652651,491.8818082336802,575.0651534367353,661.4123962342273
2025-12-12 20:48:52.491184,Right,585.4152382522589,648.0317384976661,664.110389955109,623.3269372677896,500.12091621162836,529.4882757125888,617.1336840873118,702.8178135349881
2025-12-12 20:48:52.494187,Right,651.9599377168342,718.9716884258669,735.8680673646741,693.3627070978982,549.3081857276848,591.4192583633121,684.983878576546,774.2219729714561
2025-12-12 20:48:52.498186,Right,632.3093960939441,695.2169178597396,710.317615672946,670.8399803772336,553.0347840694012,570.2782139006304,658.2646537002875,746.4806570410728
2025-12-12 20:48:52.501202,Right,546.7756543037249,602.0503070070408,615.6176478302805,579.6771872062236,487.58033827110194,491.6979831929784,567.1146421489539,646.005607347237
2025-12-12 20:48:52.505152,Right,501.10853963298723,552.9914018798154,566.5035124226706,530.4723842862295,425.7016170321731,452.680408920045,520.8021197910421,589.6133629167452
2025-12-12 20:48:52.509218,Right,521.1607142566936,572.9578596989159,585.7339503971161,548.2400679575512,428.08151647879276,468.87191364949103,537.5414195064222,605.1537018611562
2025-12-12 20:48:52.513220,Right,537.191551502212,587.8379665773828,598.5632811138639,561.8086547316052,457.9568753950298,476.0401395637309,546.5966303065652,619.6926990232896
2025-12-12 20:48:52.517271,Right,508.36641363508534,557.5702205250273,567.3231488687452,533.164004480117,445.75604672089685,447.7436418363359,517.4277247955324,591.2811386218527
2025-12-12 20:48:52.521252,Right,468.9025067378534,518.7497904872289,529.3665217657108,498.07629964104854,394.6969278015895,419.8834990411997,487.03672339452896,553.0021895845421
2025-12-12 20:48:52.524299,Right,449.7342658090638,500.12810677080415,510.9771161886165,483.1483412969392,363.4465265289182,410.6990754904691,474.7853387899231,532.9695913213072
2025-12-12 20:48:52.528297,Right,436.32592162129004,484.48826885037124,493.97734803752974,469.9397821651073,369.67675043432973,398.8061137753539,459.31454379844945,516.9819684482645
2025-12-12 20:48:52.533224,Right,419.1809080467792,464.92691221134737,474.04006507224403,451.70692328654695,375.6382201331435,381.7970696425764,439.86310413328465,499.4493361711502
2025-12-12 20:48:52.537242,Right,414.8448971515754,461.1369652833091,472.1206890803296,449.04944024793804,359.92975506861694,382.3416731847683,440.42997766879853,496.9455540138297
2025-12-12 20:48:52.542311,Right,416.1420925161801,463.0248045407934,475.3288569272263,452.8803878437029,340.6288275709376,388.9973155159969,446.6529660716187,496.82942782389
2025-12-12 20:48:52.546261,Right,385.92467006947845,429.219171719742,440.32636463665403,422.0748381888261,325.00657710561063,360.61920207343064,413.6884114771383,460.0673961120192
2025-12-12 20:48:52.549322,Right,324.9816080695018,363.01746903033927,373.0548173560528,358.9041784135625,295.3683638339862,302.03444985405076,348.67465909337625,393.5324606221402
2025-12-12 20:48:52.552312,Right,286.93223097187,323.3719562928891,335.3653380596079,321.0246882996289,256.23405831470154,269.14634526509326,313.4310117784189,355.9906786925858
2025-12-12 20:48:52.556276,Right,295.4606680572033,332.7294209494721,348.25963645009324,330.90278113412205,240.1520985190291,279.6767383320257,326.03267998073716,367.6629548887722
2025-12-12 20:48:52.562347,Right,301.6140621562954,336.6269081434002,354.6588847564999,335.26425245264545,247.53433279844467,281.956261552521,328.78381508239545,373.7457851418294
2025-12-12 20:48:52.565358,Right,261.1630341128912,291.1351827738108,311.29462336050346,290.8024183990201,233.82388079259545,240.10706679907162,282.6060280724196,330.6116001778282
2025-12-12 20:48:52.569375,Right,205.96317462052684,233.87611217459198,257.3619287541369,234.43364814145025,183.98636580829043,192.01526190538425,229.29686401644722,274.08247671229765
2025-12-12 20:48:52.573389,Right,191.4091834280407,221.59005114040338,248.03615102753974,221.99692406726535,147.9921686615562,184.79580666392576,220.27598877775017,259.3712169924984
2025-12-12 20:48:52.577329,Right,210.82756846619304,242.6913662541192,269.11949065409135,242.1846040325472,163.71498948708177,202.0471952385269,237.76304862392135,276.7560918526724
2025-12-12 20:48:52.580414,Right,213.91641683364287,243.90510751924012,267.916431886144,243.2627995904768,191.06588992092293,199.44776164495852,233.2687588162953,274.9912588428706
2025-12-12 20:48:52.584364,Right,183.21032029832713,209.77221957186703,231.2736379770795,211.2626541996142,171.25312184076756,172.4054435795988,200.40557958674617,236.74360572895966
2025-12-12 20:48:52.588435,Right,143.6940175916534,166.87132512882818,185.63575945503544,172.5529191249516,116.72222273767693,144.88840729027288,164.36755421035923,186.6859711817233
2025-12-12 20:48:52.593448,Right,116.97928184957709,136.47286143573,150.79737109388225,146.21439901262056,88.65934824419674,125.66362272889819,136.95778048981447,149.77472788712475
2025-12-12 20:48:52.597403,Right,107.02330976253143,124.34662340476643,133.7290667659836,135.85811531508807,104.5550826282124,114.53320125961909,121.61574202985503,136.89009797689505
2025-12-12 20:48:52.601482,Right,111.83389059308683,130.64858597679995,137.17221181560308,142.1149136769818,120.70349299150985,118.52765649155481,125.77896232536295,146.14030745078344
2025-12-12 20:48:52.604442,Right,114.34269015188329,134.42902455385774,139.51139729312854,146.78488556592492,101.59438453504117,126.52480123244459,132.4907348472625,149.28746045695152
2025-12-12 20:48:52.608517,Right,85.82269018539228,100.60850038815988,102.89712235808838,116.22383247723337,61.538648809539154,104.9016754780896,102.09408900007838,109.74072753044311
2025-12-12 20:48:52.612522,Right,33.22216193174245,38.363390342739876,37.16759836953133,57.718282633519266,33.37977102585137,55.51370730099734,40.27811489836313,43.84929969150107
2025-12-12 20:48:52.616581,Right,10.49098672386026,11.138177539163735,9.298913513019215,32.140329015324824,29.263934020360466,34.39763817680068,13.592131791519932,20.2264171273564
2025-12-12 20:48:52.620564,Right,38.95454286108725,42.29066583974054,42.54271135776071,63.32195093220798,36.88657092500944,65.81521983089624,47.89562248409493,57.44596059934702
2025-12-12 20:48:52.625595,Right,55.4525569769321,59.30928378470708,59.87386352493195,81.68545507040108,32.106585178757086,85.54711593029788,68.17944769753376,75.31273143878207
2025-12-12 20:48:52.629602,Right,0.7615923493285663,-2.5877624843269587,-5.357963008515071,23.41280915180687,-1.8378699075547047,33.79322092863731,7.963509783556219,9.060617624607403
2025-12-12 20:48:52.632625,Right,-76.38017613789998,-86.81891347415512,-92.98091001523426,-57.76171708496986,-48.833554888900835,-39.27277509123087,-74.17211898264941,-78.57068497582804
2025-12-12 20:48:52.637625,Right,-82.98906827560859,-91.77127973770257,-98.7813940194319,-63.003339484974276,-66.33241707470734,-42.76329121290473,-76.61771466844948,-83.22647794539807
2025-12-12 20:48:52.640672,Right,-28.749176120676566,-32.04692423972301,-40.2583951993729,-5.599737640703097,-42.13644187024329,9.153603703249246,-17.50438556872541,-22.99619242019253
2025-12-12 20:48:52.644661,Right,-16.93588692540652,-21.770078011613805,-34.703459883865435,3.9186964409891516,-25.758253952255473,15.656852410902502,-10.59225725964643,-15.50505195785081
2025-12-12 20:48:52.648619,Right,-83.72153731773142,-97.08121398836374,-116.02867168092052,-69.64395281823818,-64.13221937429626,-51.20264841854805,-86.19658114132471,-95.7755886821542
2025-12-12 20:48:52.653672,Right,-142.13140202505747,-161.24146225926233,-183.55768544308376,-132.257855702308,-123.46235273915227,-104.39262899302412,-146.29950678246678,-163.63999140262604
2025-12-12 20:48:52.657686,Right,-121.01659260861925,-139.11240909577464,-162.74277728708694,-111.14451402315171,-131.10091636650031,-82.98763859408791,-122.7580002399045,-142.21017540397588
2025-12-12 20:48:52.660692,Right,-73.26192226354033,-89.45555954269366,-115.54292396843084,-63.960944805672625,-89.225771483063,-43.221573124901624,-77.96357752225595,-91.415965651453
2025-12-12 20:48:52.664708,Right,-85.81716594708269,-103.74408310497529,-133.47390242427355,-79.44504457787843,-78.37003366879071,-60.78633513790555,-96.43991721892962,-106.01816024939762
2025-12-12 20:48:52.668659,Right,-147.62228870016406,-168.0999038668233,-200.37368795779184,-143.12016727900482,-133.4039083860116,-116.66753534102463,-158.30190452441457,-174.96299445687328
2025-12-12 20:48:52.672667,Right,-180.02197348010668,-200.53120992338518,-234.31134144804673,-175.0260610168334,-186.63498519922723,-142.01819699557382,-187.40290231697145,-214.83436567898025
2025-12-12 20:48:52.676748,Right,-159.7674461853603,-179.05313557221962,-214.83536130349967,-154.8009015939897,-172.8955431154318,-125.78285097166372,-169.69123663104256,-198.05185925366823
2025-12-12 20:48:52.680758,Right,-137.98732322368596,-156.64149844624626,-193.96629964358,-134.49300593756197,-129.72354705572798,-113.11784261450521,-153.92315833986504,-174.4098905333667
2025-12-12 20:48:52.685764,Right,-153.00325646624697,-171.21193097205833,-207.66875686030107,-149.8089447443781,-134.95639961581037,-127.45381589319732,-167.837759641523,-185.7490757733176
2025-12-12 20:48:52.688772,Right,-189.22796112838842,-207.6142073774754,-242.1926704465368,-184.86308171397832,-188.744483530274,-153.2530815187929,-196.64452963972144,-222.45123400106968
2025-12-12 20:48:52.692736,Right,-218.02768143783578,-238.5764447112233,-273.48403276260797,-214.16079417200672,-224.38169675883842,-176.03061374544632,-223.12816925536754,-256.3371672371868
2025-12-12 20:48:52.696813,Right,-228.449867567997,-251.10507645140024,-288.2423311414127,-226.92999713085737,-213.4386838008577,-190.46882532902964,-237.98270427745229,-269.2986373505628
2025-12-12 20:48:52.700831,Right,-221.2486670749895,-242.2272144163943,-280.2484557909629,-219.97047118180126,-195.30731048477173,-187.89762227004758,-231.27203659044426,-257.95401132443294
2025-12-12 20:48:52.704838,Right,-210.781795405499,-228.1165131564012,-265.2311879783374,-206.93336887738178,-205.75575606492202,-175.27521895823907,-214.20689258130005,-243.53014161532155
2025-12-12 20:48:52.708847,Right,-223.99412862308964,-241.78214091358677,-278.9756857613975,-219.36389714903999,-232.21275324447197,-183.81811284994546,-223.51388148767,-260.80314550442563
2025-12-12 20:48:52.713829,Right,-264.1685486516217,-286.5057773859153,-325.1382618649368,-262.27270721492823,-249.45650805805053,-222.15282107193707,-266.371117791954,-308.03084043490526
2025-12-12 20:48:52.717867,Right,-291.2202475755912,-314.72068620882055,-353.0080966901296,-290.68808301608806,-255.03979655257717,-248.22806888610648,-293.08964285854745,-333.50990825128974
2025-12-12 20:48:52.720806,Right,-276.8188454734336,-295.23123329917144,-330.3979337284254,-273.2139041860064,-256.75604339534766,-231.14904050661426,-270.3844881120167,-309.0266020272247
2025-12-12 20:48:52.724880,Right,-259.21189328427135,-273.5829427696299,-306.0855924056086,-252.76874844363192,-259.90164391565486,-211.5607316733076,-246.33829398854868,-285.32048140329425
2025-12-12 20:48:52.728901,Right,-290.7513820997556,-308.0364903358568,-340.23138627485605,-286.3196315893874,-274.4252805984288,-243.28234761614294,-280.67156524829625,-320.74778218442225
2025-12-12 20:48:52.732920,Right,-347.3391792968614,-369.4371984973259,-401.1498290070158,-346.39811280461436,-303.2410678699089,-299.45880002997,-341.20008929193136,-382.89201929434785
2025-12-12 20:48:52.736903,Right,-357.1319385897077,-378.6429341316689,-407.6987702618062,-355.80840771459043,-322.53861634849454,-307.98838052405335,-347.63913014458376,-391.9911044378241
2025-12-12 20:48:52.740949,Right,-316.126410967001,-334.12342387856916,-360.60684186729486,-312.24543219825136,-309.0377178429335,-268.80829346345854,-302.2496056286909,-348.1817832220986
2025-12-12 20:48:52.743950,Right,-299.2673082553665,-317.9882257237623,-344.3007129205216,-295.7446156904625,-285.3469880489283,-256.02944229819695,-288.42701245157514,-333.5255715046951
2025-12-12 20:48:52.747964,Right,-341.3059241436713,-364.1096939459385,-390.87280163244577,-340.29535283945734,-295.3872217643657,-297.1430460548436,-335.05037272087066,-380.7117720557726
2025-12-12 20:48:52.752973,Right,-384.297653413465,-407.4540468059713,-432.75550670412485,-382.93455022075796,-333.733549696306,-332.77152363734785,-374.48685872534406,-425.1464554051927
2025-12-12 20:48:52.756989,Right,-376.1996153772343,-394.9971697717847,-418.06148125161417,-371.4671081654378,-348.70491858010064,-319.99623966842773,-359.417280598107,-414.69853235274786
2025-12-12 20:48:52.760953,Right,-348.2852358953678,-363.9789309838088,-386.48073638632195,-341.896617267339,-323.07410530067864,-295.61137403247994,-331.8410204311949,-385.57408851844957
2025-12-12 20:48:52.764997,Right,-348.8939975555986,-364.9275316321291,-388.0154859201284,-343.5740245244815,-299.79367141769035,-300.013756907254,-337.23552615431254,-387.0959021736053
2025-12-12 20:48:52.769103,Right,-364.1176080076839,-380.0512847211794,-402.94511947396677,-358.94661069492577,-310.32239618734457,-310.93508696521167,-351.24383324815426,-402.9119120222167
2025-12-12 20:48:52.772026,Right,-358.5353366730269,-372.65382333874004,-395.1076983885723,-352.1166688078665,-327.42406067519914,-298.4661505770928,-340.48539921158226,-398.2574621179956
2025-12-12 20:48:52.776082,Right,-344.6337337738951,-358.74833702878095,-382.00998887006426,-339.3554899219889,-318.4783654373023,-285.0298811382672,-328.2822771589854,-387.6347930735792
2025-12-12 20:48:52.781032,Right,-353.5886137600173,-370.1001426829607,-393.8887310522259,-352.275616401399,-301.85863430413883,-299.7425037502544,-345.0880039827316,-399.76921259163646
2025-12-12 20:48:52.785118,Right,-373.15059038071195,-390.32198739086743,-411.5778927736101,-374.2375769322389,-310.0772743752459,-321.1111335643218,-367.37494779768167,-418.7961432163138
2025-12-12 20:48:52.789066,Right,-372.6650124491425,-387.9071638014866,-404.6254221282434,-373.1434350158088,-331.302371299942,-318.0457845721976,-362.9891800939222,-416.39161585090915
2025-12-12 20:48:52.793081,Right,-362.3412193338736,-377.6132929488085,-391.6198482228792,-363.26746594539145,-333.08867602271494,-308.0081740525202,-352.4821075150394,-407.6951444125734
2025-12-12 20:48:52.796100,Right,-369.80964720988413,-388.4773794267676,-402.3474884730531,-374.2169675420737,-319.01743576524314,-319.4028481331188,-366.06644087971654,-419.05859430890996
2025-12-12 20:48:52.800125,Right,-381.5080361023429,-402.08231673948467,-415.6450730005745,-388.52480900025694,-315.7649994692183,-332.3979442563141,-380.3875140318414,-431.3455633331905
2025-12-12 20:48:52.804111,Right,-367.1501421026769,-385.71785473887576,-397.98562930029584,-373.1079798571882,-322.1621325969463,-316.1382340605487,-361.5667517790571,-414.09150276344735
2025-12-12 20:48:52.808157,Right,-344.0585235785693,-361.174924751278,-373.4869705187739,-348.35707332903985,-317.5070440869895,-294.03038297075545,-336.02108171366854,-389.7728945983108
2025-12-12 20:48:52.813267,Right,-354.8956717453548,-374.19161201891256,-388.3932389594265,-359.71643189439783,-308.41054734634236,-308.8043422201881,-350.4596625508857,-401.926667837135
2025-12-12 20:48:52.818199,Right,-390.795296632743,-411.76344438502565,-426.8113208592986,-395.5937189575634,-318.95486061868723,-344.21248960861703,-386.9835863515618,-437.0331720219692
2025-12-12 20:48:52.822129,Right,-400.62808927102014,-418.87221666576806,-432.4876459648367,-402.3081825316185,-340.10553535434883,-348.0158546502935,-389.8229795922525,-443.18619129719445
2025-12-12 20:48:52.825171,Right,-376.21626151294913,-390.80685685836943,-403.50335533183534,-375.07988348498475,-338.56235289317556,-320.5835855844198,-360.73650662595173,-417.66017629706766
2025-12-12 20:48:52.828212,Right,-362.653926268511,-377.31460850167787,-391.5332571938634,-362.8960646527121,-315.4839339311584,-310.9434407806839,-352.243154730706,-407.82475175737636
2025-12-12 20:48:52.832166,Right,-377.09121212671744,-393.5037996881874,-409.4420352402376,-380.44693195883883,-307.2569770873524,-329.0739848592784,-373.1235538707115,-425.99607539724093
2025-12-12 20:48:52.836235,Right,-383.9135035916697,-399.7088336769957,-415.3622421876644,-387.949566802301,-323.3414743572357,-334.3098787505878,-378.83591770764906,-433.40067580970936
2025-12-12 20:48:52.840283,Right,-365.17827813868644,-379.73966333520366,-394.6592033831985,-369.21393090242054,-331.31528324616374,-314.84843347244896,-357.76756139227655,-415.62026158941444
2025-12-12 20:48:52.845207,Right,-352.1434701666003,-368.5930297775776,-384.0523561259033,-359.49666282592807,-315.1981050306349,-307.56917225546204,-350.0927716357983,-406.1117574959062
2025-12-12 20:48:52.849286,Right,-364.66961594391614,-384.1044121022569,-399.5454793412937,-376.7293359218165,-302.9611794924713,-326.2634999041911,-369.81339060969185,-420.3836678973166
2025-12-12 20:48:52.852233,Right,-376.36858785757795,-395.51908306451514,-408.52907480846625,-389.43532346747816,-316.06295442191185,-336.77468494320055,-380.29201991687296,-429.31294335378334
2025-12-12 20:48:52.856304,Right,-367.6088866586797,-384.8377411078545,-395.2767699318938,-378.5999675359344,-332.7716755938018,-323.0868461452774,-365.96318029385293,-418.1005450859666
2025-12-12 20:48:52.860323,Right,-360.6247069380479,-379.1229907430243,-389.74309461168014,-371.3399425370153,-327.5949480221607,-315.28524458780885,-359.6058076961781,-412.77206263982225
2025-12-12 20:48:52.864347,Right,-369.60501981852576,-391.3410654425388,-403.2230917303823,-381.9233296851162,-311.5262901681708,-326.199952290277,-372.94220140890684,-422.5914595363429
2025-12-12 20:48:52.868363,Right,-366.9577633808367,-388.3296500085853,-399.01735253364313,-378.21172583609587,-304.9338369067991,-321.9686705379863,-368.1832112254342,-414.6989801557502
2025-12-12 20:48:52.874359,Right,-338.2213868871331,-355.7383885444142,-363.41032517515123,-345.5516062346869,-302.220962180465,-289.34046080778353,-332.7513328769128,-379.09566811681725
2025-12-12 20:48:52.877381,Right,-321.35765452461783,-337.20231541688554,-343.6211570217274,-326.942523411999,-293.0087838176405,-272.215288509964,-315.3606735228095,-361.00177210906986
2025-12-12 20:48:52.880384,Right,-343.9478189892834,-361.2239230669802,-368.50237866980024,-351.249083578703,-289.0749067137367,-297.4288087114692,-342.8617843329557,-385.7239747153362
2025-12-12 20:48:52.884380,Right,-366.47783959982917,-382.97278803784866,-390.1373698679963,-374.3478471994167,-298.60266140155727,-320.1317515382543,-364.6464970186935,-406.2659889999777
2025-12-12 20:48:52.888403,Right,-343.7382366823731,-355.99558871181216,-361.3483658180339,-349.20108453312423,-300.6598432776518,-296.06764628889505,-334.97664580115816,-378.2171480199322
2025-12-12 20:48:52.892463,Right,-303.55079570622183,-314.0110023604939,-318.60718672862276,-307.94796643115114,-279.41219321102835,-258.2277775009279,-293.2656849063933,-337.22530355281197
2025-12-12 20:48:52.896379,Right,-301.7014148538001,-315.54065652471036,-321.3241167020751,-308.6330517391907,-259.0843716581585,-260.55325500352774,-297.93884266738314,-340.34356648277026
2025-12-12 20:48:52.901431,Right,-328.78930196061265,-345.34974748978857,-351.6848398721777,-337.35647698817775,-266.96335610031383,-286.8580320410547,-328.20746174640954,-370.5637383109424
2025-12-12 20:48:52.906403,Right,-330.25348904461134,-343.84273143520113,-349.00300610112026,-335.8987289615907,-283.4249259560602,-283.69810458889697,-324.2019776861416,-368.85714600852225
2025-12-12 20:48:52.909507,Right,-301.31049764424097,-310.02758891228586,-314.526246573776,-303.03869466867764,-272.6861415101448,-254.5933117980603,-290.6665694862604,-334.601453260635
2025-12-12 20:48:52.913420,Right,-290.37271914002486,-298.04944359266665,-303.27709951170254,-291.73284238786437,-246.18229665933177,-248.76097110606497,-282.47944347478915,-320.54058232344687
2025-12-12 20:48:52.916430,Right,-310.35856522538234,-319.35860228468664,-324.2092020937707,-312.8881625843933,-244.26659269467928,-270.3136347850086,-304.7233736899216,-338.17725491314195
2025-12-12 20:48:52.920526,Right,-317.9797599047888,-326.16170902049635,-328.399395558401,-319.120467672823,-264.5702551738941,-273.12059193040477,-307.7024082352873,-342.57910393865313
2025-12-12 20:48:52.924541,Right,-293.59058116108645,-299.59246992960107,-299.86272901075426,-292.1724642114714,-264.9564479498076,-245.95901684643468,-279.360509768012,-316.413221900817
2025-12-12 20:48:52.928529,Right,-273.977059936733,-279.6566785725299,-280.8604920685757,-272.3893255632138,-237.4634174190578,-230.06428844411857,-263.71390115015674,-297.747302183765
2025-12-12 20:48:52.932570,Right,-283.56203686923254,-289.5187724789139,-292.507725157775,-282.84923649881966,-222.08296032133512,-242.21677710325457,-278.2236040480202,-308.32384683412965
2025-12-12 20:48:52.935584,Right,-294.60740633902606,-298.8181841382757,-301.89455192384776,-292.6465185267152,-236.98481030896073,-248.98276979039656,-287.100745820906,-319.38583766203374
2025-12-12 20:48:52.940582,Right,-282.7787304663798,-285.6413739055861,-288.21415818086825,-279.4192176993238,-248.6211904558586,-233.02561455784598,-272.1430320860818,-309.7359761141706
2025-12-12 20:48:52.944605,Right,-267.71547384851146,-273.13584746269044,-276.38736022426747,-266.6974495695904,-231.30961961770663,-221.61562122940086,-261.63725874957163,-299.3003718571272
2025-12-12 20:48:52.948601,Right,-268.85643280658405,-277.93091030139476,-281.4801284627756,-272.02754610194825,-209.42623610928422,-229.14263784186915,-269.1313139440026,-301.8381147107575
2025-12-12 20:48:52.952619,Right,-269.48889307293575,-278.1003761145985,-279.65968611242715,-273.69649627630133,-212.1657521026209,-229.9482459044084,-267.27136202377733,-297.7851361373905
2025-12-12 20:48:52.956664,Right,-256.5574079807848,-262.09129294380546,-261.39079498895444,-259.2032873694552,-225.91158045257907,-212.76260141038802,-246.8707566834055,-279.7977703626966
2025-12-12 20:48:52.961611,Right,-250.92510795698036,-256.5275285228854,-256.22357273090165,-254.31952239223756,-224.17254369257716,-206.18598388280952,-240.5574135275092,-274.182138076867
2025-12-12 20:48:52.964629,Right,-263.23277397162747,-271.9650000358233,-273.45666765619535,-270.07201619946864,-212.31371289660456,-221.1471706077573,-258.2045711655519,-288.0816631821217
2025-12-12 20:48:52.969657,Right,-263.7332147276029,-273.3618401539279,-274.7865924475482,-272.3379776153015,-208.56051843077876,-223.17051296989666,-259.7383220900083,-286.43393200670835
2025-12-12 20:48:52.972663,Right,-235.6052363886265,-243.5265018044738,-243.32085616490804,-243.60931055864785,-207.8676960254088,-196.6188110911171,-228.26727856358048,-255.52219165232964
2025-12-12 20:48:52.977691,Right,-215.57593155012,-224.38147084554657,-223.81398250779603,-224.68210405192804,-199.09216339344857,-182.29968593188096,-209.98946761526167,-237.99968825490214
2025-12-12 20:48:52.981697,Right,-234.70227682043333,-247.55362097953912,-247.80140683462378,-247.1467090670485,-193.7992340027704,-207.82253234018572,-235.72518478223355,-262.1563776291441
2025-12-12 20:48:52.984726,Right,-258.1300238647964,-272.19056643906515,-271.74577206524555,-271.24249792436603,-202.61971205449663,-231.49431695661042,-259.97267348726746,-285.5327035076916
2025-12-12 20:48:52.987734,Right,-238.91429364774376,-249.39827305346262,-246.9005814921111,-248.4234500200837,-205.61018441739725,-208.5255845465581,-234.62035122339148,-261.6716345413588
2025-12-12 20:48:52.991728,Right,-198.79896271059988,-207.19631921732798,-204.4037016889779,-205.84381496737478,-183.69013710547006,-168.84003037511138,-192.9725921981153,-220.18286417017225
2025-12-12 20:48:52.995713,Right,-192.91225247795228,-204.86688402318396,-203.88511561858468,-202.3895315817208,-158.94250059087062,-167.84582814679015,-194.13675361918285,-218.42247648222838
2025-12-12 20:48:53.000749,Right,-217.17020586063154,-233.5556199355051,-233.11512144992594,-230.1605086553027,-162.41666323959362,-194.2703007341479,-223.52814367064275,-246.11745147639886
2025-12-12 20:48:53.004758,Right,-218.59866134467302,-235.13002982735634,-232.7531536029419,-232.01975012989715,-178.87744354078313,-194.34811661584536,-222.31590338010574,-246.90031107584946
2025-12-12 20:48:53.008792,Right,-187.12929228693247,-202.2589436082635,-198.46849943784764,-200.38567452225834,-169.59244647354353,-165.0818288383889,-189.17002164176665,-214.8403667876264
2025-12-12 20:48:53.012824,Right,-166.66788173490204,-183.25385936698876,-180.3035193362739,-182.56822456483496,-138.36612623860128,-151.59410193137592,-174.2234763102024,-196.47516943293158
2025-12-12 20:48:53.016823,Right,-172.57410472648917,-191.1580121947918,-188.84112423326587,-191.0309849596233,-124.19720063958084,-161.45977295254124,-184.7298695978243,-203.2812890544301
2025-12-12 20:48:53.019788,Right,-168.69960266974522,-185.62040691071888,-181.81839717796538,-185.53298037947388,-133.1589932871284,-155.60967272898415,-177.56132611224893,-196.64524759619962
2025-12-12 20:48:53.023849,Right,-140.63008609157987,-154.55052974831779,-149.26679086196236,-154.400535804627,-131.51858321559848,-127.0545286348788,-145.8885202423553,-166.18599175906274
2025-12-12 20:48:53.028849,Right,-123.54021790728439,-137.94255804124987,-133.27239348430885,-138.20248347945744,-109.4953137828852,-115.38549095531926,-133.04680763441138,-150.15639931027545
2025-12-12 20:48:53.032853,Right,-134.3307643311564,-151.24512323032832,-147.37569748563692,-152.83235122682527,-97.82302683003945,-130.9397754294332,-149.392637792218,-162.0049078881857
2025-12-12 20:48:53.036854,Right,-139.9661595040816,-156.69629720872035,-151.4283321950934,-160.12610281503294,-109.8982605675701,-135.03884838806698,-152.67818928981433,-165.62497630913276
2025-12-12 20:48:53.040884,Right,-120.58981204015436,-135.197227835597,-127.88933482748689,-139.7891790048452,-117.3726393689285,-113.04659757687477,-128.02984733332414,-144.40633833239553
2025-12-12 20:48:53.043869,Right,-105.37421570019796,-120.04688068461837,-112.59854556753999,-124.49460936273681,-101.65755428338889,-100.30728940776316,-114.07933857839089,-130.30619562440552
2025-12-12 20:48:53.047873,Right,-114.83654219377786,-130.76071328867693,-123.95609023130964,-134.60278170573292,-85.6422556663747,-113.35402230644831,-127.46331385785015,-139.76161265256815
2025-12-12 20:48:53.051883,Right,-121.19620551384287,-135.1818303007749,-127.47541180875851,-139.20198375266045,-89.86174280766863,-118.20983784046257,-130.76490505831316,-141.10123511997517
2025-12-12 20:48:53.055903,Right,-102.437481046014,-112.24285310006235,-103.2877052340773,-117.35853651794605,-96.4952951631858,-96.04863331682282,-105.09100850665709,-116.39489712013165
2025-12-12 20:48:53.060914,Right,-86.66150715283584,-95.13635725580389,-87.23574320611078,-101.52366197493393,-85.95037837716518,-81.36042730655754,-88.92676513834158,-99.3773724376224
2025-12-12 20:48:53.065928,Right,-99.89489888807293,-109.95968550717225,-104.33381195296533,-117.30522230797214,-73.88442302908516,-97.91263124870602,-106.73759879160207,-113.86502634035423
2025-12-12 20:48:53.069940,Right,-114.04785608960083,-123.57765599375125,-118.11549925658619,-131.3736002286896,-78.67366208566818,-111.24322070914786,-119.958253699122,-126.2633927129209
2025-12-12 20:48:53.072932,Right,-95.13160639512353,-101.16615155001637,-93.94129844778217,-108.57257481536362,-82.93695617170306,-89.14146665052976,-94.9536562996218,-103.89824385999236
2025-12-12 20:48:53.075936,Right,-64.9861547498731,-69.60142037895275,-61.91063138406025,-75.82919326034607,-64.55400669301162,-60.33657112671062,-64.41563771944493,-74.15501484536799
2025-12-12 20:48:53.079952,Right,-62.406019010581076,-69.35806478728773,-62.86919766740175,-74.51162314554676,-40.31776343291858,-62.458429061458446,-68.23416379361879,-75.20619482366601
2025-12-12 20:48:53.083951,Right,-74.36260552855674,-82.4888280138257,-75.88560969539685,-87.4163877016399,-38.513304280582815,-74.6420266032801,-81.9942856322159,-88.0158443574328
2025-12-12 20:48:53.088961,Right,-62.27863792487187,-67.73648622038309,-58.975343216676265,-72.80151577887591,-48.19931023719255,-57.932928534108214,-63.55178191076266,-73.00666361418553
2025-12-12 20:48:53.092964,Right,-33.79218365199631,-37.00000414898386,-26.830704144202173,-41.59624729503412,-39.102090691856574,-27.805858557811007,-30.978115914331283,-42.83340585487895
2025-12-12 20:48:53.096991,Right,-28.88132130174199,-33.35492163232993,-23.65550263633486,-36.98255081532989,-17.641124835121445,-26.092686569783837,-29.664032180327922,-38.89156838762574
2025-12-12 20:48:53.099985,Right,-47.43722377397353,-52.78038253588602,-43.053397759387735,-56.05429965321673,-16.285202159546316,-45.79718888847856,-50.97577547526453,-56.96018905704841
2025-12-12 20:48:53.104070,Right,-51.58466625894653,-53.776737158186734,-42.40846152568702,-57.76148646330694,-34.746003894426394,-46.90918812714517,-51.63072841020767,-58.46873069106368
2025-12-12 20:48:53.108075,Right,-35.76152416341938,-34.20543681673007,-21.950851592235267,-39.14162674732506,-40.22167164972052,-30.79163673752919,-34.14125857624458,-42.60068959411001
2025-12-12 20:48:53.112016,Right,-32.14825878251577,-30.290101198479533,-19.179159423802048,-35.720787146361545,-24.58642852929188,-32.69601071771467,-36.32217457896331,-42.26539819478057
2025-12-12 20:48:53.117065,Right,-43.42699267301941,-42.007145753887016,-31.5161736808368,-47.70384694414679,-13.22093793944805,-48.22693841980072,-52.03261934494367,-53.98882492794655
2025-12-12 20:48:53.121086,Right,-34.45438819070114,-30.367876113508828,-18.079423436545767,-36.242138032161165,-14.099887884425698,-37.037144635716686,-38.023845661315136,-39.84138906991575
2025-12-12 20:48:53.124090,Right,-2.0868439009063877,4.9324600817635655,19.142376189818606,-0.673329048207961,-6.131364816334099,-1.2108830988581758,1.4252573653357103,-2.3565020857495256
2025-12-12 20:48:53.128074,Right,10.259393621294294,15.898257768829353,29.685238713689614,10.823498585959896,13.361937898036558,10.31263311370276,12.980070395336952,10.455098881269805
2025-12-12 20:48:53.132015,Right,-12.546477472933475,-10.179852313769516,2.368274505250156,-15.401172946381848,17.000021387677407,-13.888427226076601,-13.802614442480262,-12.965832823654637
2025-12-12 20:48:53.138072,Right,-27.987907977425493,-25.17819186009001,-12.330833861604333,-31.59914925560588,-1.6827724300092086,-26.791196577629307,-27.050797859788872,-25.98100857855752
2025-12-12 20:48:53.141065,Right,-8.877490800339729,-2.9549099868745543,10.595453538990114,-10.710360080818646,-11.034297672769753,-5.381394073978299,-3.46337565156864,-4.487584274960682
2025-12-12 20:48:53.144115,Right,11.518602147261845,17.619483997492353,30.253863742866088,9.41920931552886,4.899867740343325,12.090932495571906,14.153299843979767,14.151727640652098
2025-12-12 20:48:53.149121,Right,3.3573299169074744,6.918076408357592,18.470186336606275,-1.0796828224265482,19.14469216213911,0.09557810385012999,-0.6909304147411603,3.2670198644918855
2025-12-12 20:48:53.152112,Right,-5.639540178439347,-1.742272102390416,11.037644731637556,-9.79441272385884,12.197766553377733,-7.5286524851981085,-9.619547850714298,-4.113585104321828
2025-12-12 20:48:53.156127,Right,14.833458512526704,22.478112256067107,37.44614562319475,14.148818514542654,7.08736280008452,15.928583759436151,16.277184260019567,20.702802628598874
2025-12-12 20:48:53.160143,Right,38.609026916121366,47.78825499169761,62.746102856239304,39.86950475888443,24.999413995828945,37.436959620245034,40.52388299891027,46.492230126605136
2025-12-12 20:48:53.164159,Right,31.798368808696978,38.61147213584627,51.78899563392042,32.011411044804845,45.195531022473006,25.830665762274293,29.496427742415108,39.727155362808844
2025-12-12 20:48:53.168182,Right,17.516148372757016,22.881527146790177,35.44290254791849,17.704859996709274,43.75155243105837,11.789472676318837,16.25504860226647,27.111075728666037
2025-12-12 20:48:53.172200,Right,34.16875566661474,41.07225963863311,54.21455999996397,36.88125874570687,38.03456561389612,32.32066439429764,39.4128243716259,45.77895947807701
2025-12-12 20:48:53.177200,Right,64.92592194877216,72.12863489351002,84.5121430659492,68.6768037249276,54.00144736233051,62.76299405811005,71.49755825902685,74.95892306155292
2025-12-12 20:48:53.180222,Right,68.86090650779079,73.01444062337396,83.38913369941292,70.13585074196453,77.07212706675637,62.04062233684817,69.69076329507516,75.44797887594905
2025-12-12 20:48:53.185248,Right,53.91611238339101,55.801113504130626,65.7333004611719,53.124360134563176,77.19118746579625,45.31855161342537,52.3674122201337,60.47567514242837
2025-12-12 20:48:53.188249,Right,58.129072269570315,61.11359146327595,72.53383758783457,58.62444147453061,62.78146963453037,51.56666633835994,61.158752668328816,67.68206182238646
2025-12-12 20:48:53.192281,Right,78.2494743692223,82.00241416404606,94.02568615879864,80.54401778336614,65.38725978434377,70.8776653790992,83.41860853289836,88.59804337308742
2025-12-12 20:48:53.196283,Right,78.74337660495075,80.10683652266744,90.85651948470331,80.52126779878745,83.0054491123592,66.55237921692606,79.12990922736935,87.02425334323198
2025-12-12 20:48:53.200239,Right,61.41713156062178,60.70425506643369,70.47392175433924,62.620452887087595,85.58579086104874,47.317547112179454,58.772421827176004,69.26666608557571
2025-12-12 20:48:53.204309,Right,63.30054969493358,64.07453319673368,73.87810951273423,66.24139467607893,71.2566268829105,52.32840939241578,64.66653208393836,73.23942334897583
2025-12-12 20:48:53.208333,Right,86.73217279066739,89.44044780504191,97.96807457240357,91.11054931305989,69.07794287573779,76.98569907716592,91.08486588639789,97.05909508281911
2025-12-12 20:48:53.211329,Right,94.25485653906071,95.75054378609639,100.93989611211873,97.04432700133475,85.01914804326952,80.51433899634867,94.626069578444,102.52904647660034
2025-12-12 20:48:53.215341,Right,78.82295334641822,78.82139424001798,81.59391547419364,79.86101809995307,92.29909220774425,62.36671603161085,76.16705371416174,87.56823846655607
2025-12-12 20:48:53.220361,Right,76.69143425175571,78.94364383399079,82.16421718336642,79.4979128576233,82.00705992089934,62.9667982058163,79.08410686280695,89.84031080859131
2025-12-12 20:48:53.224362,Right,97.8682648367394,103.41925572649052,107.53270359011367,103.50702736589301,78.00389512765105,86.13622454232245,105.61733829537116,113.39214722742327
2025-12-12 20:48:53.228377,Right,105.58927939704154,110.53697102010483,113.49677617583075,110.45702846308996,89.81449079612503,89.79139303384,109.7030958350224,117.93236816431454
2025-12-12 20:48:53.232396,Right,85.33600112554268,87.55789837827615,89.01047289122653,87.10192792325688,94.16696945842705,64.64927893620916,82.81581931517576,94.21719151854631
2025-12-12 20:48:53.236400,Right,75.07808709183882,77.75070371531183,79.81920664419886,76.2863377024114,80.7819548392581,54.84635348725715,73.517266676703,85.47837321374391
2025-12-12 20:48:53.239411,Right,97.24718782817217,102.7516402860274,106.20060239891609,100.36028813311714,74.58679109090008,79.30555215103232,100.7473450792022,110.94126690640405
2025-12-12 20:48:53.243420,Right,115.95974274865875,121.43497234950337,124.60318292713055,119.21647189598298,89.50938091194985,96.68336904359603,118.48575622586941,129.60115909903107
2025-12-12 20:48:53.248432,Right,101.26212088266766,103.97636125861027,106.62395481578278,102.90575558233832,100.88220461292804,80.20047759083536,99.24203374656645,113.52554083817813
2025-12-12 20:48:53.252387,Right,83.80403893849143,86.31694043389143,91.17897162237932,86.34672082554607,90.56268303915567,65.53973306917032,83.64722793353576,97.81744965846883
2025-12-12 20:48:53.256452,Right,98.03452271865899,103.46823817194672,112.40171823043056,104.05921579572532,80.74130086390869,82.9931097396875,103.94343009043587,114.7631453704962
2025-12-12 20:48:53.260456,Right,118.72501800200916,124.83092314203168,136.4469868819906,125.90044998830126,92.38307836717286,100.66766092205944,123.93104239937384,134.26533823112914
2025-12-12 20:48:53.263413,Right,107.6938659416137,110.70292624131616,123.6430211298375,112.61247319317044,105.14827099258036,84.18559069711773,106.45550420198197,120.18991401195308
2025-12-12 20:48:53.267498,Right,83.62224525901729,84.80097535241657,100.40568437608226,87.72605012151689,94.20454139219146,60.8320312128908,82.12023430012778,97.11772925371224
2025-12-12 20:48:53.271487,Right,88.22465741004953,91.20070177191519,110.58789024919315,95.09828699639638,77.90208647645159,70.59871941103484,93.8713770759623,105.9794136791661
2025-12-12 20:48:53.275513,Right,113.10852717575699,117.26745909793408,138.35374567134568,122.24501573546377,87.82553050282513,96.01637407489488,121.56021201613919,132.31019541168428
2025-12-12 20:48:53.280514,Right,118.26843681716309,120.5818181663576,140.69471051323126,126.63949566334486,112.38908304731615,96.60988488707801,121.61019124925042,135.50214685192714
2025-12-12 20:48:53.284534,Right,103.29793164088187,104.85094266417582,124.17180587292387,111.47540756466151,115.64300213281467,80.52629137143867,104.09154410490373,120.38052748815244
2025-12-12 20:48:53.288544,Right,101.71524770640826,106.47686102626722,126.08121798694629,113.06788126361789,98.93902097169484,83.66162431077828,107.49864493470523,121.38316218809996
2025-12-12 20:48:53.291565,Right,114.98974769584675,123.08890196451102,141.5172560887513,129.52201203225195,95.25786587333278,100.3866823275639,124.1190396155107,135.217054556706
2025-12-12 20:48:53.295586,Right,112.31563657778315,120.2290144782055,135.33635903576942,126.58571882255637,109.11093396577053,96.71877479227987,117.31256118695819,130.16712457576432
2025-12-12 20:48:53.299580,Right,94.94904850681633,101.89183734113249,114.76384456395317,108.04296860469185,113.15362335690224,79.58812904671868,96.40592247367749,112.3449492311338
2025-12-12 20:48:53.303533,Right,99.09616458269738,107.31838248221175,120.87620400678134,113.33202975602035,103.51148077759717,87.92707924192655,103.76568429126928,119.13768435305246
2025-12-12 20:48:53.309602,Right,126.96330536555615,135.26393284444202,149.81501487016794,141.88579849561938,106.30501579423071,118.04774465678202,133.676384280021,147.36578211614687
2025-12-12 20:48:53.312617,Right,137.03869009737537,140.11562093027896,153.70068752705993,148.0723488825097,124.33802064873453,125.18979814240447,137.22951632147306,153.003311325534
2025-12-12 20:48:53.316568,Right,117.55343720618839,113.545393993365,126.08580703513871,122.49340326666425,128.17292856597487,103.74401442836097,110.0542787168597,129.30598304195155
2025-12-12 20:48:53.319620,Right,107.9764444791872,101.12296400122432,114.55575472251803,109.97847412984993,110.48599173827824,97.64952121239185,100.81098977083457,119.6053457736125
2025-12-12 20:48:53.323584,Right,127.07506165723316,120.79104982185527,135.11594558664365,128.99166766181588,101.35694159576815,120.1415797438458,122.8979982143428,139.11269039619947
2025-12-12 20:48:53.328682,Right,140.0163310363423,132.8018080705806,145.59294957890233,140.66383646904433,114.46873239173146,131.40312709280988,132.30992657838215,149.43902358834748
2025-12-12 20:48:53.332667,Right,124.59891563371639,115.25657785360818,125.566420114832,123.37717318315117,123.44049651479872,114.37472049009375,111.40346755257633,131.57890697088442
2025-12-12 20:48:53.336645,Right,112.89044039796863,104.11897437964217,113.44587990971922,113.17313301269314,111.84810913144611,106.39300963408459,101.67270799829566,120.7624639076821
2025-12-12 20:48:53.340708,Right,131.88227338483557,125.236943755619,133.71449966411456,136.03995816232054,104.10917357544531,128.87648597027874,125.76705827029946,139.89291745857918
2025-12-12 20:48:53.343649,Right,154.13546209252672,146.3791267656925,151.31580060604028,159.10950001124002,119.88693512196915,147.1260106235277,145.06440307412413,156.84927873405104
2025-12-12 20:48:53.347701,Right,148.47344862745376,137.13714340726438,136.89736843082937,150.40666078560753,136.09288339434715,134.03401748897159,130.6321763611486,144.20089780344279
2025-12-12 20:48:53.351716,Right,135.21312551783922,123.70561413771065,120.15865077963099,135.29370556901267,127.18979992618551,118.55788610590389,114.76569973766163,129.19571368904144
2025-12-12 20:48:53.355744,Right,144.3052699988184,136.74997475778218,132.05258601241803,145.65960689476924,109.76892793616571,129.67054265773913,128.0977399985859,141.04179651230515
2025-12-12 20:48:53.359747,Right,157.36050290366984,151.83577479922678,145.5724086916307,159.11122797023563,110.09240222800872,142.01256911420205,141.60023067439033,155.33311326632975
2025-12-12 20:48:53.363699,Right,144.44983141227567,136.4848877387558,128.10149233248376,143.80556567506574,117.14767675031908,126.13164457619132,123.4542074315832,141.37219745457696
2025-12-12 20:48:53.368784,Right,125.92053582122026,115.53572331761825,106.77859437729057,123.58314571528172,108.38455534774403,108.15647046499362,103.2600325528183,123.33921100065345
2025-12-12 20:48:53.371770,Right,139.1303322113672,128.88793241254461,121.19513264091802,137.2763937243726,96.56559302117967,123.69901500744163,119.93873223861738,137.84658260361175
2025-12-12 20:48:53.375739,Right,168.22546720702667,157.07558403752046,148.96749471897783,165.1590594267327,106.55922441097209,149.5100636958523,147.93119827334885,164.54887779956334
2025-12-12 20:48:53.380824,Right,168.4102403956058,153.6473806615977,143.53467443099362,160.8740666007361,124.89110492578766,141.7650638295163,140.4029803018493,159.9072270579636
2025-12-12 20:48:53.384839,Right,143.43535797014192,127.1169645046757,116.68380677589448,133.10339481607662,119.32784311793512,113.30122597774607,112.28706212466932,134.1193091062305
2025-12-12 20:48:53.388783,Right,135.85713527249754,123.0491090555588,114.84027612276259,127.94784827699186,95.8104243104608,108.61811312874488,111.00887197047996,130.46003495299374
2025-12-12 20:48:53.391854,Right,150.44169304736715,141.6736149299686,134.91725879345904,146.1818069613946,88.8092194077617,124.39297921933758,130.83911737197195,147.1473800620006
2025-12-12 20:48:53.396878,Right,151.89650756141054,143.20628988363023,135.16427741295774,147.63885903611663,102.22077977776644,121.89992985861318,129.1440311402257,146.0951476751361
2025-12-12 20:48:53.399879,Right,135.66334003483644,126.04906806023791,116.20820127247134,129.6234638458409,106.85409851314034,103.31872992202989,109.52996821339184,127.65511195955332
2025-12-12 20:48:53.403872,Right,135.9978058587585,128.79794708191184,118.50139818654861,130.52033646815107,95.50239476849674,106.7856499649206,114.04036179048126,129.28921823823475
2025-12-12 20:48:53.407913,Right,157.55708963016514,153.5209098837804,142.55552062537754,153.78520991528057,92.92539450184267,131.09720062030829,140.6789039055875,152.13339225878008
2025-12-12 20:48:53.411994,Right,161.58398917369777,156.72337822258123,143.71413273649523,157.24232091239537,104.85228511945752,133.52505120744172,143.0392933578405,155.06141349780955
2025-12-12 20:48:53.415870,Right,135.63882472354453,128.1344334158639,113.83306676259963,130.040985728323,104.3596670373081,107.3179887909937,115.02343777025817,129.6398840114707
2025-12-12 20:48:53.419941,Right,118.28721085051075,111.7482080028858,98.60412051973981,114.5061125124048,82.87488921105978,95.56170346529689,103.60494507921976,117.22425549544278
2025-12-12 20:48:53.424951,Right,131.1559998720768,128.12790900922846,116.47507487217081,130.54165728684166,69.72754632461874,114.00335147271107,124.3880619625561,134.86465702884016
2025-12-12 20:48:53.427965,Right,141.65510910618468,139.2563989930204,127.03694760703365,140.7987675741315,80.72176120187214,123.57153246096277,134.4988485390204,145.40174698529881
2025-12-12 20:48:53.430906,Right,123.52019945092616,118.84420964523451,105.52228837905568,119.71814196303603,89.18132153524493,102.03102836399921,111.43631971234572,125.67766733531607
2025-12-12 20:48:53.435955,Right,103.1312403314223,98.0051356353797,85.50088251195848,98.58697783396929,73.88663773646113,82.36274792155018,91.92484664559015,106.62178115348797
2025-12-12 20:48:53.440008,Right,108.30908076526248,104.84107490201131,93.68421523855068,105.53096592234215,56.751410085038515,89.3614089932671,101.4689616356336,113.51512439642102
2025-12-12 20:48:53.444005,Right,117.19381764120772,113.04431891033892,100.88714398848242,114.2250281390152,61.48584571755782,94.7625001000415,108.06493267015321,119.85157434997382
2025-12-12 20:48:53.448083,Right,101.97276791671175,94.59071082348237,80.01896593978745,96.20659168856218,70.47711928414355,73.89320716865768,85.68975681278971,100.15595467606909
2025-12-12 20:48:53.452075,Right,83.10668504037312,75.05979090472101,59.77737749333028,76.5467380695045,59.266999864485115,55.19844644411933,66.21136265748646,80.55248738912633
2025-12-12 20:48:53.456055,Right,90.96283432471682,86.13156134905876,71.55260251602158,87.2416827295092,43.050978751824005,68.14776888379129,80.86522573081311,90.92777039576322
2025-12-12 20:48:53.459064,Right,107.45150458411081,104.78416674179607,89.45901389498613,105.97027076565428,48.3170816104539,87.10967832121241,100.95565830366104,108.47483189278864
2025-12-12 20:48:53.464075,Right,98.57150062770233,94.76397755200742,77.35089118996984,96.0387503648526,63.0783183145104,77.16259543490014,89.61615386896301,99.07754515254055
2025-12-12 20:48:53.468016,Right,77.99257378838956,73.97313739993842,56.162432491750224,73.93833521267516,58.89809407417488,57.6776169736404,69.13202690827893,80.00081316183787
2025-12-12 20:48:53.473101,Right,82.00024284457322,81.13910494023003,65.31308512244141,78.0740347118408,43.319134187011514,65.3377332965756,78.27888673642883,86.68005764493137
2025-12-12 20:48:53.477098,Right,100.87836918781977,102.44197029937641,88.62180455878843,96.11745039751986,44.35705948571558,84.6263426507794,98.44304954103427,104.9129427842563
2025-12-12 20:48:53.480114,Right,95.06274621537887,95.26153747594799,82.82891718961764,86.99750617865357,56.72055951299262,75.51216083143663,86.89178917297977,95.78875048138434
2025-12-12 20:48:53.483121,Right,68.31926650341484,67.00753641015035,57.39494909430505,58.115591092035174,51.86816210957477,48.09551762153569,56.88318943185732,68.67843312624609
2025-12-12 20:48:53.487122,Right,62.513949278974906,63.17315521821729,57.702609279571334,53.935206536611076,33.28576353110839,45.307435207796516,55.24226349632954,66.0485376213328
2025-12-12 20:48:53.491175,Right,81.84129998687422,85.09774336026749,81.55261344253086,75.19131358512095,31.834176099931938,64.66506317589665,77.28420963723329,86.20924905332504
2025-12-12 20:48:53.496176,Right,86.26575045648497,89.1530209206976,83.85259914016933,78.37619999767048,48.69106331765943,64.47243465043721,76.95569426068687,87.19509350258159
2025-12-12 20:48:53.500160,Right,66.56352638913086,68.7417132818955,61.15994940281962,57.07666724617593,52.919129322399385,42.890393567387946,53.626343357755104,65.34869160960079
2025-12-12 20:48:53.504175,Right,60.89535507193068,65.66698457769235,57.828317817038624,53.229205478855874,38.54329541626794,41.42701095827215,52.99756995183998,61.976066012633964
2025-12-12 20:48:53.508186,Right,82.32742854807293,90.05414682638366,82.16540963383159,77.29620421325671,34.700455938786035,66.12332241181866,80.27580170618603,85.3973225497175
2025-12-12 20:48:53.512187,Right,93.80486045457656,100.1247804092709,90.28877419151831,87.46320412069326,50.47657586632704,74.71201564148942,88.84298424725421,94.33099927334115
2025-12-12 20:48:53.515204,Right,77.26966328287381,80.03582907348755,68.04940628173063,66.9468209463812,57.667508350728895,54.294346609691274,66.09246136652655,73.78361097781453
2025-12-12 20:48:53.520220,Right,66.50373073251103,69.1048502313497,57.05581880011596,54.41708767804084,43.26479458484391,44.22100925358245,55.93833199114306,61.76548199789249
2025-12-12 20:48:53.524226,Right,81.89033925978583,87.00855494377902,75.78534790733829,70.70472030891688,33.273185470708995,61.53561689170601,76.12458645860897,77.40485120000085
2025-12-12 20:48:53.528257,Right,90.579073997651,95.82362105886568,84.33655441424344,79.85160080570495,43.812406051918515,69.1533853536821,85.44712702286779,85.75490654009627
2025-12-12 20:48:53.532260,Right,68.14295217915787,71.33782759329188,59.9075874669943,57.93578679536586,51.48435025503568,46.635917963809334,62.18561910421704,65.21359857052448
2025-12-12 20:48:53.535265,Right,46.182200776209356,50.10521792655345,41.29818907237495,39.73950125798001,37.98012655004277,30.058168625706458,45.9173493933049,49.68743942936999
2025-12-12 20:48:53.539276,Right,56.25417851380189,63.731656579475384,58.49248266630457,55.07779083313653,25.296508461484336,45.57699976305594,64.09777768858476,65.7727541354543
2025-12-12 20:48:53.543225,Right,74.11193790938705,82.62303158306167,78.63864318965352,74.0024713492312,35.926343472121516,61.276905635008006,81.48091582671623,83.3775599936198
2025-12-12 20:48:53.547285,Right,66.23005517566344,72.24355289922096,67.78291857193108,62.55742556057521,51.45283846567327,47.03464119081036,66.52049175824504,71.84853044358897
2025-12-12 20:48:53.553284,Right,50.50176494786865,55.5752407759137,51.974481760611525,44.330026856885524,45.84401209639327,29.937002340040635,49.47877024605987,55.77018432263867
2025-12-12 20:48:53.556319,Right,59.12975146545796,66.60872311459389,65.06464833271457,53.88627119283774,31.760240468371194,42.136079411851824,63.87598061942845,66.77241816083551
2025-12-12 20:48:53.560358,Right,74.88217604049714,83.62485497730086,82.55437752461876,70.11617546036723,34.424285105458694,59.021911211530096,81.55483005201677,82.41512968856841
2025-12-12 20:48:53.563341,Right,61.50185176600644,68.33526335589704,66.38872833264759,54.860198996189865,42.97880580968922,43.80147961129842,63.83287330146413,67.24898084034794
2025-12-12 20:48:53.567357,Right,32.4373917880439,38.445327493856894,37.48674078867771,25.33973815520585,31.215143054301734,16.095771738808253,34.27321123515139,40.009301461599534
2025-12-12 20:48:53.571313,Right,28.48681695103005,37.05589917252655,39.15926816739375,24.33912282937672,8.535112670637318,16.42593987764849,36.707873209626996,40.68012598250061
2025-12-12 20:48:53.575386,Right,44.895037622147356,55.107714723970275,58.676630919624586,43.01150853798026,4.993814860950806,32.89869093976449,56.023243826421094,58.01441870958661
2025-12-12 20:48:53.579391,Right,43.19913283694768,51.15987480766489,53.30358330835588,39.991683609448955,17.946389271499356,26.713498991375673,48.87765496353677,52.45077941627824
2025-12-12 20:48:53.584417,Right,24.58122639192152,30.491117461497197,31.577937967551406,20.141116080776555,19.27600144589087,7.130827678833157,26.011085079444456,31.126538368174806
2025-12-12 20:48:53.588413,Right,27.05707910253841,34.942854526263545,37.353371254343074,24.98586045607226,8.60139991727192,14.149410587575403,31.925532042310806,34.53906927321805
2025-12-12 20:48:53.591438,Right,51.39677557039249,61.859217300865566,65.70730624758289,52.10866951281787,12.03601915393665,40.53307155077346,59.491083280416206,59.21055121670361
2025-12-12 20:48:53.595364,Right,55.486568711537984,64.68240073038032,68.50477748570847,55.35866976506077,29.414913769898703,40.4744734675769,59.959433457275736,61.42439550632844
2025-12-12 20:48:53.599443,Right,30.76784030201088,37.462738262838684,42.02265964518301,28.844708113872912,31.386865684806253,12.67730883222248,32.45727999329392,37.447519572480815
2025-12-12 20:48:53.603454,Right,18.995421679792344,26.852021341124782,34.37313762420672,19.081902825957513,13.751995379207074,4.3643848090287065,26.552919053283404,31.202493895427324
2025-12-12 20:48:53.607478,Right,36.50063517509261,47.4997141162894,57.652532299398445,40.80883082926448,6.84246998099843,26.570315346791176,51.415070875009405,53.71795757327345
2025-12-12 20:48:53.612481,Right,45.601224242549506,56.67576825080323,66.94000934783253,51.35554058205162,20.605964927352034,35.96973431399965,59.74846318371419,63.406455621749046
2025-12-12 20:48:53.616453,Right,25.058588862841134,33.986256118136225,43.9027271080995,29.8357394971099,26.449646031382144,15.354215646788361,35.5589380194142,43.032094450085424
2025-12-12 20:48:53.619502,Right,8.219472669181414,17.658064532006392,29.243812021566555,13.833623187674675,9.696934003179194,3.166305992024718,22.27647581837664,30.061203256773297
2025-12-12 20:48:53.623441,Right,19.39661459173658,31.65167568915058,45.21402549685445,27.338552832894493,-4.005088051344501,19.506012064841343,40.40570450341329,45.20082866193843
2025-12-12 20:48:53.627501,Right,28.475796961487504,41.185986312731984,54.27103125138092,36.03831577287929,3.4318645055027446,28.421858795147273,49.33979990029184,53.43640548536496
2025-12-12 20:48:53.632541,Right,8.22709210155881,19.158836652321042,30.711846256439458,13.000662762715365,9.651040317607112,6.354568341106642,24.011593853167142,30.161102029582253
2025-12-12 20:48:53.636555,Right,-13.911505364361801,-2.427429421717534,9.808716275641927,-9.614407249522628,-5.621855094374041,-12.823904820383177,2.0815677160717314,7.9461554898298346
2025-12-12 20:48:53.639553,Right,-6.670533477823483,7.590392472353415,22.192792893925798,-0.017320730446954258,-22.41380695377302,-0.8226104513159953,13.605242700417875,16.235398706267006
2025-12-12 20:48:53.644505,Right,7.1690077599923825,21.458606007450726,36.93036977833253,14.351109612267464,-17.418598974560155,12.627785798104014,25.622443775704596,27.184431532456074
2025-12-12 20:48:53.647512,Right,-5.750244293565629,5.47988483106019,20.220401489146752,-0.9306376006279606,-6.700806383130839,-3.6449544111746945,5.571560258162208,9.296328004827956
2025-12-12 20:48:53.651568,Right,-25.99439558017184,-15.233717020906624,0.06334090037853457,-21.62191269506002,-14.542743092461023,-22.688080675936362,-15.518902648007497,-11.456727443772252
2025-12-12 20:48:53.655569,Right,-16.615878080163384,-1.9081599429191556,15.708220464308397,-8.763145816963515,-26.89717318060866,-8.494893733310164,1.0069358074251795,2.1130010010529077
2025-12-12 20:48:53.659594,Right,8.10810220259009,25.76647289757966,44.94411050839699,18.889940327135264,-17.261864783911733,16.989887685893336,29.489769226580393,29.666553139002644
2025-12-12 20:48:53.663622,Right,7.483252923353575,23.81930150469998,43.28376457966806,17.712115809263196,2.2768711684038863,12.768575059359137,25.03426335695258,28.731144153192872
2025-12-12 20:48:53.667660,Right,-13.045100936666131,1.799595573800616,22.58826184202917,-3.3110124065569835,0.8924750403239159,-8.148183442935988,2.5308651517843828,8.796514462839696
2025-12-12 20:48:53.671653,Right,-14.690908099189983,1.8978028064302634,25.210560663137585,-2.3415160654694773,-15.310925290192245,-5.508688488102052,5.222872518294025,9.09661459295603
2025-12-12 20:48:53.675614,Right,1.8217202922533033,19.97183482006949,43.90871635827352,16.81157016418001,-14.914286519408051,12.737805827338889,23.53246107994346,24.383612775753136
2025-12-12 20:48:53.678621,Right,-0.6104055584582966,15.586789268403663,37.244567683839705,13.705806105179363,1.2020533640607027,7.01699267551885,15.527686696266755,17.626101555360947
2025-12-12 20:48:53.683684,Right,-23.560057743961806,-9.535667361473315,10.072190679813502,-10.7510393172779,2.7232556358649163,-17.411070656773518,-11.276659008377464,-6.484780025435612
2025-12-12 20:48:53.687713,Right,-28.4883616644438,-13.07273020928551,6.779790618791594,-14.738632817316102,-13.171183582831873,-18.447959535144037,-11.848992285333225,-7.549864185421029
2025-12-12 20:48:53.691737,Right,-8.255662917727022,9.18382958546863,29.54599315636733,6.444759723417519,-16.853431930991064,4.897546143816726,12.5549786996271,15.374998674800736
2025-12-12 20:48:53.695682,Right,-0.2770438717707293,15.551637505268445,34.91500881603861,11.646085939428303,-1.4504179292343906,10.761858894242323,16.34443996965274,21.061391044568154
2025-12-12 20:48:53.699753,Right,-16.487748114210262,-3.396922520521912,15.340849505286315,-8.745002219882736,5.230780448735459,-7.650874518345518,-5.44925132154458,2.3231418363866396
2025-12-12 20:48:53.704772,Right,-22.22264111375989,-8.132626836872078,12.155743961848202,-15.25959340629197,-6.968755776462785,-11.12935797998216,-8.929246668347332,-1.6963679573818808
2025-12-12 20:48:53.707806,Right,-4.3208022265389445,12.704607781706727,34.68774277144985,4.235669781679462,-13.116479013515345,8.720361085681361,13.745778527816583,18.764277077221777
2025-12-12 20:48:53.710799,Right,0.5526666562655009,17.121080203425663,38.40866667388764,8.435599126300076,-2.4488438690605108,10.597205806305283,16.458175194522482,22.73875135180424
2025-12-12 20:48:53.715761,Right,-27.14486011578265,-13.66876482598309,5.834618000691989,-21.837720500137948,-0.36278651153406827,-19.96831016831129,-16.100872809060093,-6.759462538888329
2025-12-12 20:48:53.719798,Right,-51.223615320326644,-38.22389007225138,-19.189046225699713,-46.03937646726263,-20.542532262283203,-41.061383375716105,-38.09886300339713,-30.003095644649875
2025-12-12 20:48:53.723849,Right,-42.57375857076113,-27.28116257093643,-8.468369968992192,-35.19728246689192,-36.65222164544684,-28.205786448910658,-23.859168243216118,-20.765478686873394
2025-12-12 20:48:53.726809,Right,-29.228190305824683,-13.625727982718672,3.058109114645049,-21.751364658739476,-28.24986432381411,-16.332963429988013,-11.598923483434191,-10.541368298851012
2025-12-12 20:48:53.730881,Right,-42.08892774806009,-28.61866231876047,-14.406208764528856,-36.81105172619573,-16.62433536950266,-32.877756842539384,-29.879155761256698,-26.470329708390636
2025-12-12 20:48:53.734877,Right,-57.388872592426196,-43.80722314738523,-29.33286627549387,-51.91260526995029,-23.83683035865397,-46.35771153033056,-44.07867540533334,-39.60239496396389
2025-12-12 20:48:53.738904,Right,-42.54291298372482,-25.79621050215792,-9.25459450071503,-33.4610359454673,-31.65079361489188,-25.989427842807345,-22.359921752722585,-20.105230378350825
2025-12-12 20:48:53.743925,Right,-18.51722937301747,-0.5934656401077518,16.18469915427704,-7.310239850801736,-17.021695785355405,-0.6675288692458707,2.8920821955471183,4.514640644272731
2025-12-12 20:48:53.747876,Right,-21.631075075569242,-6.4810041213349905,8.311477267634473,-12.333553412430774,2.6808703319256892,-7.0097137327284145,-6.448863044308382,-1.9508676276382175
2025-12-12 20:48:53.751898,Right,-37.28322036141981,-24.384195575054036,-10.789546133353724,-30.314007860557467,-0.48247608861129265,-23.85115168252014,-25.404789000192977,-19.558348893289804
2025-12-12 20:48:53.754972,Right,-29.87010216433555,-16.12969479956155,-1.972083794309583,-22.842638328045723,-15.186727549560601,-14.69201513245207,-14.888056253705145,-11.823975243685709
2025-12-12 20:48:53.759015,Right,-11.835509524178633,2.11570096939613,16.50468096221448,-4.794662048359896,-13.141675103186572,2.7602225143091346,4.175963905378012,5.1789635199456825
2025-12-12 20:48:53.763075,Right,-21.09443561592707,-9.969756159305689,3.7806499644502765,-15.77918616995521,-1.2909855393663747,-9.170015233308732,-9.008266023036413,-6.049175505519088
2025-12-12 20:48:53.767060,Right,-47.82523524751741,-38.672605973129976,-24.428334430776886,-42.78372716845479,-6.460027926994371,-34.37124176397447,-35.83379499513467,-31.449543058795825
2025-12-12 20:48:53.771064,Right,-48.77918531390242,-37.88746850448297,-21.98834366654046,-40.78501256274467,-22.62237861840549,-29.91756692302988,-30.180632408795645,-28.844090443504683
2025-12-12 20:48:53.776042,Right,-25.303423470313646,-12.925964370810107,2.890384477817861,-15.414778059317541,-21.112367849011207,-5.5924776051051595,-3.9569947980489815,-5.971197093243973
2025-12-12 20:48:53.780056,Right,-20.798384262372565,-10.861231142902398,2.3592535639181733,-13.592736973469073,-4.911284034416894,-7.199578002113412,-6.392965400867979,-7.2798672073258786
2025-12-12 20:48:53.783067,Right,-41.73361625088546,-34.60777437754223,-23.398963967352756,-38.19639632524013,-4.511330838220601,-33.280067637339016,-34.28939071571767,-32.67132019463679
2025-12-12 20:48:53.787083,Right,-47.74796413795593,-39.3871016204248,-27.821815126473666,-44.078775328909614,-21.709582116403908,-38.82128142035799,-38.874164922443015,-38.236521573158825
2025-12-12 20:48:53.791114,Right,-27.30153151259401,-16.406462789429497,-4.567545276015153,-21.50182845600102,-25.57165899109532,-17.85558085039611,-15.447904391223346,-16.91761650555236
2025-12-12 20:48:53.795103,Right,-17.564613415145686,-7.761196235269381,2.130865315280971,-12.132448818410921,-8.761098411494459,-11.93178315804471,-9.736102916413074,-9.73349533788678
2025-12-12 20:48:53.801115,Right,-34.04476758710916,-27.461472508013685,-19.833606227653945,-30.802340421076224,-0.8291236468285206,-31.767565737574387,-32.102842543848055,-29.36398139999801
2025-12-12 20:48:53.804136,Right,-43.442744878471785,-37.61065649174452,-30.28182085564913,-40.55364138105779,-14.60204187000636,-39.76037363811906,-41.1233263828326,-39.784389675434795
2025-12-12 20:48:53.808152,Right,-28.628153752742946,-21.858183169511904,-14.287741796335467,-24.783434371754993,-24.18787195202458,-23.321441603707513,-24.28321011927119,-26.77247754349537
2025-12-12 20:48:53.811167,Right,-21.98902204812407,-16.679289213217544,-10.44658194852309,-19.079984296480106,-13.912310275918571,-19.341098647939248,-22.080714617804688,-24.657195943550505
2025-12-12 20:48:53.815175,Right,-44.77585903043496,-42.53397460009728,-37.76440806331084,-43.740612829259135,-7.108444921919727,-44.354212511284004,-50.8429726946016,-50.11096309567074
2025-12-12 20:48:53.819187,Right,-65.51455284801023,-63.71140865469113,-58.22907345058684,-63.63048763976849,-21.470895210004528,-61.31121418851353,-69.18669720972593,-67.90074804258359
2025-12-12 20:48:53.823139,Right,-55.04855471911287,-51.78154731393988,-44.955201363053675,-50.636068108551626,-34.32131309678516,-45.32677974692706,-51.29882745530176,-53.30840920664582
2025-12-12 20:48:53.827235,Right,-37.379111058422495,-35.65455004429259,-29.89684470063912,-33.56999619247836,-23.36829924190897,-27.496603870959916,-32.27252567938194,-36.294395039420124
2025-12-12 20:48:53.832217,Right,-42.806320825374314,-45.55040757349889,-42.50013181926357,-42.804263909599285,-7.161909434958943,-35.658825764388894,-41.73352089389573,-45.139275102375905
2025-12-12 20:48:53.836233,Right,-51.05202287668635,-55.53168435576208,-53.67815536092826,-52.77297005460605,-9.569098438059882,-42.34047170207123,-49.16821629211154,-53.88549542297187
2025-12-12 20:48:53.839238,Right,-32.326108293276775,-34.29925695696511,-32.12045617164131,-32.0917030278797,-16.438698328565806,-19.208327099146118,-24.82326106362234,-33.53579405889286
2025-12-12 20:48:53.843257,Right,-9.492092016673269,-9.932858699074131,-8.512698386178272,-8.257097041821908,-6.456097549813421,3.5319682862682384,-2.288693544889611,-12.054738419334171
2025-12-12 20:48:53.847258,Right,-20.31353399903128,-22.777738689537728,-23.16224604991112,-21.249678246511394,4.6342393343256845,-11.319792952932403,-20.555468570502853,-26.70548628353754
2025-12-12 20:48:53.851294,Right,-47.20019377067911,-50.99867195322804,-51.69950338365561,-49.40571408602955,-7.777560251939576,-38.84883034685663,-50.81271454011585,-54.71495562285054
2025-12-12 20:48:53.855234,Right,-47.301562714104875,-49.07704435699998,-48.83297426119134,-47.34497742078929,-29.477507616673392,-35.959455855047054,-46.76334452541778,-53.15468828722442
2025-12-12 20:48:53.859321,Right,-28.474374450728646,-28.758224459776102,-29.43911990410379,-26.62249926356526,-30.432352023930434,-17.713105084501876,-26.364415950924013,-34.902406965098635
2025-12-12 20:48:53.864322,Right,-30.729598647738385,-32.87823595013106,-36.79009285823122,-30.218200428127602,-16.946444011256972,-25.141821598403112,-34.13773707947985,-40.41630587963664
2025-12-12 20:48:53.867319,Right,-50.2270139804059,-53.82010555150555,-60.01040406891116,-51.27262825107755,-17.914356064258754,-47.10230107030293,-57.0125807575896,-60.79174137730297
2025-12-12 20:48:53.871341,Right,-47.82949303555142,-49.14376940092552,-55.26291702871458,-47.7689219494132,-31.469456789167452,-41.98077822122468,-50.50354106885425,-55.866698571582674
2025-12-12 20:48:53.875370,Right,-24.390427835820446,-23.331435080708616,-29.54714916602461,-23.555110608900577,-30.362495939094515,-17.076177392544196,-24.178653027294786,-31.68625880250329
2025-12-12 20:48:53.879354,Right,-21.44822698562166,-22.118167654491117,-30.00870696666243,-23.42060742857211,-15.09765115110713,-16.957225999125512,-26.037694923648814,-31.766567209768255
2025-12-12 20:48:53.885402,Right,-44.790754247085715,-48.476255163725,-57.16122105037357,-50.09633549713908,-14.324065294855245,-41.39454146291246,-53.74000196570705,-56.95506966972607
2025-12-12 20:48:53.888398,Right,-52.61566543699519,-56.07011033978779,-62.928341841430665,-57.44818152728112,-30.702721841826133,-45.277636895163596,-57.74471116449058,-62.595502944197506
2025-12-12 20:48:53.892421,Right,-32.430621478837566,-34.4860807824989,-39.278371069278364,-34.98272046428974,-34.87410988538613,-22.553786656462762,-32.72303176180503,-40.388640096560266
2025-12-12 20:48:53.895435,Right,-24.217238413111772,-28.193535008289473,-33.033462727205915,-27.10774981533541,-20.15199126608786,-17.951575214701734,-27.4700827128363,-33.30532247338488
2025-12-12 20:48:53.899437,Right,-45.629035202862724,-53.07427857002767,-58.34866157502256,-50.23360772461456,-15.1721801086278,-43.24005811891038,-53.77817694672558,-55.16301312278301
2025-12-12 20:48:53.903442,Right,-59.11464645517117,-66.75206997520218,-70.38338269804808,-62.511803455203335,-30.540820898069796,-54.77776199395885,-64.51502399818128,-65.17773463979393
2025-12-12 20:48:53.907481,Right,-41.65469080689945,-47.184504851953534,-48.16491892880731,-41.60827850753776,-38.363363285010564,-33.86698742377848,-40.839045137279754,-43.78415090564522
2025-12-12 20:48:53.911490,Right,-26.5677613801563,-32.35394498196911,-31.74098599205172,-25.017792649108742,-22.74918139669535,-19.898793216478225,-25.676547678776842,-27.91366063793248
2025-12-12 20:48:53.915496,Right,-41.169143108985736,-49.0036418840682,-46.76940343459137,-39.922964902343665,-8.84427519259043,-36.840475779554254,-43.42145578772033,-42.10077990555874
2025-12-12 20:48:53.918511,Right,-56.762572677940625,-63.74146033132274,-57.94679495939636,-53.8482581340395,-16.78157585632289,-50.51266460259649,-56.049286839639535,-54.33334991386073
2025-12-12 20:48:53.922522,Right,-43.37487477235118,-46.92583826666669,-37.347614000616886,-37.11051748553291,-25.747879528818885,-34.63616389182789,-36.229307188150415,-38.041454374477325
2025-12-12 20:48:53.926541,Right,-26.50286482203228,-29.256535180902574,-18.846841318569204,-19.449057926929527,-14.457871162288939,-20.975267432946566,-19.628830235764326,-23.27039173732919
2025-12-12 20:48:53.931546,Right,-38.99823916891546,-43.994725618518714,-35.14557142211561,-33.77027792361696,-1.19203099594597,-38.919007591444824,-37.474289262310776,-39.939989710714144
2025-12-12 20:48:53.935513,Right,-58.06435993100604,-62.78877570691111,-54.855575149580545,-52.34443952747097,-8.186089620099665,-57.8003347311751,-55.85631767398445,-59.53800847494858
2025-12-12 20:48:53.939571,Right,-46.363529813443165,-46.797919912169164,-38.99774355922273,-36.61624221453167,-18.061400035549013,-41.6160691499681,-37.20012509514345,-46.16551794279803
2025-12-12 20:48:53.943590,Right,-21.7254470154694,-19.442483614846424,-13.393752892137854,-9.422450292327994,-5.35979448431317,-15.947093719361874,-10.863231999363052,-23.326905835638172
2025-12-12 20:48:53.947606,Right,-25.56211467639514,-25.32044635892089,-22.283777437500248,-14.916307667284855,14.793745504714025,-22.534399696072796,-21.041285235529358,-32.00243076321931
2025-12-12 20:48:53.951591,Right,-48.09978672615034,-50.59590036414011,-48.62395630108949,-39.49468400418118,12.268794624273141,-44.714374437146034,-47.542342711058154,-56.91866798014962
2025-12-12 20:48:53.954605,Right,-48.335828556453635,-51.02830401864048,-47.754275411840354,-39.045953039800224,-4.346543349602143,-40.53183114587591,-45.09657971805427,-56.552189456160704
2025-12-12 20:48:53.958639,Right,-29.470736472103454,-33.05015782844566,-29.29321231888025,-19.530172916209267,-4.101648281306552,-19.582790797459893,-25.866376771409705,-38.90070264887618
2025-12-12 20:48:53.963632,Right,-29.444624089592253,-37.30502936207631,-34.915403662394965,-21.43790845919284,10.822669461769692,-20.89552245505547,-32.18156416734564,-42.305117562071246
2025-12-12 20:48:53.967661,Right,-47.922006290791614,-59.6455473601236,-57.54055430312292,-41.603899869456654,11.66109660908478,-37.49531788308377,-54.817551061394624,-61.13037038570474
2025-12-12 20:48:53.971684,Right,-47.62837472698811,-59.177240435470594,-54.725468482472934,-40.16391415606631,-2.582154792791698,-30.59565845779798,-51.02961833459267,-56.90100631846144
2025-12-12 20:48:53.974697,Right,-25.99977722462063,-36.82067404552072,-29.987273907834606,-17.59355074420455,-4.304601122410531,-5.138486668060068,-26.611660898590344,-32.5329578545352
2025-12-12 20:48:53.981702,Right,-22.206141891478183,-36.13422449507925,-29.100869484500436,-16.180610899355088,9.196886944231665,-3.691655679100222,-27.239064935492934,-29.65227520258486
2025-12-12 20:48:53.984690,Right,-44.87677490627539,-62.849191369670734,-56.34632824244909,-41.42607571426197,9.47534251887555,-28.11740036912306,-53.76843454436312,-52.33372140832216
2025-12-12 20:48:53.987658,Right,-54.674070084856794,-72.48563913351973,-65.8314174474217,-49.728392322242144,-9.05916522156258,-34.735059649468894,-59.3352042780316,-58.892524957358546
2025-12-12 20:48:53.991729,Right,-35.311730365610856,-50.55420619027427,-44.978193322662264,-27.126732012569846,-16.30753072866355,-13.553898980917438,-35.19346156908432,-38.11481968155567
2025-12-12 20:48:53.995717,Right,-21.03856395160983,-36.57535975157225,-34.99533875929046,-13.10480920162081,0.23588932057464262,-4.508246516790678,-25.45535843206744,-28.082434724565246
2025-12-12 20:48:53.999758,Right,-30.646037209826318,-48.594429879020026,-51.620348818243656,-25.949206372039043,14.09232054570748,-21.32673181868813,-43.64648655129713,-43.24895428096352
2025-12-12 20:48:54.002765,Right,-33.062853705323505,-50.73028005119704,-56.05677634670428,-29.905708006168425,8.628602822933317,-26.200195322799118,-47.8370269513689,-47.20574954152107
2025-12-12 20:48:54.006763,Right,-8.675682439472439,-23.83634177116619,-30.382140532346966,-4.97072449974803,5.023064281027473,-2.2578409218476736,-20.846399374553584,-22.45130522942054
2025-12-12 20:48:54.010795,Right,9.713459244689147,-5.582122069798061,-14.939801882777829,12.194509194632701,18.71382779996202,12.431955885451316,-5.017451203180826,-6.346148783530225
2025-12-12 20:48:54.014785,Right,-4.328306148214324,-22.165421921403322,-34.787137605548196,-4.774737889638345,28.383584356422944,-5.18332689113231,-24.481878378071997,-23.506249326797843
2025-12-12 20:48:54.018761,Right,-20.001247788961336,-37.23417426684318,-50.651720970599854,-20.275506999736535,17.413811777718365,-18.448838348565914,-38.50118863715761,-38.57488962425123
2025-12-12 20:48:54.023827,Right,-3.2211878963789786,-15.836074166567414,-28.357965951276128,0.7118700941791758,8.635103694316058,3.0800218679178215,-14.84876497703226,-19.068025867149117
2025-12-12 20:48:54.027821,Right,21.63504937194739,11.911921372440702,-1.1126256425050087,28.590283264609752,23.678017247661046,27.244321916936315,10.719452884906786,5.666041133903491
2025-12-12 20:48:54.030869,Right,16.079986368924438,5.004779889568454,-9.732448274371563,21.97582874546788,41.18510437432269,17.18100393273926,-0.8296073124583927,-2.170958364942635
2025-12-12 20:48:54.034846,Right,-3.451027368035284,-15.718690067398711,-30.53659975733899,0.6997837233720929,33.310456578048615,-2.9506349303774186,-22.095589677919634,-21.79378053918481
2025-12-12 20:48:54.038864,Right,1.905232964480092,-8.755619648451102,-22.12898737944488,6.149808481910441,15.193430412320595,5.196680914159515,-12.158666939481918,-15.477082179073477
2025-12-12 20:48:54.042821,Right,21.963221913694724,12.055746481528331,-1.4485486209814553,25.42652291214472,17.14738087635851,23.771869585056265,8.295429340148985,1.5088845791833592
2025-12-12 20:48:54.046895,Right,19.33627288095886,7.051366912535741,-8.597552836494287,19.404106950911228,30.706621310018818,14.83303920662729,-1.472272995590174,-7.411325433247839
2025-12-12 20:48:54.051926,Right,0.9120065654187783,-12.961858805640077,-29.770519758611044,-1.6381786708370782,26.485952457438543,-7.399669825939782,-24.526813937118277,-28.934247208511806
2025-12-12 20:48:54.055901,Right,3.9592389878198446,-7.899355254012335,-23.971710474310385,1.8702775913552614,8.867219514970202,-4.110923655091028,-18.623586995170626,-23.957764027749363
2025-12-12 20:48:54.058903,Right,23.626467944937758,13.60203974662727,-2.552436626450799,21.61656446653069,5.9414823933948355,13.377165911373595,2.8388068666608888,-2.032579229446128
2025-12-12 20:48:54.062928,Right,20.166828038443782,8.431055655841192,-9.83969546618755,14.926082510035485,15.802339691617817,4.036499296453258,-4.888512764729967,-5.094134824408684
2025-12-12 20:48:54.066941,Right,-5.217712015530196,-18.622388493393373,-38.57772664906952,-13.556669255172892,11.672280908060202,-23.576771793173975,-32.044428694622184,-28.53965574234462
2025-12-12 20:48:54.070902,Right,-9.133142183900418,-20.12724977175094,-39.77023697232653,-16.52381045294169,-4.747791867026535,-23.39239724127765,-29.385406484856503,-28.040612843928102
2025-12-12 20:48:54.074981,Right,14.698292515011417,7.065004425116058,-12.171999338956084,9.60251084074116,-4.722105859145813,3.6413654707939713,0.7100002915176447,-1.8280670770836878
2025-12-12 20:48:54.079971,Right,22.422679457306003,14.381043156594387,-5.6108038706152,16.42934546626202,12.325748806613774,9.538492985942867,6.6532704974742956,4.79101508387248
2025-12-12 20:48:54.083070,Right,-1.1119444502346596,-11.209765333835094,-31.01133947102062,-9.690358683030354,14.129163846420852,-14.674108378800156,-19.331675621884642,-18.042210965657432
2025-12-12 20:48:54.086052,Right,-16.54567353049788,-25.64031976984552,-43.01016296715534,-25.03380936259782,-7.143763902447972,-25.174289609116386,-29.043916477741732,-28.007672122672375
2025-12-12 20:48:54.091052,Right,-3.133869207405951,-9.597840160240594,-25.17545473323844,-9.597518051581574,-20.191383647068506,-7.372800524295599,-7.9184761060387245,-9.449316004756838
2025-12-12 20:48:54.095033,Right,5.4333524415178545,-1.3564988629950676,-18.56133488562773,-0.9599505484729889,-10.015993302860807,-0.7431518522898841,0.37385682699095923,-0.8099871560698375
2025-12-12 20:48:54.099037,Right,-13.110723380261334,-22.16937057574978,-42.36509499665408,-20.75449713991111,-2.4193733158444957,-22.367203423189494,-22.02758384741901,-21.168403059949924
2025-12-12 20:48:54.102993,Right,-26.539756799744282,-35.159491619117034,-56.300502556114225,-33.041336394169775,-13.979765359896192,-33.28023398093865,-32.62076885745046,-33.77670881135418
2025-12-12 20:48:54.107072,Right,-7.930588922923562,-14.017930002562935,-34.99229601310799,-11.828490387611964,-21.1906628544275,-10.209806070910417,-7.571192340175912,-14.08057406138687
2025-12-12 20:48:54.112058,Right,13.490262064491617,7.043972235718684,-15.81958653430047,9.016259132687992,-5.795447160508047,10.73690716618512,13.05216298191226,4.440821800213598
2025-12-12 20:48:54.115070,Right,5.055878090545775,-4.730455826516845,-31.12970018715714,-3.1672860176331596,8.8823048994891,-0.8332241282696486,-2.2158600755938096,-8.723770929980674
2025-12-12 20:48:54.118089,Right,-11.0488850668562,-21.85107980255998,-50.31608686369873,-21.141780601283244,-0.6156169523819699,-16.44867956982489,-20.53924071878282,-26.759115176973864
2025-12-12 20:48:54.123030,Right,-2.169550592901942,-10.513429405520583,-39.14712317009253,-10.914852054502262,-15.71585397236413,-5.391396639573941,-8.925558648181322,-18.511991189770924
2025-12-12 20:48:54.127099,Right,11.73787666845692,4.1939512134485994,-24.764148355418,3.181292584802577,-11.644523879514963,6.484958750235819,2.95677317022637,-8.365372874119203
2025-12-12 20:48:54.133108,Right,-3.8070368191665693,-14.198843597088853,-43.259859113255516,-14.8366608913675,-3.1073128734169586,-12.417860982764978,-19.418366647885705,-28.663843877075124
2025-12-12 20:48:54.137099,Right,-29.60655716317615,-41.753906036610715,-68.26337011958094,-41.33699929238355,-14.064604568040522,-35.025125599229796,-45.85612803312688,-53.90530062079779
2025-12-12 20:48:54.141140,Right,-24.566018182273183,-34.87046138360893,-57.05624171721138,-33.34261511754812,-30.011640072336377,-21.9564238550538,-33.71204533048149,-43.55035605462763
2025-12-12 20:48:54.144083,Right,-0.45879065812096087,-9.758062186094321,-29.953697341188672,-7.458457346085197,-23.890927177393678,5.229492953587396,-6.630458557403472,-16.468168815103127
2025-12-12 20:48:54.147093,Right,-0.08690608679262368,-12.144237089280068,-33.77332096286409,-9.68503624799996,-7.251767311079675,1.6478040372749092,-11.89016369318415,-17.578624831505294
2025-12-12 20:48:54.151174,Right,-18.50335985982474,-32.806868109419156,-55.9893798015255,-30.925937189753313,-9.87372724879424,-19.921751083886193,-34.09595128125875,-36.92431555233634
2025-12-12 20:48:54.155182,Right,-13.7134841315833,-26.164613369073777,-49.24325963928277,-25.132260947175382,-24.883211419175495,-14.18759628515545,-25.35600665873426,-30.564255025710736
2025-12-12 20:48:54.159209,Right,13.549791071654909,3.2829027818734176,-20.374972439967678,3.9505340329960745,-21.547451457750867,12.435012556628863,4.5743468355358345,-3.437790462136036
2025-12-12 20:48:54.163189,Right,20.17256430294401,8.384351215710922,-18.005564676452195,9.119582913521299,-2.431251374166095,14.54788110906884,6.056527298831497,0.03882542462088168
2025-12-12 20:48:54.166218,Right,0.12431016041455223,-13.681759604070976,-42.50905273311946,-13.404724014424573,0.8223990386813966,-7.987408922883333,-18.749867293001444,-21.33438841822499
2025-12-12 20:48:54.170210,Right,-5.01493146005555,-17.00602363148937,-46.015140634386626,-18.207197514107975,-14.630720492597902,-11.102268344762706,-20.88396481660311,-24.040729847503826
2025-12-12 20:48:54.174220,Right,17.409485958195546,8.287872256401897,-20.53848764137365,5.400572383408871,-17.781605976855644,11.629818904006243,5.197005748465017,-0.3609679479486658
2025-12-12 20:48:54.179215,Right,30.137426557241156,20.170300271744054,-9.903488870855654,16.39698957129076,-0.3789750112046022,19.64985008486292,14.410112599191052,9.752939769903605
2025-12-12 20:48:54.183226,Right,16.966156452494374,4.47132947670616,-26.42828109664697,0.4754683771971031,9.028905577106343,3.382638481736649,-2.9722480139644176,-5.133032997058763
2025-12-12 20:48:54.187228,Right,11.336746954583951,-0.5964879476414353,-30.073255051887827,-4.8167477876122575,-1.811978027699297,1.3924196457628568,-4.92152624143273,-8.084250495499873
2025-12-12 20:48:54.191269,Right,29.68756853182458,19.692005854914896,-8.097484846512089,15.339411533321254,-8.406258166919542,24.26584145679044,19.130739061471104,13.001539257900731
2025-12-12 20:48:54.195265,Right,37.210229997040415,25.35377998529657,-2.761992460284091,21.35793435020969,1.6187768956551736,30.378075079184782,24.331375826932344,18.90568017775513
2025-12-12 20:48:54.199308,Right,13.190672839170475,-3.1484604489669437,-31.830287657394365,-6.724224493449583,4.503984099500485,2.8648062030242727,-5.945951400342892,-7.818680112461152
2025-12-12 20:48:54.202296,Right,-6.650494256982711,-24.0495545308695,-50.80532617573772,-27.853769661400293,-13.037777955299134,-15.500718993294868,-25.20580445496671,-26.703014176182478
2025-12-12 20:48:54.207305,Right,8.149087676302315,-6.129213973381411,-29.890163166375714,-10.630917693641095,-24.711797398133058,3.5446259951986576,-4.775609025851736,-9.509267034231016
2025-12-12 20:48:54.211326,Right,29.784345572365964,17.64354679099415,-5.3921138555015204,12.681176042962761,-9.57541218273036,25.951235818234636,17.527816119207273,11.488724600494606
2025-12-12 20:48:54.215321,Right,23.331924069468187,10.726828295330051,-13.348710650338035,5.600019939676713,9.656335901907369,18.820081408905935,7.7335530672025925,3.5016515660609002
2025-12-12 20:48:54.220289,Right,6.646373995140493,-5.074909410177497,-28.75293347830302,-10.592081687431346,5.37885363974965,5.941663518601672,-6.589085800198518,-10.785804760544124
2025-12-12 20:48:54.224373,Right,11.030302909922739,2.424698600312695,-19.4598157508226,-3.76042516817688,-9.130098881812955,15.680021353162374,4.844111890481145,-2.246782822345267
2025-12-12 20:48:54.227304,Right,19.951544887748696,12.140904791860521,-9.599158900971815,5.475111025931255,-8.83443751327377,23.559124422171408,14.10853764334388,6.373502151840512
2025-12-12 20:48:54.230325,Right,2.874010232115779,-7.5888913085855165,-31.063319570050226,-14.654670926560357,-3.4044023086780726,0.3758048410936681,-10.504701830126578,-14.828944238193799
2025-12-12 20:48:54.234369,Right,-20.287427541415582,-31.466591006550516,-55.474735331015836,-39.64314976155947,-14.184366069381213,-25.259861101961178,-37.31012749142974,-39.462826839811896
2025-12-12 20:48:54.239403,Right,-10.18213092249789,-17.646130471608558,-40.05063576945395,-27.77453494108704,-28.707739952420525,-12.93959972279572,-22.877231833339465,-26.803721934258647
2025-12-12 20:48:54.243421,Right,18.763351341523958,14.314905607736364,-6.623853222125035,2.4007582462327264,-21.930648645537985,15.535916902917052,8.54533559680931,4.060072290336393
2025-12-12 20:48:54.247423,Right,19.939986369944563,14.124697779578128,-6.070387584375567,1.405761137670197,-5.311710115090136,12.294802616784182,5.850493585207005,5.757412989729346
2025-12-12 20:48:54.250440,Right,-4.862338850986816,-12.115258504914891,-29.981698405994393,-24.866929528590845,-9.222600345978208,-13.02066737383575,-19.576823708241136,-15.129232123348629
2025-12-12 20:48:54.254439,Right,-11.863880663417149,-16.30315012709798,-29.92386615990108,-28.749776801887492,-28.298116774376467,-13.946193718401446,-18.345998892342323,-14.317480025401892
2025-12-12 20:48:54.258405,Right,4.727383130979433,3.9449132069967163,-6.695970811291772,-7.957571759085113,-30.749600851168907,7.424768885919548,5.732176498864646,7.567451086400979
2025-12-12 20:48:54.262457,Right,7.155253440847446,6.529081952965498,-3.890723316355434,-4.907745364980656,-14.871972183413163,8.496330531148487,7.072697202904237,9.892721676558722
2025-12-12 20:48:54.267470,Right,-11.184755885614322,-12.153385269930368,-22.320496574313438,-23.877417246512778,-9.92939250944346,-11.48414580356257,-13.254707674441306,-8.458785035818437
2025-12-12 20:48:54.271489,Right,-13.869575063772572,-11.249054779756989,-19.070555673541094,-24.13115780523367,-22.37354876829886,-11.48622980838627,-10.769035720011743,-7.180595428595552
2025-12-12 20:48:54.275493,Right,7.172330038545624,14.33231842548048,8.66593085380373,0.21748610242866562,-26.637721561430226,11.2843125192976,15.618205566754114,17.303185398293863
2025-12-12 20:48:54.278535,Right,13.921278524255285,21.12120329512254,15.129361354294815,6.454782468921621,-14.788457475947325,14.351860604153444,19.16089149371328,22.758070657921053
2025-12-12 20:48:54.282468,Right,-6.961550010956671,-2.5813733994327777,-9.35526512575234,-17.05962153188375,-10.895573279668497,-9.829202536334378,-6.89513390970933,-0.17233561840475886
2025-12-12 20:48:54.286517,Right,-17.996277215568625,-13.938555500092662,-19.037184010798228,-27.57429719396896,-24.07867461922342,-17.719005014605045,-14.516061414191427,-9.058072859832464
2025-12-12 20:48:54.290558,Right,-0.15495038957760698,5.473948519060286,3.4923896816872,-6.529011445971264,-29.80853109247255,5.177928869293737,10.907565329001955,12.379347616333689
2025-12-12 20:48:54.294562,Right,11.096310615985203,15.522744609907022,15.447906924691779,5.642679444517853,-15.671720369765353,16.689578642050947,22.785202303266487,23.664641971718083
2025-12-12 20:48:54.299516,Right,-9.276421504488098,-8.045158317896494,-6.931183831704402,-16.321022935779183,-6.125868771678142,-5.257513983565332,-1.9475765659572062,1.1357347552748251
2025-12-12 20:48:54.303589,Right,-28.693923790057852,-27.190135634832586,-23.458971475585713,-35.10417080128536,-17.724088068189303,-22.006225247553175,-20.668761147902842,-18.79964172482869
2025-12-12 20:48:54.306603,Right,-13.95047312511997,-8.337206743664865,-1.2179902356838284,-16.77656797020245,-26.441511130483377,-3.4344008922796547,-1.693943781409871,-4.671127934088872
2025-12-12 20:48:54.310595,Right,10.464344332551264,18.449836261130258,27.44536252510079,9.405509863398038,-10.347121421099473,18.897056017003024,20.14598892855338,15.314058686752105
2025-12-12 20:48:54.314604,Right,7.228534097770535,13.991076342955694,23.80666374561224,4.480575148014395,8.74324136154064,9.771516809321383,8.223693100158926,6.43258897710075
2025-12-12 20:48:54.318666,Right,-8.830935793814206,-2.5364567394310598,9.216259406211975,-12.72042054564372,2.5814372219565485,-8.133991201262461,-11.355848993582185,-10.984177198766702
2025-12-12 20:48:54.322654,Right,-2.7211496105355764,5.493222156129377,19.579848958301227,-5.66326327504612,-13.982964106822692,-0.25690035533955324,-1.9639688652869154,-3.124608400854413
2025-12-12 20:48:54.327653,Right,14.081204658918068,22.24831202764159,36.24798453099356,10.119446833215989,-11.528203629633936,14.523798067414873,14.484707220524797,12.863944823566271
2025-12-12 20:48:54.330609,Right,6.5394595065263275,11.04448928039082,22.912141608785532,-1.9752898262722738,0.6675196735468489,1.2079811049397904,0.35710087759525777,2.2127378383756877
2025-12-12 20:48:54.334678,Right,-15.701030217920561,-13.2640648727712,-1.977381910868644,-27.141627543454888,-5.201646450110275,-22.44610393433993,-24.283653558154583,-19.774042974858276
2025-12-12 20:48:54.338678,Right,-14.281229684587743,-8.9870096444497,4.27968867938398,-23.126240251333,-21.22448891924614,-16.37308633724956,-16.85163390586422,-14.148540759624666
2025-12-12 20:48:54.342696,Right,7.168543289657464,15.849470022066953,30.709072990150162,2.9012317439191975,-17.264271164929596,8.240762222930357,9.257324086649987,9.983621515058076
2025-12-12 20:48:54.346711,Right,10.726201484896592,18.914020271034587,33.53538012321951,8.364039845959269,3.426110661626808,10.107364698919469,10.214894740704722,13.057873063423358
2025-12-12 20:48:54.350730,Right,-4.904997084979186,1.7061396588146636,16.510176466342273,-6.813042982284969,9.85919319453751,-6.495952020193954,-7.2470597898191045,-1.806475826973383
2025-12-12 20:48:54.354754,Right,-3.6117316588988615,4.377463978773903,20.7836407255636,-3.729226890611244,-0.7310709773009876,-2.618120277618118,-1.0348274896513772,2.877241152244551
2025-12-12 20:48:54.358748,Right,18.53684128117675,28.604856213833955,45.315351284387816,19.585468277145992,-0.2215751764615561,20.261382362331915,25.081305516889188,26.38819345293291
2025-12-12 20:48:54.361764,Right,23.92104519483655,32.97191125166137,47.23791562453823,22.7377521868475,15.66725939800017,21.670044332272482,26.670710531658756,29.345106408583774
2025-12-12 20:48:54.366718,Right,1.9793544121057494,9.20624443343786,21.198948072600132,-2.1473755032702684,18.05303377535347,-3.186796169405625,0.5402311505715716,6.287430366321104
2025-12-12 20:48:54.370827,Right,-10.38157554760619,-1.6023335645813859,10.70969932721573,-14.093955125148568,-0.3947402915891871,-13.853409841696248,-8.166745190077563,-2.897820246770607
2025-12-12 20:48:54.374809,Right,5.1307899399180315,16.634918902978825,29.849535644822026,3.396910355389082,-9.29875692288806,2.1785299569241943,12.724985794050099,15.587484686232983
2025-12-12 20:48:54.380799,Right,17.05162710422519,27.427294442971288,39.853363489039566,14.607512087335635,5.30046055265484,9.338288548131004,22.895721405966924,26.80598556111113
2025-12-12 20:48:54.384836,Right,5.17955207500745,12.001039749647134,23.594966597093844,0.6821632609890003,17.103695480152965,-6.03713533089649,7.415583860390598,14.592094356121379
2025-12-12 20:48:54.387850,Right,-2.513025661010033,3.7846191343896862,16.4676952697082,-5.9364902488805456,8.941069880054783,-9.446752402020593,3.807499955439198,10.604861496838566
2025-12-12 20:48:54.390840,Right,13.511497176576086,21.85798520516073,35.56440771397047,13.195037168682575,2.14064783410322,13.347193918974881,26.884151958111033,30.009493772385667
2025-12-12 20:48:54.393796,Right,24.142079103732613,31.729693287426926,43.82690806334813,23.723940517235405,13.434813977493832,24.569886165423668,36.23527385934631,38.40473084616042
2025-12-12 20:48:54.398863,Right,6.23629612311197,10.018733059603619,19.592874609821592,2.333802280581949,22.5363611134635,2.9633193395766284,11.16263947373045,15.927500070491078
2025-12-12 20:48:54.402872,Right,-10.574593027980882,-8.320603362346446,1.1290627676353324,-16.29488432262633,11.254110877403946,-14.418350587320674,-7.0270677369753685,-1.360816685077225
2025-12-12 20:48:54.406896,Right,4.832594901885386,8.94362690674825,20.02685877713884,0.20047551083121107,-0.14349638871863135,2.828201974382864,12.777538791340703,16.503795209123382
2025-12-12 20:48:54.410902,Right,28.26738422987546,32.80317903965988,44.17353549613654,23.42213503549931,10.857852060453297,24.400791078672228,35.8613097191037,39.53789296038485
2025-12-12 20:48:54.413936,Right,22.561335971795415,24.568551784353986,34.980287467225935,14.968272177621714,26.374424108531457,14.31642748350987,24.25818987773164,30.70382397431058
2025-12-12 20:48:54.418015,Right,2.258956887084423,3.382847299109926,14.296740013462113,-6.257667092177655,19.305189808421346,-6.300333816900093,2.7563411304690817,9.451764825071223
2025-12-12 20:48:54.421953,Right,3.5700292875662853,7.451828497911265,20.089948719514723,-2.217671599492519,2.056267871548698,-1.8306333717291636,9.3534785780339,11.97441696856913
2025-12-12 20:48:54.426008,Right,17.102764253866553,22.877276008941408,35.514420407507714,13.34192106243745,2.676239098314909,11.631619374031288,24.660677662939634,24.456684409848094
2025-12-12 20:48:54.431047,Right,8.288101684422145,12.396595908287054,23.330100226132345,3.1552249554868013,13.036418986428544,-0.2950021267624834,11.440363736703148,12.979251728862437
2025-12-12 20:48:54.435064,Right,-14.732601842650183,-11.712841890441268,-0.9782404097331892,-20.877483274647602,5.662366418677266,-22.25411406918829,-12.161174643099002,-8.755875380695215
2025-12-12 20:48:54.439063,Right,-15.52835726790181,-9.820226749148787,2.722693378880649,-19.21335424194558,-13.657623412551402,-17.030787424858318,-5.888179766920075,-4.079612253806772
2025-12-12 20:48:54.443059,Right,0.8252875189791666,9.221143299528194,22.22126472615855,-0.10207532368121974,-16.53771664663691,2.9090266198691097,15.152540953547941,15.611574677250246
2025-12-12 20:48:54.447050,Right,-3.208158495632233,4.112523028794385,14.851281419571023,-4.407422073547423,-4.360103867127691,-2.0477477149297556,7.778100296873163,10.578243658903375
2025-12-12 20:48:54.450061,Right,-24.63715855272494,-18.940849256865476,-10.146328724007617,-26.415905231691795,-3.3462862164888065,-22.17072732807719,-15.945829770980708,-10.918599279773844
2025-12-12 20:48:54.456055,Right,-22.039604222256457,-14.40648870561563,-5.081032238249463,-21.267030104111655,-13.094948638565256,-13.71639088709071,-7.743846133749685,-4.713912916133268
2025-12-12 20:48:54.459014,Right,6.9896883768778935,17.21871872410702,27.498827523926593,10.641798124784145,-7.594435798697305,18.271467959086294,26.412360816659202,26.724266159304534
2025-12-12 20:48:54.464092,Right,16.7409597289261,25.330131805705605,34.99987855730433,19.110736457071653,12.195913477857175,23.666330857374305,32.16535156876853,33.836772594746435
2025-12-12 20:48:54.468106,Right,-6.748176297493046,-2.0781864548189333,6.9373947991662135,-7.967580339729466,15.007882708458055,-5.135526386327001,2.066855573679277,6.081628345793433
2025-12-12 20:48:54.471110,Right,-21.15064986152356,-17.410355873063963,-7.597413441275421,-23.210599430304683,-4.508608584528702,-19.81075992193655,-12.004621891508577,-10.315846130761201
2025-12-12 20:48:54.474132,Right,-3.00923145968045,2.2922716446810227,12.526903091329586,-3.408331897588141,-13.20651394712695,-0.7544987844939897,9.281524168880424,6.243171426242043
2025-12-12 20:48:54.478117,Right,13.731312051033456,18.930375626045134,27.47137148800175,13.451542223681827,3.3280531424425135,13.239939958099058,23.47970359001556,19.802885311446516
2025-12-12 20:48:54.482096,Right,2.8390796244275407,6.942704578825214,13.759090355426451,1.2332935996146261,16.32080104601482,-0.1395467048878345,8.222241705132546,7.364421748608947
2025-12-12 20:48:54.487174,Right,-7.597979669761116,-1.799131880310597,5.900900468339387,-8.529664807007066,6.4115270527145185,-7.978382036473704,-0.00733903143191128,-0.7521793911455461
2025-12-12 20:48:54.491207,Right,8.952242564391781,17.704800321211223,27.439756382260384,9.98761641906276,-2.910282828950585,11.716998578951461,21.01622314454289,17.326927594427616
2025-12-12 20:48:54.495197,Right,26.718155534996185,34.43201788428996,44.330122167422815,26.838551188091515,9.406561009949655,26.826707219313903,35.37171520825905,31.3237406671833
2025-12-12 20:48:54.498213,Right,17.515190147831163,20.753859990265482,29.57940266516016,14.226971556294302,23.779885118572565,12.85488712894221,17.87905827514078,16.78399799863655
2025-12-12 20:48:54.502153,Right,5.62231042384883,7.124474712094525,16.338198391284095,1.4775371751693456,18.84445821252666,1.4815515495429281,4.4241690360577195,4.026217735203318
2025-12-12 20:48:54.506219,Right,21.823434941554297,25.823022086693527,36.31592258049204,20.321835411919892,11.804396437251853,21.209587472963904,25.429373393308197,22.268031475892712
2025-12-12 20:48:54.510247,Right,42.203043835521385,47.690512441775354,57.457898783526616,42.023807539240806,23.628090677724686,40.537686829331506,45.797231588017894,42.05221511041236
2025-12-12 20:48:54.514254,Right,29.176859469593182,32.95600910779103,40.175783709342795,27.203200114619904,36.23348406362129,23.29541001684447,26.80717660128721,26.556922195424704
2025-12-12 20:48:54.519262,Right,0.9124019476876128,4.306861983037379,10.23971350274951,-1.5010171906178584,24.575812099119503,-4.444756913715537,-2.5044483193378255,-0.8364709927845979
2025-12-12 20:48:54.522221,Right,-0.24756439091288485,6.495619383724261,13.110836039286369,0.8622078353200777,4.736722124987864,-0.6858353784828068,2.7880108236749948,1.9683259355733753
2025-12-12 20:48:54.527315,Right,17.272303216912405,26.857936358905135,33.717270496119454,22.16093661670493,7.265555027523078,18.216531059710178,24.08223778165484,21.62845405925691
2025-12-12 20:48:54.530247,Right,13.779159048099245,22.701812582650746,28.5941372184825,19.588110229535232,23.412426791983307,11.728466883590954,17.91266655797881,18.26482841064353
2025-12-12 20:48:54.535332,Right,-6.548544526973274,1.4754997691961762,7.347872074045881,-0.3636379877680156,22.15672132025793,-8.546282189025078,-2.622785129220574,0.3455294982268242
2025-12-12 20:48:54.540274,Right,-4.860906538775453,4.380747709579737,11.851543049822794,2.961445891447511,6.110794728872861,-2.4823433412493614,4.707795673399232,6.041268988359661
2025-12-12 20:48:54.544345,Right,18.464973767782794,27.307542804297555,35.535067470558715,26.027856762371812,4.540117661788827,21.68302933909581,29.576920860450628,29.082606055751967
2025-12-12 20:48:54.547370,Right,23.113287974556442,27.333478210915928,34.40080833286265,26.658486265776446,17.801809391785355,20.94450941429568,26.513357099120185,28.48795810454976
2025-12-12 20:48:54.550317,Right,2.568428867507464,2.5628715906532307,9.183274417649955,2.896671546404832,17.1127906042384,-3.5217309081854182,-0.8011897009200766,4.305187205114635
2025-12-12 20:48:54.553322,Right,-3.636876925396791,-2.711850216404855,6.07852915235344,-1.38535786848297,0.49223687629637425,-7.644417629315285,-4.485889744231827,-0.8711151207353396
2025-12-12 20:48:54.558410,Right,16.824739642132045,20.563694542295707,32.26690253044944,22.856345339179825,-1.7445226022864517,14.836044902995127,20.228470294594445,20.48667265889526
2025-12-12 20:48:54.562413,Right,26.031356500730908,28.667054538913362,42.26966858752712,31.969284291335498,15.886227768751269,21.088097963869586,26.383320627268404,27.290541985268646
2025-12-12 20:48:54.566414,Right,7.16439446129516,6.075756051544886,22.170167103842687,10.085666205050074,22.451545581989194,-0.5999876025216508,2.7951922578758968,6.875828323347378
2025-12-12 20:48:54.570412,Right,-3.690839324692206,-5.98824066708039,14.518206488155556,-1.7191603341925656,7.373430843807,-9.17505793140299,-5.605692086315685,-1.4026952365529723
2025-12-12 20:48:54.574463,Right,15.119033527003921,13.598307069551083,37.97673601327551,18.30891498848723,-0.017111580458731623,11.92585570250776,17.937831881616148,20.021531486447202
2025-12-12 20:48:54.578447,Right,30.780315630367113,27.74898817670328,52.85315959321815,33.721795182867936,15.730477253429854,23.962015746315956,31.358023161006713,34.30908946877025
2025-12-12 20:48:54.582477,Right,16.844366494486167,11.209663405294123,35.440597033877566,18.980086995761667,28.285273609755677,5.270070005546586,12.62929344972872,18.639926530056982
2025-12-12 20:48:54.586464,Right,0.8514243689060095,-3.0692417855570966,21.263662039928022,6.2706650897234795,18.38398572389997,-8.973883367048984,0.07298736432130681,5.39381596052408
2025-12-12 20:48:54.590489,Right,10.775972899908083,12.656776397485373,36.91127721010707,23.13654545589816,8.219980235040566,6.587592645602854,19.258064001627645,19.929177725131012
2025-12-12 20:48:54.594436,Right,21.916298730720882,27.5271504056509,49.10132163288654,38.94388615753269,18.229149073027656,19.989303676076815,34.25974175036754,32.47827096000401
2025-12-12 20:48:54.598455,Right,4.518861456239392,9.776247852434608,27.287573995523417,21.717923708129092,28.281931968684148,3.0180086948403186,15.34316953572852,14.78855072258375
2025-12-12 20:48:54.602521,Right,-18.2437149937723,-13.12064170918893,1.9673082135414006,-1.3237184006029565,15.736359779168197,-14.570492481383553,-4.569184191968816,-5.661799943780352
2025-12-12 20:48:54.606553,Right,-11.807293014833704,-5.095982253202237,8.943507225867506,6.6023026847869914,-1.1769219992238504,-0.06392564917041454,8.838061271020706,3.7102710384278907
2025-12-12 20:48:54.609546,Right,6.272415378640289,12.16630794413868,24.056540283720096,24.88485912179749,4.190034075832955,21.175639680877794,27.267725546233123,20.16593863740127
2025-12-12 20:48:54.614572,Right,-0.41894276101811556,1.1571716522157658,10.237609306564991,15.980467329118255,18.722919757075942,13.074518306433674,13.175193566097732,8.833643433546968
2025-12-12 20:48:54.618658,Right,-19.419433051065425,-20.504076039771462,-11.982020505747641,-3.491889243843616,14.712631870015684,-4.216743171049529,-9.487830853642663,-11.454566244148737
