timestamp,label,FC3,C3,CP3,Cz,FCz,FC4,C4,CP4
2025-12-12 20:56:05.172877,Right,2311.697626124364,2672.4728397882895,2657.322392830506,2341.7540049754602,1497.1928667697837,2090.9376779237527,2443.403569019552,2851.1299334253777
2025-12-12 20:56:05.189929,Right,12453.047054276954,14394.952376474223,14313.612397785486,12614.197885808891,8079.084560850362,11263.016264752012,13160.9749852512,15357.133464094444
2025-12-12 20:56:05.192913,Right,28546.735338564748,32991.65147918235,32806.211829856125,28911.7372668069,18565.988214283716,25815.786979833843,30163.09102699862,35196.53049126362
2025-12-12 20:56:05.196955,Right,35732.95568397117,41279.07068584113,41049.350836523554,36174.66761968268,23325.788530384045,32307.37127623013,37739.07404404027,44037.30243391963
2025-12-12 20:56:05.200941,Right,24279.89029203124,28012.25155607637,27860.540008992582,24544.3694902641,15958.45578789214,21938.521260158654,25608.35084318665,29883.01281389517
2025-12-12 20:56:05.203954,Right,2934.1849319384783,3316.5646278053173,3306.2262112582684,2896.414046663209,2080.592053583925,2624.639358534492,3028.7588743320666,3535.1349150090828
2025-12-12 20:56:05.207984,Right,-13154.377159425814,-15285.050980343949,-15189.970244993572,-13403.46973032289,-8392.68919071724,-11930.208040395053,-13978.751869606407,-16312.037096030195
2025-12-12 20:56:05.211987,Right,-17225.976705367328,-19980.908611579856,-19859.871535571932,-17509.583731025225,-10999.359281235258,-15611.863929529209,-18271.7304205487,-21321.99607141246
2025-12-12 20:56:05.215965,Right,-12310.515783015406,-14284.152745304047,-14196.495952925703,-12513.759356783645,-7784.120219443925,-11161.533282411692,-13062.061123985448,-15241.127361314371
2025-12-12 20:56:05.220037,Right,-5276.2740420482005,-6142.955713267205,-6102.825364945806,-5386.193817598862,-3282.7569953792263,-4794.911405579594,-5617.846005955595,-6552.245212814421
2025-12-12 20:56:05.225065,Right,-1451.6377908800496,-1717.7683746452676,-1703.740072691813,-1513.5349676650949,-869.795770910685,-1335.1693987938343,-1572.8582477783784,-1831.8068969777087
2025-12-12 20:56:05.229008,Right,-2257.9079505561385,-2647.980723273009,-2629.0272892819485,-2324.4718395317905,-1368.7526121281553,-2066.636423890828,-2425.4209420994157,-2827.7143570934422
2025-12-12 20:56:05.232078,Right,-5453.869817117462,-6340.357844300219,-6300.7780355981085,-5555.650832249434,-3396.103106676368,-4957.546737727243,-5802.795751684462,-6769.192795414128
2025-12-12 20:56:05.236075,Right,-7499.8193106639665,-8702.948954993277,-8650.808690449689,-7629.530497893924,-4766.4831224149675,-6805.266602692078,-7963.154539790703,-9289.93736593111
2025-12-12 20:56:05.240070,Right,-6681.087125057937,-7753.590602239012,-7707.806954068714,-6801.435063757119,-4311.897469182615,-6062.30887992552,-7094.94262311724,-8277.5365077483
2025-12-12 20:56:05.244100,Right,-4378.104184469674,-5087.867010040907,-5057.760243050405,-4461.363262268016,-2808.469125547097,-3978.618756751064,-4657.080520346644,-5434.1713804538595
2025-12-12 20:56:05.248114,Right,-3173.21598159289,-3691.951259996975,-3670.3006492390996,-3233.4765858299797,-1971.5575191036332,-2887.17159139819,-3378.9747313692933,-3943.3193027193192
2025-12-12 20:56:05.252137,Right,-3894.6083470626036,-4524.034431280103,-4498.930651007802,-3966.386589275906,-2463.294234957546,-3535.8281366926385,-4136.854454682791,-4827.764878358925
2025-12-12 20:56:05.257143,Right,-4990.137505965191,-5788.31660391856,-5757.848089070525,-5079.330545675941,-3251.197240886162,-4523.407154317945,-5290.495329372934,-6175.082164075691
2025-12-12 20:56:05.260132,Right,-4764.626351768267,-5523.486875242088,-5496.077130373567,-4843.188572035986,-3105.185083193006,-4318.32168475457,-5047.74885502574,-5893.61631761957
2025-12-12 20:56:05.264158,Right,-3495.002506346558,-4051.3199959993362,-4033.4982889115345,-3546.1553767062724,-2214.1120287075173,-3168.985064506065,-3702.1331775706494,-4323.902893821243
2025-12-12 20:56:05.268109,Right,-2804.7974704137305,-3251.5277167260647,-3239.6465683591086,-2847.63642475137,-1766.1678315214813,-2542.388304695487,-2971.474100311054,-3470.471949065104
2025-12-12 20:56:05.272185,Right,-3367.419647904695,-3901.7989890100434,-3887.4730357427616,-3424.775314194616,-2208.938321532216,-3049.511121242889,-3567.0596541962586,-4165.395694649778
2025-12-12 20:56:05.276193,Right,-4083.687961408519,-4727.911863056477,-4708.95642409008,-4147.4524570072535,-2694.0692610001424,-3697.4300410287688,-4323.753918160219,-5049.417704825988
2025-12-12 20:56:05.280247,Right,-3705.0495533527574,-4285.899312280351,-4268.332289463608,-3751.9919991461793,-2379.439115097164,-3354.6180119371274,-3920.0365344316233,-4578.311260792892
2025-12-12 20:56:05.285235,Right,-2554.4167116120225,-2952.308254329255,-2941.388237627689,-2581.918072205968,-1605.23638993036,-2311.4643159132684,-2699.595894632861,-3152.32902636216
2025-12-12 20:56:05.288257,Right,-2012.9851077485364,-2325.6248030636925,-2318.3437656157184,-2038.6467704870738,-1321.0278390878811,-1819.7520547475433,-2125.3920093649067,-2480.621806239942
2025-12-12 20:56:05.292259,Right,-2588.2724377476843,-2990.2960328618065,-2979.5591332253534,-2621.511031864444,-1736.2929463975597,-2341.2713691421086,-2733.376983123715,-3189.8783930826467
2025-12-12 20:56:05.296254,Right,-3256.751914698747,-3760.894556172425,-3745.451514236862,-3289.607045099605,-2117.279722185456,-2948.1314789882163,-3439.1887049803045,-4013.2372158472426
2025-12-12 20:56:05.300266,Right,-2915.108662392129,-3363.231377179036,-3349.1465392357204,-2938.791585519444,-1855.288388987654,-2638.4458036604337,-3076.1757859588834,-3588.0125219691545
2025-12-12 20:56:05.304320,Right,-1875.1899367332226,-2159.7346514081582,-2151.07980798441,-1890.401330417022,-1234.4294943894492,-1694.8541027635802,-1975.2685001929058,-2301.6607126232702
2025-12-12 20:56:05.308300,Right,-1376.1295500323176,-1581.92503539077,-1574.1325396678876,-1387.1350972823566,-964.7747507171007,-1241.8289755093865,-1445.9823234227952,-1683.7996352969203
2025-12-12 20:56:05.312324,Right,-1871.2906735821161,-2152.0024396814406,-2137.8470359707717,-1881.1572925739456,-1250.4566160473041,-1689.8273749419022,-1965.8698716188082,-2291.0436906400137
2025-12-12 20:56:05.316329,Right,-2465.2773965445813,-2835.325490166666,-2815.2521768708248,-2476.109394025756,-1592.3645956162363,-2226.238288600347,-2588.7003543206956,-3018.2742472589016
2025-12-12 20:56:05.319343,Right,-2193.070019460167,-2517.9328355166363,-2500.1551320048748,-2202.096407725243,-1460.1669881884009,-1978.137291891151,-2296.816467621131,-2678.8204119123984
2025-12-12 20:56:05.324331,Right,-1311.1393113482045,-1496.3338053275365,-1486.9080119379796,-1309.9045953397872,-947.4004314068006,-1180.3488068660954,-1362.6338673797436,-1591.3123794958228
2025-12-12 20:56:05.328365,Right,-870.5111601115204,-984.790181974764,-981.6069984359201,-857.1451507196762,-632.1469403895317,-783.6303514797473,-896.0744561835891,-1049.4671898331726
2025-12-12 20:56:05.332486,Right,-1262.8996216079686,-1436.7965995066334,-1434.7401201543398,-1249.958556736703,-831.2351044656243,-1138.8003238564124,-1310.1460482517723,-1533.6305892103119
2025-12-12 20:56:05.336378,Right,-1754.2094391684514,-2004.6696218148572,-2003.3050640022848,-1752.6153227658942,-1181.1581467239885,-1580.350643376587,-1829.2776834385004,-2139.766613525455
2025-12-12 20:56:05.340386,Right,-1546.9716410968686,-1765.5466312679928,-1768.6636496577412,-1547.5665065647336,-1114.6903311864007,-1389.2032184066484,-1610.738674924709,-1886.3126937624766
2025-12-12 20:56:05.344344,Right,-835.401559424703,-942.5699869950768,-951.6368930999888,-821.510651703109,-637.3918258008198,-742.1963402816327,-859.0175218960503,-1011.2714084852487
2025-12-12 20:56:05.347435,Right,-459.8049843447516,-508.0734654723201,-519.5064086295897,-434.4199643309694,-329.4640320864273,-397.5631919996813,-462.19886489980854,-548.8571506525623
2025-12-12 20:56:05.351418,Right,-745.3785421731882,-839.688713774085,-849.1171874803258,-727.720900179469,-527.6910176799283,-649.2140235879924,-765.1425623414107,-901.3272544896463
2025-12-12 20:56:05.356424,Right,-1128.9292070533847,-1285.490397304413,-1292.5366837223992,-1124.015968693886,-846.772412711638,-990.9698385973461,-1172.710293503129,-1375.8435658911476
2025-12-12 20:56:05.360429,Right,-982.8075543283485,-1117.504248441779,-1125.1040735393763,-974.1731507807272,-749.1519545960473,-856.5815688521834,-1019.5655927894404,-1196.3291006502695
2025-12-12 20:56:05.364435,Right,-436.0499147163937,-484.78488421591464,-494.8584268495906,-413.5547549473122,-321.5967091420898,-359.73048628587276,-440.72076818114147,-519.1041622927878
2025-12-12 20:56:05.367453,Right,-124.35512118373299,-124.29237358027603,-135.39202733093407,-99.90981642401312,-110.13954068830935,-73.33291833422845,-109.4294792682631,-129.98609181062784
2025-12-12 20:56:05.371475,Right,-312.49159045290435,-342.5492407490383,-351.7513851762633,-298.54499030613806,-304.2926689051674,-239.6783461404848,-307.393671452126,-359.56918329373
2025-12-12 20:56:05.375483,Right,-597.2690894642728,-671.5284652161063,-677.8731220989139,-586.5445778530557,-511.9203959880979,-496.86859962990275,-607.9790821729111,-710.3187262197025
2025-12-12 20:56:05.379438,Right,-505.51912701531546,-563.5637051482336,-568.8823532106471,-485.07013609836577,-388.8774434744264,-414.77485783334123,-509.58679770556046,-594.9335945147905
2025-12-12 20:56:05.384500,Right,-107.2494738449459,-101.61203712166753,-107.77506981074112,-79.30893390020356,-103.49321480409708,-53.46624236914795,-86.5660591169144,-99.26344752172008
2025-12-12 20:56:05.388525,Right,145.15992057521362,189.94742031552596,183.71951609116513,170.6747874933062,-1.825522240542341,176.4676701470744,181.34125169517938,215.25536600092892
2025-12-12 20:56:05.392544,Right,43.456375314097386,71.6825041671982,67.71384541480802,67.01103481644532,-104.3983366759494,82.88589935770142,73.8386409158702,90.4145695992629
2025-12-12 20:56:05.395541,Right,-148.4997090085817,-150.02310843151645,-151.35342489328468,-120.3797119318915,-174.3046206300496,-95.6970653856115,-129.08330940120504,-145.79490880962112
2025-12-12 20:56:05.399653,Right,-98.00859055996989,-91.61281691928161,-92.86405858473154,-67.7273693899333,-101.75348044800921,-55.75937458014232,-76.02308469737181,-82.17794301974936
2025-12-12 20:56:05.403611,Right,169.62077131972183,216.42773020415916,212.8376815521915,194.90958780783694,19.999172464275034,180.13025503375684,204.72680414860952,247.18835459792172
2025-12-12 20:56:05.407607,Right,364.1815461432416,439.8549658492411,434.51961793511873,386.59277336124796,102.39755633176537,348.54384968135855,406.70951312470424,483.515737186317
2025-12-12 20:56:05.411576,Right,336.90285027930804,408.379052291486,403.54856588031544,363.37072137350333,140.36087933664385,317.20644528408593,375.09148347457085,446.77280398472794
2025-12-12 20:56:05.416629,Right,232.91898197326373,288.9377592047367,285.2989565045991,260.80394728724605,138.6780720561801,220.91841516242494,264.33402406267123,317.76473911424364
2025-12-12 20:56:05.420632,Right,251.63514832439932,310.35071327957485,306.80743238778814,273.1092002563273,120.01650708555826,238.9228079001914,283.78762617089524,339.54794070061325
2025-12-12 20:56:05.423646,Right,397.9008528488048,478.88981177269306,475.0754101430066,415.7555823024304,159.5003006674815,371.0140038105237,437.77113622418256,516.4758989931433
2025-12-12 20:56:05.427651,Right,529.4626912336535,631.865206569928,629.0241235216672,553.7034875253739,279.5044640428605,487.491491598048,577.1412161711778,676.5090549481683
2025-12-12 20:56:05.431656,Right,560.5693751048384,669.6632914894144,668.8451976157085,590.5962594563898,368.3090112513901,514.2133345922484,611.7641023375909,716.46963291266
2025-12-12 20:56:05.435618,Right,532.4975785640709,638.1957132368989,639.0709191619244,558.1046998330858,332.56737577750755,489.87880301006953,583.7164428502438,684.2731401106867
2025-12-12 20:56:05.439693,Right,521.6179934152169,625.9862138000317,627.7825166971597,542.1582271844964,263.08324732319306,480.6516179626342,572.8158123353496,670.7140828581178
2025-12-12 20:56:05.443698,Right,559.7459962930589,671.4062849145266,673.7588273206493,586.3725041798316,304.8501722912479,513.6388112345012,613.9389910279424,716.6936240975047
2025-12-12 20:56:05.448725,Right,638.5200410102843,764.4094950950821,766.8904841574258,674.9641779043595,425.16357077473367,583.7137728026428,699.251549616456,814.8867116240435
2025-12-12 20:56:05.451726,Right,724.6195819097338,864.7048325396026,866.7277148458525,761.4776402189163,473.26200394735497,662.4817892945139,792.6290421715821,923.302624191565
2025-12-12 20:56:05.455749,Right,763.776727527671,909.837718510651,911.7189571488416,795.9656802272075,424.7827431593614,698.5455270529492,835.7710218348075,972.8697808850557
2025-12-12 20:56:05.459746,Right,729.1019803806557,870.7275770239066,873.8205908710952,763.5776033840957,393.470164841332,665.4066334444797,800.7663483425858,931.5639261635952
2025-12-12 20:56:05.463776,Right,680.4759491842124,816.5817633108818,821.5002018816303,720.7288689243142,424.90014045740827,618.8802729942254,751.1042809878709,874.9838806925109
2025-12-12 20:56:05.467708,Right,717.1740153317805,859.8835223844508,865.5421927506104,754.9934035055921,454.72435768673313,650.7004534054431,790.3019988290034,923.2156624736963
2025-12-12 20:56:05.472762,Right,841.6554816573043,1002.9011184338015,1008.3429382512113,872.2998254814302,463.3617523830035,761.7632866191561,920.2271330318181,1075.8777479658602
2025-12-12 20:56:05.476802,Right,927.3925352103543,1101.511138242553,1107.683414505329,959.1420992707135,496.2498100263183,836.3573232201743,1009.0170278361766,1178.536028747796
2025-12-12 20:56:05.479808,Right,876.5175635478226,1043.6098826020025,1051.9557761467295,915.5771272765705,528.1834293605643,788.2336923844414,955.3148707096698,1115.0234153409256
2025-12-12 20:56:05.483806,Right,768.3661195783643,919.215068655205,929.1892509034369,806.9954247563146,487.8026452602935,691.3069103095331,842.2795921351062,983.5187376767863
2025-12-12 20:56:05.487832,Right,771.4209448483307,922.1022498284001,931.4966281524394,802.0436634140788,428.82938149012625,695.653563377331,845.9553662053077,988.184411607217
2025-12-12 20:56:05.491851,Right,912.8891091763508,1085.38653370901,1092.836105170194,942.3024847236229,482.8841175601119,822.6136906418251,995.1314879397396,1161.8685356656788
2025-12-12 20:56:05.495813,Right,1025.8985275620362,1217.3481209250167,1223.2460717197973,1062.850707814563,611.3733766289079,922.7531795982504,1115.1280703964876,1301.9212806213181
2025-12-12 20:56:05.499898,Right,968.9962800994981,1152.851827228209,1157.7858479921706,1008.0735911712982,618.1417190909851,872.0283811540576,1056.5928144358331,1234.4317916982109
2025-12-12 20:56:05.504921,Right,826.5100486484589,987.8867311729118,991.3863870905479,858.8645598273724,476.1767117966083,746.4959601308219,907.1456981832162,1059.7905351248337
2025-12-12 20:56:05.507951,Right,804.731129148975,962.2295947957318,963.4773312381003,836.0519561348483,414.18041590449866,729.1571956818225,884.3875455539674,1030.8525630105287
2025-12-12 20:56:05.511914,Right,952.0687306639738,1133.2033305537188,1132.3825223320164,993.3912864507874,556.9257552324561,863.0929637948284,1040.2990388550097,1210.1674960320815
2025-12-12 20:56:05.515951,Right,1084.4266180089908,1286.4438450532034,1285.2496070229681,1131.169347121613,700.6116483356454,984.2547051304718,1180.0014483074192,1372.5375553473132
2025-12-12 20:56:05.519945,Right,1029.1949435301358,1220.5195028112503,1221.5097949015908,1066.7976083663525,627.5089504024945,936.4763286972884,1119.6436600234592,1302.88931497687
2025-12-12 20:56:05.523972,Right,864.047980594798,1026.395984975621,1031.3500774365384,891.2758399777813,457.74460849072784,786.8823999785818,941.3976110754302,1095.3175991193857
2025-12-12 20:56:05.527975,Right,819.7162812202005,972.9921171417227,981.3513235549908,848.8793120846385,456.0451796608395,743.6644962853752,891.024327754043,1036.643123813672
2025-12-12 20:56:05.532989,Right,967.2694829507964,1142.019152518129,1151.1741809212836,1001.9705891675549,615.1745374831953,874.4299370851368,1044.4787310373504,1216.6307131375652
2025-12-12 20:56:05.536003,Right,1114.2442223840626,1309.3569020268042,1317.026398175396,1144.386978976545,690.1909033879638,1006.5694206500193,1197.1825550899375,1396.04553408036
2025-12-12 20:56:05.539952,Right,1061.9345452912385,1246.1848182397662,1252.3652352471836,1082.950481063337,591.0079558609286,958.0738905041944,1138.7952662351308,1328.0240850187838
2025-12-12 20:56:05.544009,Right,879.4998595187208,1034.812888694927,1040.7463645557873,899.8351505858591,486.88798737269826,790.7485055349534,944.1940707125468,1100.4120353360195
2025-12-12 20:56:05.548022,Right,813.530925967847,960.1147994897328,965.7321384064853,838.4453797540627,513.5696201369865,730.4997778860852,874.9236564792227,1020.1009178995155
2025-12-12 20:56:05.552043,Right,949.653834448196,1118.4644883177243,1122.25225764676,972.7814819964115,598.1065126642352,855.8449965164764,1019.6418413353385,1190.3994774911553
2025-12-12 20:56:05.556052,Right,1093.633368982817,1284.2617574764881,1285.7418509491254,1110.7261348365573,621.5112247559009,987.6331124093849,1171.2158383694477,1367.8007908256259
2025-12-12 20:56:05.560067,Right,1039.8741818160051,1221.3393815234303,1221.955288199475,1057.0840387289645,579.67127589765,937.4080476881936,1113.1421977761202,1299.3848793569487
2025-12-12 20:56:05.564087,Right,854.890477843699,1007.437221868895,1008.2534195352346,876.2296587560559,526.3416518745944,767.8258925722912,917.1898431635927,1070.5591798669193
2025-12-12 20:56:05.567094,Right,782.4292171447305,923.0858745691366,923.1309013981372,801.7332053467399,493.1501981143374,702.2278771547135,840.3459010295337,981.7302016990725
2025-12-12 20:56:05.572124,Right,906.3703868555604,1064.6025346743409,1062.6164113397244,919.8267355127027,508.47406461881474,814.9799338319572,969.8116462006001,1133.2461284061428
2025-12-12 20:56:05.576112,Right,1041.6949135700706,1219.4295722702518,1216.0763771249913,1056.3409738091286,575.6146270638565,936.2985220984556,1110.4001153202262,1296.909625385655
2025-12-12 20:56:05.580143,Right,996.6430118692806,1166.5448636787478,1163.4915109816939,1017.2515971080866,611.8480097290594,894.3046968122944,1060.8897969410755,1239.3091660512146
2025-12-12 20:56:05.584149,Right,832.1241643482354,974.9580363531131,972.4035779836122,851.2772666871315,538.651278670528,746.9718202109216,885.8721415677574,1036.0534249325283
2025-12-12 20:56:05.587154,Right,764.8504347534617,894.4838978687767,890.9832481699996,776.6029483068269,440.26145505928434,689.2717553551774,813.6856316190679,951.6897910737898
2025-12-12 20:56:05.591169,Right,866.6786895485129,1009.7451113467105,1004.2743697448168,878.9512530188076,474.3043245015433,783.119791199686,920.4469879134558,1074.1802132634912
2025-12-12 20:56:05.595181,Right,979.2046770679299,1138.6072897394188,1131.6429433897138,1000.2183351373533,607.147910225438,885.4032022831962,1039.2213383507915,1210.3993966004346
2025-12-12 20:56:05.599177,Right,941.3119554419536,1093.3430781445932,1085.9209296705667,963.6519228162942,629.4142988623353,852.5480860349489,998.6999157688115,1161.71932246699
2025-12-12 20:56:05.604196,Right,801.2612133298535,928.685808344977,921.4069623479154,813.60060940322,488.16329984134063,727.3443722444354,848.3763862145133,984.9662401608657
2025-12-12 20:56:05.608230,Right,735.3301425802056,850.1563075224403,843.2407407755964,741.9226990647148,392.6206568975467,666.6507941413438,775.2953937568236,897.8967888739426
2025-12-12 20:56:05.612233,Right,806.6185066859471,932.5290965556633,925.9479003546294,819.5634012413211,482.75400206120685,728.6236872186419,848.5971253823955,983.0539567645174
2025-12-12 20:56:05.615255,Right,892.759997767047,1033.194482340943,1026.5144679634832,910.7194248703308,599.4651095831068,806.1804548117798,939.6698303970043,1091.8272448061034
2025-12-12 20:56:05.619253,Right,860.3258105114801,995.8020637801383,988.599444205407,871.5400783077348,547.7619127860526,778.5184357140679,905.7225331205409,1055.8818442416377
2025-12-12 20:56:05.623224,Right,738.2700040517375,854.1566943705548,846.6718230654951,741.4634312149137,411.32804369868245,668.0678452260327,776.073472437216,906.8379255263135
2025-12-12 20:56:05.627267,Right,667.7827723419759,772.9043037684169,765.634289173875,672.9985243463889,396.41404951247387,601.6530229770578,700.6389905135147,819.6480619176291
2025-12-12 20:56:05.632288,Right,712.5068937605247,824.8793100316543,817.6074950271286,721.8063164917985,492.0205770432949,640.1740220338106,747.2113872212358,874.8032208022196
2025-12-12 20:56:05.636305,Right,784.0896873475285,906.223470344441,898.2336914304178,788.3796041803434,518.7470052733552,705.1614727763226,821.4084327458404,961.7709816517308
2025-12-12 20:56:05.640324,Right,768.9661782121984,886.3793622378726,877.6013378370553,765.8923956648214,440.56996867212,691.1304337466136,802.6507102895994,938.724426711211
2025-12-12 20:56:05.643335,Right,676.399148759665,778.3016864540987,769.378201281419,675.1339618444908,392.8903450529324,604.9807756801601,702.0485989019508,819.7848728199024
2025-12-12 20:56:05.647344,Right,614.3710844814777,706.7247968984302,697.8344489284791,618.5789374910528,427.37386331660673,547.0291796287056,635.0005354692694,741.6910235423129
2025-12-12 20:56:05.651370,Right,639.4949754184345,734.8501109764911,725.4675403481815,640.8435507646063,449.5501767513342,570.1954913525842,660.841285948758,773.0878604126628
2025-12-12 20:56:05.655374,Right,688.7136201775866,789.4939070697874,779.7694277279079,683.1967713354388,417.80574467463885,615.084147150279,712.352424376295,833.245962906396
2025-12-12 20:56:05.659376,Right,674.7399503382621,772.1091259322129,763.4296373929828,671.05602139642,403.66768606740516,601.1824168121675,698.471136899665,815.8429037116002
2025-12-12 20:56:05.664393,Right,602.000523285009,688.7282513782848,681.9903378395829,606.0168767588912,426.3422294178745,535.0917466208339,624.7647493203403,729.3369875343051
2025-12-12 20:56:05.668403,Right,547.6763242443558,626.5358470166102,620.6829783297144,552.0042059033876,411.87249124457594,488.46277345565613,570.789245567983,666.8833595791366
2025-12-12 20:56:05.671424,Right,551.5479749261867,630.1692920816131,623.4555927214678,549.6776998876594,356.15512635477353,494.3243220639415,575.7154934586724,672.5611529871821
2025-12-12 20:56:05.675430,Right,573.557727305335,654.5604790472426,646.5375705594197,571.6036560782231,353.1082522283541,513.2763134622946,597.1528019210091,696.6431593124289
2025-12-12 20:56:05.679442,Right,561.3674653592752,640.0840177750215,631.3563124471111,565.1522706694668,411.2469208026305,499.8434199898038,581.9570591660449,678.8342472545337
2025-12-12 20:56:05.684447,Right,516.8186862750445,587.6362074860372,578.4661586371949,518.9688552975422,414.4386986490572,459.24251099897083,533.1780952739064,623.1550519939046
2025-12-12 20:56:05.687442,Right,477.1886671484681,539.680200976436,530.0620326326462,469.3439375483431,328.75507955707144,424.49164043110795,489.7464243671857,573.1725468572695
2025-12-12 20:56:05.691449,Right,460.4282532040961,518.7702251058072,509.31192129605915,448.59605686634313,277.85316280904226,408.8960990385385,470.7274945139652,550.1207336824154
2025-12-12 20:56:05.695473,Right,454.64915093721356,512.6165241935523,504.0197615615325,449.1155711427564,329.6283677970059,402.4081872337265,464.3450762620196,541.7435265969252
2025-12-12 20:56:05.699479,Right,445.2546640011715,502.9552836990915,494.8189099418232,443.14972297044005,374.00182588316966,394.83760184433777,454.73179727664683,530.6913904444082
2025-12-12 20:56:05.703494,Right,426.9424971587723,481.86831633152906,473.17057289683726,419.1014945022762,318.6898178125266,380.7002591796918,435.0230504376814,507.91792235546745
2025-12-12 20:56:05.708521,Right,397.3596321447985,447.4240079957526,438.1302683313843,386.04044687072746,249.9092340596253,354.1090795240598,403.02903495379724,470.13655309705064
2025-12-12 20:56:05.712531,Right,361.8082776495721,407.1964223830728,398.3249241322046,356.00949871737976,269.1948908222839,319.40520048106555,365.76425525615923,426.9628650197992
2025-12-12 20:56:05.715560,Right,338.5765269922558,381.42255191213917,373.5239209975116,336.2017911124276,312.0334695058409,296.5654446625849,342.2033120903652,401.6281165436376
2025-12-12 20:56:05.719603,Right,338.1456023673527,380.5517017795937,373.153409885359,329.09962188254576,277.94368104741443,296.38873588852584,341.3875032941578,403.1223446952645
2025-12-12 20:56:05.723595,Right,341.04232882964425,382.66774112917483,375.26397474692203,325.8235946035711,217.87840024742763,299.05927721364424,342.4249171093106,405.015150164254
2025-12-12 20:56:05.727550,Right,317.79992966447026,355.4273672658019,347.9807665545959,306.87031250307336,228.69704526779242,277.42818472802173,316.4659216948785,374.1079514065059
2025-12-12 20:56:05.731582,Right,271.6123584319139,302.3219090292696,294.6206847706344,266.6134012953844,264.95198214869015,236.8710657566553,268.3513478949899,317.7464952523587
2025-12-12 20:56:05.736596,Right,239.83627457427792,264.9506630618125,256.489041012479,231.38872224395163,230.36507975700079,211.26080049050506,236.0856141014956,280.04112083732616
2025-12-12 20:56:05.739609,Right,244.25759580743033,268.50350385846104,259.42905038944446,230.02308480301872,171.8431565029896,216.5787781527033,240.85248613811564,284.33919281105045
2025-12-12 20:56:05.743587,Right,258.17697916936595,283.6676073493436,275.02857794763986,247.17318366584368,195.84440714976517,227.34196746861562,254.91545475285966,298.9661466511898
2025-12-12 20:56:05.747624,Right,240.04214698798023,262.6012475885218,255.1097720573889,235.24152848054655,255.83480026945472,209.63156185741536,235.5773984626867,276.16028328682296
2025-12-12 20:56:05.751577,Right,189.68010618397966,203.6886935143266,196.90157586557325,181.8978741687024,222.56865855166689,165.7061833225889,182.19166424917057,214.99390553915873
2025-12-12 20:56:05.755642,Right,150.3538287729025,156.8171414701501,150.0259540961124,135.15956533304416,125.87706986867124,131.71212184708565,139.58264254883397,165.50710239924956
2025-12-12 20:56:05.759680,Right,152.55028317600954,158.7800941100577,151.9649808370741,138.3304999466054,115.6542848831159,132.03390553424833,140.7453308678232,165.61402036750223
2025-12-12 20:56:05.763738,Right,172.8540103455307,182.5803186596604,175.90371236077044,164.4743653332116,193.43986598146148,147.21457790507702,162.00737174169626,189.3468406748725
2025-12-12 20:56:05.767673,Right,162.62765806971584,169.9243491688976,163.05737761768978,151.18337966583204,200.97119416826172,136.28967969794758,151.16938479361124,176.25090135866776
2025-12-12 20:56:05.770722,Right,111.35226194938878,108.13579618022777,100.82048707362264,89.95539163448848,99.09841828921344,89.10349997942103,96.0302448666771,110.57381140091456
2025-12-12 20:56:05.775715,Right,63.4914952222025,51.03211395232938,43.684720708522946,40.58794648939511,40.167591659526806,44.223694742424414,44.65037367254263,48.091552190016955
2025-12-12 20:56:05.779734,Right,63.05951111699687,50.97086233535083,44.030644193291664,48.504802400188055,102.15205407707253,43.250309014634695,45.026722021459136,46.599707361194305
2025-12-12 20:56:05.783713,Right,92.67041024187347,86.2327616349794,79.47229549789336,81.6980370064266,157.85820990614593,72.87640318268677,77.81635633256519,84.39453277422581
2025-12-12 20:56:05.787728,Right,90.90438753803028,84.41844020859571,77.59439214755548,74.67876176600112,103.34591109788744,75.58869742194656,76.2000713145244,82.14780913846334
2025-12-12 20:56:05.791749,Right,34.48243642330635,19.72643971798243,13.353872102801688,16.72175036650151,29.513148335332517,26.493156877870206,15.911690427805297,10.70311672508251
2025-12-12 20:56:05.795765,Right,-24.723834921140224,-47.09203622932546,-52.45075556932716,-35.7515060872538,45.52227541594766,-27.330501930438913,-46.51052612217609,-62.425310032849666
2025-12-12 20:56:05.798783,Right,-27.080203074030578,-48.82240492507117,-53.49404757760931,-35.180218014807906,92.67222714796662,-29.133866428164765,-48.06093508540653,-62.29922326107044
2025-12-12 20:56:05.803772,Right,10.38170290295966,-6.537727458693553,-10.971913436369505,-4.30990596517222,71.99777104303939,5.30678285821341,-8.245300755545031,-12.900383479835
2025-12-12 20:56:05.807765,Right,13.999447640322614,-3.761867635883391,-7.376836348557845,-5.376740264415275,22.607828167907428,6.63234617607668,-5.010149200214073,-7.095118125376757
2025-12-12 20:56:05.811804,Right,-43.72609565057792,-70.29059214220615,-72.23919555026805,-58.9652924775728,26.194765874184668,-49.21780455525732,-65.8960715032299,-76.86421226954553
2025-12-12 20:56:05.815822,Right,-103.81303502852097,-138.88339078519493,-139.5754573813174,-116.55341403890634,46.30368917121086,-105.01280141313327,-128.14357672445476,-147.93384875252377
2025-12-12 20:56:05.819827,Right,-103.57194975198945,-139.02373801218346,-139.69650473759975,-122.9859958170855,13.1156511878944,-103.50390049107955,-126.85507627265179,-145.07098188390955
2025-12-12 20:56:05.822847,Right,-64.86719130081474,-95.56440567754908,-96.54483338847058,-89.92366941799992,-28.265074132825248,-67.94120861415286,-85.88665756760747,-97.1699500256218
2025-12-12 20:56:05.826823,Right,-61.570375905401306,-92.29365064247395,-92.87202514064847,-82.28930445056176,-7.360275810729945,-66.49655938189244,-82.44858684125938,-93.56232550545246
2025-12-12 20:56:05.830801,Right,-114.88133208127692,-154.0470223890443,-154.03390206111362,-130.73085658517084,20.090555499802576,-115.81788588652853,-138.47733316282392,-158.35715531447204
2025-12-12 20:56:05.836862,Right,-166.82033474557102,-215.15280133861233,-215.38686243700795,-187.71489232114982,-29.44054065895034,-162.30509494923172,-193.55706510224263,-221.69756939960644
2025-12-12 20:56:05.839860,Right,-164.86215638977592,-214.09212427955936,-215.16768247951404,-192.23959314491367,-93.51686092032469,-160.63285037028254,-192.2578878434433,-220.741263312113
2025-12-12 20:56:05.843885,Right,-132.6270290465618,-176.0628164000227,-177.45486569427885,-155.69885623555456,-62.71395121811656,-132.90264546616527,-157.92276655163732,-182.47809796055662
2025-12-12 20:56:05.847896,Right,-131.51503943915304,-172.38424713752465,-173.2429758309445,-146.31553067946516,8.873992754757637,-131.99108782045369,-154.77515892403608,-179.89999052585335
2025-12-12 20:56:05.850887,Right,-176.27258052553225,-222.5937623517384,-222.77006270032143,-192.6237415157084,-16.801477278611856,-170.02510063939553,-200.17453157625278,-232.91647552725044
2025-12-12 20:56:05.854838,Right,-220.75703020043147,-273.9659600435116,-273.7400535335619,-244.13353814810398,-112.81606750638457,-208.06455079735315,-246.7869616441385,-287.7134174778621
2025-12-12 20:56:05.858914,Right,-223.0163728944608,-276.2971734813473,-275.6727135229012,-244.7815065678151,-123.92692145734327,-210.37609198904102,-249.21338924369775,-291.4790644921086
2025-12-12 20:56:05.863935,Right,-197.1027410145034,-245.4892589890842,-244.4664632162203,-211.09515494453808,-39.832678570674034,-187.81690813949535,-221.1518366207565,-258.7950272436683
2025-12-12 20:56:05.867925,Right,-189.7616884244344,-237.35402842824118,-236.39613159599975,-204.20223780008905,-16.75131552935636,-180.49061460631492,-213.12320829586542,-248.59545804183654
2025-12-12 20:56:05.871938,Right,-219.94146545174772,-274.1435439960878,-273.5540370400995,-242.3732549040942,-102.8968729229673,-206.90312400699963,-246.27667075638965,-287.3705053555386
2025-12-12 20:56:05.875962,Right,-257.5045867671133,-318.84632948333456,-318.12471287146036,-280.7017231650534,-157.27187632051937,-241.59172149322148,-287.2430384958716,-336.8033043932519
2025-12-12 20:56:05.878977,Right,-263.597627528703,-325.4539987754906,-324.0778489386357,-278.66013798184576,-102.7127230369515,-247.69330359448213,-293.08006444957573,-345.217672730927
2025-12-12 20:56:05.882925,Right,-240.95093035670288,-298.85566720794304,-297.24370320489106,-253.46017488400685,-55.083704637596384,-225.60843956535973,-267.8190364608745,-316.2246642441896
2025-12-12 20:56:05.887015,Right,-230.52154139174672,-287.5632534440374,-286.44710048845445,-250.1450702387665,-106.6364066987444,-214.47299091462628,-257.16253241171944,-303.9999734026933
2025-12-12 20:56:05.892020,Right,-257.4723321936617,-318.9570736564492,-318.27116263376956,-280.5299435710185,-167.36115034848626,-240.03723595041083,-287.2499635511049,-339.67000331447343
2025-12-12 20:56:05.896029,Right,-297.2187118343136,-363.09836891284795,-362.3411799489404,-314.04469128281926,-141.6564995561348,-278.3089406594372,-329.2529284508637,-388.4684388312162
2025-12-12 20:56:05.900037,Right,-308.7800190654525,-374.0968865576142,-373.35058628508705,-321.29515475188964,-99.13419106959918,-288.2611023055797,-338.9281011422863,-398.03973588888766
2025-12-12 20:56:05.904014,Right,-290.7987859374407,-352.35936604221934,-351.999614788132,-307.59700858348515,-131.6013303719701,-269.1506101499981,-316.9741739309684,-370.60504649140057
2025-12-12 20:56:05.907022,Right,-281.5380215231271,-341.5494145480916,-341.2562908390537,-300.8209945874696,-180.57739543176376,-259.54037963270093,-305.72379424088285,-356.8264308551443
2025-12-12 20:56:05.911077,Right,-303.2450095672684,-366.1562050495995,-365.3520090634411,-316.57354081847006,-158.19876849917546,-280.235945410328,-328.444419728854,-382.8290868292388
2025-12-12 20:56:05.915099,Right,-332.3502529170364,-399.80982387432596,-399.05918630515225,-342.0920776432904,-120.1058466090708,-306.84908799792174,-359.6330490068358,-417.6311613772996
2025-12-12 20:56:05.919124,Right,-337.1637025504315,-406.999281635246,-407.80068707239116,-353.8649006464693,-156.63281331726466,-309.937378351955,-365.853565278172,-423.2512388952309
2025-12-12 20:56:05.923176,Right,-323.46990541170817,-392.82242203044007,-395.77926704561105,-346.9815787166299,-213.21764677191823,-297.27338495422737,-352.2956401956326,-407.3729436227586
2025-12-12 20:56:05.928145,Right,-321.2763770472957,-389.5827770525357,-393.76896160648903,-340.6512448923313,-189.68091886580805,-296.4052331147541,-348.81533865525853,-404.4013267880655
2025-12-12 20:56:05.932181,Right,-339.11990112331114,-407.8751673892257,-412.13737025921,-351.93872766103595,-134.33131029207289,-312.2505965817545,-364.6705742383492,-423.65867063822225
2025-12-12 20:56:05.935109,Right,-356.1757461760717,-426.4217673696694,-430.27374436194077,-371.93860819831025,-159.22033446040587,-325.4136461408052,-380.9356321702944,-443.04506432579365
2025-12-12 20:56:05.939170,Right,-356.3444941623602,-427.15986718650674,-430.22895572311245,-378.1649265331798,-227.45492359455966,-324.5948787708476,-382.7333486485295,-445.99519237177446
2025-12-12 20:56:05.943167,Right,-347.5761710908264,-417.4246869175113,-419.08055007777875,-366.44739116023993,-214.83308460998524,-318.3708777692518,-376.8247374832863,-439.7823642042349
2025-12-12 20:56:05.947208,Right,-344.0105557923089,-413.01484550966416,-413.0095158726908,-355.91191450617043,-139.91074286031653,-316.1888981355005,-375.15967587329214,-437.2396069098031
2025-12-12 20:56:05.951210,Right,-347.2436423242907,-417.07692680490436,-415.7852450507344,-360.63580561679555,-134.75217376177898,-316.95398515946,-378.7406170134782,-440.393109306111
2025-12-12 20:56:05.956214,Right,-352.1948460083222,-423.6435044191894,-421.1448085636948,-371.821208371548,-204.95562054152833,-318.61498123628553,-383.32957175845513,-446.00488797889557
2025-12-12 20:56:05.960219,Right,-357.5382953759399,-429.2079158940469,-424.71569159289356,-375.06091470771935,-221.00426990172127,-322.9653817411163,-387.81958094914444,-452.24289280344965
2025-12-12 20:56:05.963228,Right,-362.2100139402319,-432.1414963613497,-424.8079563244828,-371.4131163395359,-157.16350071155466,-327.56975036358926,-390.6389516265481,-455.1814471334801
2025-12-12 20:56:05.967241,Right,-362.6735340595478,-430.39957611542195,-420.09604687953833,-370.70818947668886,-136.16910690817167,-326.8663308172836,-388.6902843894786,-450.9960248055286
2025-12-12 20:56:05.971258,Right,-361.0530065485509,-427.4456035612966,-414.33768539270386,-374.55249070952414,-199.4727540840977,-324.378113211249,-385.4685310355271,-445.6662185865571
2025-12-12 20:56:05.975262,Right,-365.59992699773284,-431.5258763016318,-415.6457701016334,-378.0266697317711,-231.8512115990743,-330.2311035566381,-389.78092226810986,-450.4020313594956
2025-12-12 20:56:05.979286,Right,-376.6846114039654,-442.6039018674055,-424.51649242680287,-381.07329519838095,-177.7925989696232,-343.46794954832876,-401.36155713227345,-463.86755139305023
2025-12-12 20:56:05.984282,Right,-382.5262705789064,-448.6236273787217,-429.93903020658763,-385.65384582272964,-142.84125736443093,-350.2048788050306,-407.75184213387547,-471.0607653990737
2025-12-12 20:56:05.987243,Right,-375.6830633026548,-441.4327564443811,-423.8542044449132,-386.4805976978387,-192.86104063500534,-343.55670974985696,-401.06751161720604,-464.0237830170663
2025-12-12 20:56:05.991385,Right,-365.20603017741814,-429.4303473881446,-413.6300328699872,-378.34924960293574,-230.83544695813907,-333.5176366864471,-389.69345625158167,-452.92020147980656
2025-12-12 20:56:05.995339,Right,-364.29742846277077,-426.5780925635481,-412.7905986928963,-369.4963619724149,-182.74379907743423,-331.23400629125535,-386.56682131876005,-451.04750447615515
2025-12-12 20:56:05.999384,Right,-372.01581326668384,-433.50047338270815,-422.71383055421757,-372.2939133376349,-141.4545429124846,-333.49791943543823,-391.84166231163545,-457.53165616083425
2025-12-12 20:56:06.003349,Right,-376.3222738223849,-438.25709289859515,-431.60350055701565,-382.0048054368817,-194.37346410748432,-330.4257589535555,-395.00730825873325,-461.670572992065
2025-12-12 20:56:06.007362,Right,-371.6623326985864,-433.69283670943696,-430.84605206362903,-381.63280403014505,-255.84056780862738,-320.6844012304209,-390.4560525487759,-458.1868568554055
2025-12-12 20:56:06.012328,Right,-364.5134439554531,-425.65409017936327,-424.9407092293259,-369.2642954227631,-221.84565270208986,-310.84649338334566,-383.23252519447124,-451.42375476204325
2025-12-12 20:56:06.015331,Right,-362.87851193960523,-423.93795670592226,-423.9585652506212,-362.8523826788296,-162.52462458927766,-305.2918021280202,-380.9988919484895,-448.425909249112
2025-12-12 20:56:06.019398,Right,-367.6049208603217,-430.9776898663258,-431.2130351915257,-372.3094345240388,-192.78881903697038,-303.84259066177765,-385.98813997901743,-452.6593638472259
2025-12-12 20:56:06.023434,Right,-373.3615245874389,-439.87181411951315,-439.90391513495706,-383.3721836342593,-259.0265334150463,-304.14419051329605,-393.5123432033579,-460.68973027949687
2025-12-12 20:56:06.027433,Right,-372.8452316123876,-440.41392747312784,-439.70915724732913,-378.9346386377001,-237.76089925767155,-300.5110688796849,-394.9412129475968,-462.3290755432099
2025-12-12 20:56:06.031466,Right,-362.5171489311615,-429.01941589370836,-427.7016681235982,-363.7874152843142,-164.25343479134608,-287.4923169132089,-385.72635475348216,-450.8242161506787
2025-12-12 20:56:06.035397,Right,-349.5007140279049,-415.61336842318997,-414.44506900792476,-356.1720694237156,-168.36142183083575,-271.1643570631277,-373.8761736404849,-435.8738035081187
2025-12-12 20:56:06.040485,Right,-347.30828204739373,-415.1183879576856,-414.32327959348913,-362.08392025058856,-237.64471999238594,-267.193221296242,-373.61028410028666,-435.5610780327115
2025-12-12 20:56:06.043459,Right,-357.3027879607398,-426.8918820237741,-425.9563962671673,-369.7899030256667,-244.6747613781772,-278.5375669662026,-385.0451716238167,-449.5185582553968
2025-12-12 20:56:06.046493,Right,-362.4505190135096,-431.37931737373583,-430.45744301425293,-367.47828475985443,-182.18323366355617,-286.6072704428807,-389.9603575372603,-454.48714709235355
2025-12-12 20:56:06.051508,Right,-350.20523410255555,-416.36033789184876,-416.7312007804867,-356.5382981982548,-169.43630980147282,-277.02531149674905,-377.004520187038,-437.1308415826643
2025-12-12 20:56:06.055510,Right,-332.9334487427259,-396.7895796376979,-399.16314643097576,-346.72975646413397,-226.73358297842788,-262.44660161889624,-360.5159528532531,-416.17981354810763
2025-12-12 20:56:06.059522,Right,-330.69105618656613,-394.372248113621,-397.7254487198079,-344.6530448461417,-242.6998106117244,-263.16831403336255,-360.2906953501515,-415.5138386953622
2025-12-12 20:56:06.063627,Right,-339.4648190237349,-404.15847119293176,-407.0824541900074,-347.25956078025047,-188.50664632435655,-274.0036147017963,-370.3331273805816,-426.846455953666
2025-12-12 20:56:06.067592,Right,-335.69598334579496,-400.45520892355125,-402.83159670140594,-343.95493748621084,-170.35563644598005,-271.65141460689483,-366.42692185146734,-421.34040329931304
2025-12-12 20:56:06.071585,Right,-313.1659051963943,-376.1028470819583,-378.5915462723933,-328.55761569715105,-223.3937498088926,-252.44732719450258,-343.6321130186552,-394.38700162793975
2025-12-12 20:56:06.074615,Right,-294.48063327604905,-354.81263423734345,-357.42304391413927,-310.52579919528216,-241.85721179126995,-239.4070541652036,-325.37970399984624,-373.8422773766797
2025-12-12 20:56:06.079595,Right,-297.67792828701204,-356.34077997598797,-358.61054535734,-306.5010155920172,-180.91863825899782,-246.96152302646078,-328.96984299400356,-378.70709419285413
2025-12-12 20:56:06.083602,Right,-309.67537758592516,-367.7403355886927,-369.8111597216921,-316.83731596381404,-146.7323084216332,-259.8932379973703,-340.5730792680988,-392.17649324645754
2025-12-12 20:56:06.087626,Right,-306.41891754663084,-363.2716301457258,-365.51865336764604,-320.8259020325495,-198.94482128566597,-257.5215117986081,-336.41190696530975,-387.58573318249546
2025-12-12 20:56:06.091610,Right,-287.1996374198934,-341.25092029827647,-343.1559459025739,-304.8093718790915,-236.01325627532788,-242.97077686071862,-316.32436734600924,-365.3904706411995
2025-12-12 20:56:06.097631,Right,-272.78811514395056,-324.1943441191688,-324.8263741580304,-284.6383692928357,-183.99645641387906,-235.06867452111328,-301.3470029879827,-348.8489326541312
2025-12-12 20:56:06.100645,Right,-274.6415605932707,-325.89248702453915,-325.27948538097553,-283.96679272677284,-137.92717409384204,-240.65357359516202,-303.0806645905832,-350.40736262407154
2025-12-12 20:56:06.103648,Right,-282.0836220824858,-334.7095141148893,-333.6050980415894,-297.93251097539905,-186.33730825176463,-248.98497989587486,-310.5246649113251,-358.17331611481495
2025-12-12 20:56:06.106660,Right,-280.47901074553374,-332.3074188637547,-330.82295960513875,-299.3833126841346,-242.13389354327228,-249.16394566145027,-307.8174671928864,-354.8599815457128
2025-12-12 20:56:06.111663,Right,-268.81389489298454,-316.2221343559213,-313.79208875761833,-279.0445257718675,-199.43744318844983,-240.85466562159127,-292.91402888461016,-337.6963755368488
2025-12-12 20:56:06.115630,Right,-256.49676050659036,-298.81911628576927,-295.42381372628734,-257.78496629325673,-130.78409156168345,-230.32197940780316,-276.2510395727586,-318.2241755896248
2025-12-12 20:56:06.119676,Right,-251.67036196688423,-291.5392611044226,-287.8670291209128,-254.46688230813015,-157.22102260170504,-224.90619891352253,-268.4338902850868,-309.5854451729683
2025-12-12 20:56:06.123759,Right,-254.39558829599991,-293.7819400765002,-289.9615810352843,-260.47690640436485,-227.21297551569296,-227.96101246430771,-270.26039820048027,-313.3860561483307
2025-12-12 20:56:06.126728,Right,-256.2743622304406,-294.1392809859244,-289.2668191746343,-256.62348721921444,-211.49184525432065,-233.07604002137668,-271.4623436481925,-316.2391365353251
2025-12-12 20:56:06.130730,Right,-248.44034021580592,-283.05508048902266,-276.372312742169,-241.69465724012116,-138.69315345049836,-229.26869064348284,-261.71678351878654,-304.3021020984743
2025-12-12 20:56:06.134737,Right,-233.71096817980288,-265.7055211784318,-257.41924003488384,-230.20654409227427,-138.8192981502507,-217.1880496768863,-244.903963184217,-282.99608722736593
2025-12-12 20:56:06.139682,Right,-225.46137344208546,-257.1170047490159,-247.76190601103008,-229.17136159876827,-203.72005133423954,-211.10603051260114,-236.02377759781666,-272.42246006731875
2025-12-12 20:56:06.143767,Right,-229.1040613888763,-261.2657297194237,-251.24182853323873,-231.1775857094908,-207.39962797786575,-217.43303945101798,-239.96828314987943,-278.73876122164074
2025-12-12 20:56:06.147797,Right,-232.04397877230076,-263.09613853751216,-253.24980127089657,-227.7638414290268,-141.2840153176221,-222.0022137851338,-242.25029452715535,-283.047167062643
2025-12-12 20:56:06.151787,Right,-221.19462737586582,-249.08670842275023,-240.69913612492383,-218.29355575784575,-125.22838133655023,-210.39108042418957,-229.25858955772128,-268.55200688901823
2025-12-12 20:56:06.154778,Right,-204.04573064303258,-228.27086341474205,-221.74860276072286,-206.78616502170917,-180.79622156941332,-191.4328428489971,-209.49405420111725,-246.19631453650072
2025-12-12 20:56:06.158811,Right,-198.67228101025103,-220.0442329092184,-214.46449675713666,-198.03407441976015,-194.22297964629252,-184.70709396060556,-201.6653169968049,-237.8826005285373
2025-12-12 20:56:06.162814,Right,-205.64381061546737,-225.10722125461325,-219.78906800574623,-195.01187365996884,-133.70699839532608,-190.55650248919846,-206.45719472091878,-243.05546368611977
2025-12-12 20:56:06.166832,Right,-206.24348587810528,-224.33671213814523,-219.998184433789,-194.11434627335984,-108.92048239137512,-190.79234923690092,-205.82159457332455,-240.98530206480063
2025-12-12 20:56:06.171846,Right,-190.88315724715358,-207.73858010279946,-205.22768387687393,-186.76756803673925,-162.18535802169936,-178.07601806829916,-190.74598783015972,-223.51578918856103
2025-12-12 20:56:06.175855,Right,-172.80679300084012,-188.37488109408878,-186.93925219972152,-171.61769738642033,-187.16342951345723,-165.57270325592253,-173.65873441752046,-205.70879570778925
2025-12-12 20:56:06.179942,Right,-166.37839744589292,-180.87549599795602,-178.6165304533206,-159.1988509328221,-129.8202599932556,-163.37803361425176,-167.51140176830813,-200.26014797389507
2025-12-12 20:56:06.182899,Right,-166.79008157987846,-180.61388621199876,-176.18720837985165,-157.31300865917,-92.77748310915194,-163.50652345985873,-167.3042480875738,-199.707078442676
2025-12-12 20:56:06.186902,Right,-161.94007035379764,-174.72350915818242,-167.6795595342992,-158.4003118459368,-143.51857806061162,-156.31872389873024,-161.77667800278869,-192.22996031551156
2025-12-12 20:56:06.190984,Right,-152.23611231765244,-162.60949424828868,-152.58057718811324,-151.1061063593952,-185.57741978485137,-146.39732691337122,-151.52805084828287,-179.9364641373977
2025-12-12 20:56:06.194937,Right,-146.51954840461258,-153.58221177151427,-140.40010792127578,-138.99360954447184,-137.53854909073561,-142.2452576973592,-144.73394252191065,-171.41786249214783
2025-12-12 20:56:06.198990,Right,-146.31252026185393,-150.85915999067947,-135.36875588429393,-134.85885077423882,-86.38140919385478,-142.02618226181949,-142.77637977933045,-167.2859824540792
2025-12-12 20:56:06.203960,Right,-145.53487135429168,-149.02882193599362,-132.7274075790774,-138.84760341286892,-126.01081407914171,-139.41634506295668,-140.30279794509988,-162.86267320788465
2025-12-12 20:56:06.207970,Right,-141.59039984608535,-144.34632842842257,-128.16543342161458,-137.45633279689355,-180.65101025119657,-134.73372571414802,-135.00109050393803,-157.42133879475296
2025-12-12 20:56:06.211009,Right,-136.77905847277725,-138.11930602998473,-122.31812350120163,-125.6572554128361,-143.91092845337698,-130.82007312891074,-128.60452816420002,-152.07058748678537
2025-12-12 20:56:06.214995,Right,-131.01030534517486,-130.92414582212223,-116.04214980220422,-114.35339117376134,-76.23242981522344,-125.06876986532006,-121.10963312070817,-144.46869559097104
2025-12-12 20:56:06.218994,Right,-122.38580310746329,-121.70387658453546,-108.56827233219519,-111.29665806540288,-93.23786262923386,-115.17687688989099,-111.86884127126541,-133.72243772889487
2025-12-12 20:56:06.223020,Right,-113.64513814117527,-112.33892156276852,-100.92756535846274,-109.40749645786127,-152.62785399449058,-106.73351642728085,-104.12786699680146,-125.0592048583203
2025-12-12 20:56:06.227020,Right,-108.92953007551841,-105.53912472026423,-94.83673090278171,-100.98693880904466,-135.70695768325822,-104.86771596019389,-100.68998712103348,-121.42881407198729
2025-12-12 20:56:06.232042,Right,-105.23307238571579,-98.66706724424148,-88.04660947545199,-90.3905787525,-69.63211558526382,-103.70807199692354,-97.13563173142029,-116.14864359534113
2025-12-12 20:56:06.235051,Right,-96.38929474481847,-87.4489104411914,-77.38610549247824,-84.11442533310037,-75.26982726802817,-95.19863784115296,-87.59960027149646,-103.05319375410909
2025-12-12 20:56:06.239060,Right,-84.87202509352937,-75.36804986814968,-66.44027118833037,-79.58850929496111,-139.81527238927083,-83.72019200905925,-75.5778476127307,-88.48038275761064
2025-12-12 20:56:06.243081,Right,-79.56359660910675,-70.54723148758058,-62.55051069072215,-72.94305128493579,-140.17369058873737,-79.6464854174992,-69.77331212902209,-82.53944518620847
2025-12-12 20:56:06.247097,Right,-81.03250874450896,-72.54564501449931,-65.13862098834943,-67.93087053619092,-72.69878668081947,-81.74748898966936,-70.00068344298052,-82.82447172491811
2025-12-12 20:56:06.251098,Right,-79.73466126038693,-71.67913332371973,-65.16618630522862,-67.46949110692367,-58.80870079723536,-79.49527155287797,-67.40359481144696,-78.66684255475411
2025-12-12 20:56:06.255065,Right,-71.2175722803222,-63.39514314086409,-58.086879790818784,-64.95621614635456,-116.41325457236962,-71.0751938855974,-58.90652978263097,-68.4124959599576
2025-12-12 20:56:06.260137,Right,-61.77898128970992,-53.468237836204935,-48.846931024454534,-54.18571690702811,-126.49881144802202,-64.65132880868623,-50.46134730940685,-59.51161019329447
2025-12-12 20:56:06.263145,Right,-55.721023724472616,-46.410500262863934,-41.82819259498501,-41.107631620252505,-58.242606220330345,-62.124959619308356,-44.92644756787922,-53.59501938521862
2025-12-12 20:56:06.266099,Right,-48.98965091665741,-39.25154893670697,-34.94236238556914,-35.25539016089169,-29.267456213303376,-56.756146475090645,-38.24967273324728,-45.3804140354041
2025-12-12 20:56:06.270168,Right,-39.38937014871044,-30.003075820975937,-26.527517207781784,-34.33191034331685,-85.35091549358913,-47.81493679928826,-29.43082189076813,-35.34851391875418
2025-12-12 20:56:06.275188,Right,-31.250614328775555,-21.91561086801812,-19.115647384664044,-28.241958252037875,-111.82673750648974,-42.431122078734916,-22.916947408695705,-29.369083870726172
2025-12-12 20:56:06.279186,Right,-25.74440245103324,-15.770293802255765,-13.088633425009903,-15.730472568597179,-45.32309104662272,-40.9194177709287,-18.82979410426924,-25.85157719498966
2025-12-12 20:56:06.283142,Right,-17.79883900412824,-7.606399385083932,-4.9463739693164825,-5.608205307566095,7.201660668302793,-35.12017730320804,-11.633225879224483,-17.15166331839282
2025-12-12 20:56:06.287213,Right,-7.290287519688718,2.1375645562657155,4.7015096707618795,-1.9773317820508964,-35.93530258582905,-24.37848187657073,-1.2790334557066672,-4.495404085027985
2025-12-12 20:56:06.291222,Right,-2.467777393059805,6.626787549233995,9.5274261275772,0.3441920945770107,-83.6936270754668,-18.60437719002948,4.808073489461094,2.2910413749632426
2025-12-12 20:56:06.294219,Right,-6.0951949983718805,4.551695360860322,8.095275973144453,4.651208518742351,-44.22935647139093,-20.759077792143216,4.628821590915322,2.0171378640225157
2025-12-12 20:56:06.299228,Right,-8.446010481682606,4.704059592273552,8.038461110147182,7.652979793725535,7.029334834078327,-20.641067217453383,6.127030995063251,5.140612121263985
2025-12-12 20:56:06.303217,Right,-1.7552383084839676,12.561136116390117,14.332188824249897,8.442623719514813,-25.808157126855804,-12.529606007941766,13.787255141796777,15.708521546097472
2025-12-12 20:56:06.307220,Right,7.885561613395112,21.352601711289026,21.272529606794706,11.94350285755354,-77.02251536020776,-4.9796501187374815,20.865189102856675,24.149680853413884
2025-12-12 20:56:06.311243,Right,11.970314872713061,24.01247127071838,22.874261240736814,19.772918471921002,-43.29655927635031,-4.6691111459513195,21.810521307314048,24.49222075549187
2025-12-12 20:56:06.315370,Right,14.310175440477906,25.900463783182204,24.247707902104594,27.153358845738694,21.17667463675025,-3.4841312067292165,23.311570696241688,26.112990296212956
2025-12-12 20:56:06.319289,Right,23.099994504416827,35.56201672676252,33.3485582806461,32.30243525962578,5.224632652418222,7.134048742649611,33.39038445186452,38.31433470346383
2025-12-12 20:56:06.322293,Right,34.668939972441876,48.74125651383656,46.2285819259414,39.062418451852864,-51.767639382276684,19.731763034360483,46.41791117921821,53.37363757198909
2025-12-12 20:56:06.326309,Right,38.61336267166189,54.02429093021783,51.959439946338534,46.99843089989736,-34.47941386469756,22.316976882808376,50.86461813154165,58.05893513711635
2025-12-12 20:56:06.331275,Right,35.86811126820976,51.42117341115954,50.074763399898075,49.61693250742974,31.714080139587168,18.18667711946182,47.62282219421468,54.60715278619318
2025-12-12 20:56:06.335324,Right,37.64218185856589,52.241606564522954,51.10077882674523,46.89913537778193,29.083533389872173,19.73450165815302,47.97722241215524,55.75676567002665
2025-12-12 20:56:06.339350,Right,46.80117647975567,60.81199615247897,59.54600595115335,48.55813845843659,-29.75729590357514,28.082358954270603,55.423880844318774,63.87422692278051
2025-12-12 20:56:06.343366,Right,53.74756143850391,68.81882727018092,67.82394651474897,58.37530250658165,-24.319865748489974,33.50171050379868,61.9620939893648,69.69241149752634
2025-12-12 20:56:06.347373,Right,52.893510037945816,69.96753068841645,69.55402525624959,66.17537011470995,46.07918231052463,33.14256101107458,62.75579786833259,69.51958580961218
2025-12-12 20:56:06.350380,Right,51.13103453052463,69.34212345044944,69.07810719611007,64.2345323858026,56.905550432624295,34.266008197388146,63.099587862117914,70.09311156050535
2025-12-12 20:56:06.354396,Right,55.46703227557009,73.76005864955368,73.29417661603657,61.21083398236078,-10.775267874094425,40.019993709458504,68.14207057424937,75.93826706489199
2025-12-12 20:56:06.358343,Right,62.4564440267568,81.48424407897983,81.42603430879535,68.11729202656716,-32.914367511548335,44.89483494585147,75.11080250676605,83.41194504019222
2025-12-12 20:56:06.363433,Right,65.92271323825116,87.21629252695129,88.33776850858703,79.61362200380245,29.556382213530014,46.20289539251826,79.71029982771142,89.08745076393825
2025-12-12 20:56:06.367429,Right,66.46282737568254,90.28502583291265,92.36152713705087,82.90833421848947,60.487935515106074,48.17658992156794,82.28286540711997,93.88933881826233
2025-12-12 20:56:06.371474,Right,67.17699954331329,92.35621473738865,94.66321583130048,78.76034412439913,6.2127219394024,52.08317998879647,83.84682566169067,97.2067212293332
2025-12-12 20:56:06.374458,Right,67.98720618066727,93.4489159029763,95.86212110996712,79.27548647116055,-25.342544994331547,53.887641551627894,83.75515946064843,97.08067731501069
2025-12-12 20:56:06.378451,Right,69.520151460325,94.76483806794567,97.41293901085737,87.6899984114716,31.732635445703636,54.19604263633664,84.24614711548202,97.22614454929135
2025-12-12 20:56:06.382431,Right,74.94352278464066,99.27742436206609,101.55472676652425,94.67841485899407,76.76138769989484,59.00345571973594,89.49021972322953,103.41992521985958
2025-12-12 20:56:06.387484,Right,83.02917049409007,105.69049139885465,106.66031091169862,95.25075886461127,29.822588911425555,67.68956657321542,97.49493685840571,112.25255777916755
2025-12-12 20:56:06.391497,Right,86.57568407707731,107.87846148961398,107.44413957170036,95.26454222931352,-19.24366640165681,71.46909015005804,100.57975437387358,114.07655295079167
2025-12-12 20:56:06.395513,Right,83.45306036842521,104.84831353268237,103.62379695205891,98.75359097139153,22.07295396142581,68.4003269875393,97.4809283146169,109.08921319137153
2025-12-12 20:56:06.399584,Right,82.26928267224866,104.96270601509605,103.20291477152205,102.07808298544114,78.02954537204641,68.858701026591,97.35535336592147,109.47168459421664
2025-12-12 20:56:06.402592,Right,89.17981692790636,113.29077042597055,110.90797305155138,103.32685372706328,47.89859527426597,78.50519967483706,105.61886339661578,120.3385668383271
2025-12-12 20:56:06.406573,Right,96.43068204005976,121.54972533413093,119.0179500530794,105.67228516131581,-5.632422884955304,87.10061298899382,113.78452374354674,130.10751256972435
2025-12-12 20:56:06.410528,Right,94.65684611547476,120.5478555411828,118.65828325432813,109.09032446672063,25.269860105210682,85.05080412016105,112.60788370881346,128.7347788525367
2025-12-12 20:56:06.414648,Right,89.29373439929623,115.82231608378788,114.43727658133139,109.25275141461316,91.32098928841879,80.02312210724631,107.47191133003071,123.90061029656499
2025-12-12 20:56:06.419576,Right,92.0811796750495,118.98445641760554,117.08585694017529,107.24939219245061,78.59687303617102,84.00721149238962,109.34308948587568,127.39456313182018
2025-12-12 20:56:06.423622,Right,101.97143512927505,129.11038408284003,126.34737524298907,110.45050966312192,21.489866022886417,93.653972156706,117.15830988985181,136.0385426392204
2025-12-12 20:56:06.427612,Right,108.03051005398447,135.5128587500767,132.71115016806652,119.88040931575051,36.70024571706017,97.91826630159267,121.59859624273304,139.51535681083624
2025-12-12 20:56:06.430623,Right,107.93040394439595,135.65814602173305,133.42107897303322,126.6477292074942,102.76414527746965,97.52417534800043,121.651069500429,138.81029723886968
2025-12-12 20:56:06.434574,Right,109.77018927738209,137.3268254771474,135.1873513129549,126.10831859042901,99.57573903106822,101.492281470335,124.5143165221657,142.56234883947036
2025-12-12 20:56:06.438643,Right,116.24649042869532,143.51070420111887,140.98817592373223,125.37771534895683,34.34351200390665,109.25120442664138,131.02372324320277,150.20920753604065
2025-12-12 20:56:06.442653,Right,120.16779170866732,147.46008579184854,144.90458468610086,129.8624070457372,29.748793407168705,111.48439857261519,133.62333843790657,152.87189782250425
2025-12-12 20:56:06.447661,Right,117.55308516312925,144.83801592018244,142.70916441748886,132.60764321091665,95.17330650059375,106.59991418143409,129.44856890024312,148.83613365793462
2025-12-12 20:56:06.451699,Right,113.80386131802516,140.42644219340946,138.7835414087749,126.66240687093887,109.21233859079075,102.45165809387709,124.63464497953828,145.34661504189717
2025-12-12 20:56:06.455665,Right,113.27139652479309,138.9827298126911,138.2271064915767,118.9006833319545,47.0820663865743,102.04331251968142,123.56740282040482,145.426256151728
2025-12-12 20:56:06.458701,Right,112.55294065977068,138.03228346957985,139.12816349346394,119.46088700131077,27.801502285863535,100.32706231215343,123.2623555185055,144.67520225438057
2025-12-12 20:56:06.462668,Right,109.37917980027851,135.03180020173022,138.15957366862858,124.95010824289784,91.9573954111438,96.6488164917173,121.69072615789628,142.24939692825865
2025-12-12 20:56:06.466721,Right,108.94029977644823,133.8347955605568,137.49888445105898,125.32843790733023,124.73186070553129,97.66646603669506,122.61470821901457,143.4524159216162
2025-12-12 20:56:06.470720,Right,114.48957535727095,137.3243922151014,139.6874970021745,121.40132561571954,68.78097510537373,104.4239557654364,127.39208084198617,148.7213450221825
2025-12-12 20:56:06.474743,Right,120.40225775058934,141.19344736060884,141.85482024159137,121.96680420382472,30.30490375182262,109.11241798033006,130.87762305679644,151.63021433982067
2025-12-12 20:56:06.479790,Right,121.8018500251128,141.75311776415765,141.4924326427281,127.45308920457319,80.92463010126119,108.93626268287335,130.63774566226493,151.0860489802435
2025-12-12 20:56:06.483714,Right,122.37897332434659,142.12923464480264,141.48768061126611,129.65785599157243,125.83944828584845,110.52940615527041,131.2814468555589,153.4599306056043
2025-12-12 20:56:06.486718,Right,125.61983153170877,144.62405728115118,143.6243926007446,126.64486552884046,83.07907320782215,115.95474539591669,134.68354449376784,159.23449465549493
2025-12-12 20:56:06.490792,Right,126.94016323670803,144.83138457369932,143.64526670124906,125.10829642103636,36.645695482351584,117.09394060488557,134.9930445055361,159.93484495537996
2025-12-12 20:56:06.494798,Right,122.30408233296475,139.77099645751878,138.6137141504296,126.8992565033841,77.41315026269876,110.09633254211076,129.01672440761467,152.78672646652558
2025-12-12 20:56:06.498799,Right,117.27323113793682,135.07336330143153,133.54767572760466,125.93447288952302,131.36157573052333,103.62095865148149,123.3041671350802,146.90980095912528
2025-12-12 20:56:06.502794,Right,118.55924178147689,136.5888552247925,134.1120715240686,120.91425740151317,97.8108415190909,104.84173360274872,124.00058533778065,148.7879615832935
2025-12-12 20:56:06.507784,Right,122.20727742929012,140.09649106724828,137.05006095762656,118.53967598642339,38.52325007597756,107.80286759926821,126.77406875544693,151.97412009518303
2025-12-12 20:56:06.510830,Right,120.12277129045106,137.96006059035426,135.50863200312597,120.66883948807663,62.3429307878032,105.04288833720784,124.87037326677819,149.1167065189511
2025-12-12 20:56:06.514862,Right,113.81635032319173,131.65546200094104,130.21448549786874,120.05488142394461,120.78100653670481,100.96058424162038,120.66973946253711,144.23909551218094
2025-12-12 20:56:06.518850,Right,110.8057430369663,128.1410805532214,126.82692712146672,113.41613249281363,98.27784828936274,102.66606338230486,120.15221695927903,143.588169553419
2025-12-12 20:56:06.522842,Right,111.22002623694425,127.70915056293597,125.55847429558344,108.17855542256439,29.32440413290169,106.44249876106915,121.69868368083553,143.72048970447213
2025-12-12 20:56:06.526798,Right,109.54514821532939,125.65353667043382,122.55911953140458,110.18538649679977,35.64540267633129,105.49729012195894,120.29446646073484,139.4133021752059
2025-12-12 20:56:06.530881,Right,106.64344884338789,122.8129061077343,118.85911452685832,114.00475153514708,99.7725874328462,103.48210293143347,118.08577230232186,135.19798492267728
2025-12-12 20:56:06.535871,Right,108.08754385841894,123.94025708478875,118.66302400492714,112.92261938950105,97.78426260265405,107.33648502631695,120.2612224828481,137.37132455462415
2025-12-12 20:56:06.538904,Right,112.2542319271306,127.42379318650637,120.41133108994109,110.20490369247273,29.964120320262737,113.0155085073784,123.95631787201273,141.12859608492
2025-12-12 20:56:06.542908,Right,111.9781661980087,126.9918443456263,118.62394110065361,111.67189330974361,19.530201622597815,111.88094727895805,122.06769824998628,137.95595518613118
2025-12-12 20:56:06.546928,Right,107.89080893479695,123.29716561314126,114.22504316062259,114.53962923778454,83.71159738861024,106.64967239221733,116.02925825519196,130.90594963624608
2025-12-12 20:56:06.550875,Right,108.42042958566162,123.6048546989623,114.04253453508136,113.42669753996597,104.87324817130866,107.05101313440537,114.02464721017168,129.74281012656866
2025-12-12 20:56:06.554946,Right,115.27114057829021,129.02515792685153,119.23349687653536,111.3219297415344,52.75373048231995,112.45389747078298,117.21318996843183,134.2560179750435
2025-12-12 20:56:06.558994,Right,120.516129094176,132.4211094220227,123.23885211831657,114.24730425265443,39.29894775519642,113.24003739829641,118.65017985420127,135.78249017542112
2025-12-12 20:56:06.562988,Right,120.65341042526416,131.2034754345077,123.15309569941019,119.65646415954689,103.70119908689958,108.6089483028336,116.5571023557859,133.63568889407907
2025-12-12 20:56:06.566986,Right,121.9663652532472,131.62765268821386,123.95528969456791,120.69286831148202,133.62839361579972,108.10084959107917,117.26715149957454,135.81855649707722
2025-12-12 20:56:06.569997,Right,127.71523903991329,136.52453255822184,128.03669276287837,118.44722513010493,73.9779634389779,113.9423385814589,122.37698679568712,142.7032905111555
2025-12-12 20:56:06.574991,Right,131.00202274550975,139.00413401037804,129.47316052467795,119.05445660967962,32.95972538260685,116.6741137340141,124.22599754392286,144.35602771386039
2025-12-12 20:56:06.578951,Right,126.68316396347655,134.19736164770438,124.07807731657522,121.29856322817795,84.3969539503014,112.01017842823057,118.86481350561371,137.42582561905147
2025-12-12 20:56:06.583020,Right,120.70215613902838,128.08609319938114,117.27943362554652,118.70444790145848,132.8068542716137,107.93137611608836,113.23167614854174,131.19693538360298
2025-12-12 20:56:06.587032,Right,119.75595229012833,127.37196438066894,115.45071301975986,112.57637489511399,91.59972979672602,109.65709829441039,113.45205794353387,131.8417200385593
2025-12-12 20:56:06.591039,Right,120.17492625993327,128.50935478528845,116.05276450837846,110.85239415193792,41.68589815852465,110.85579345616861,115.33072783108219,133.26202427476528
2025-12-12 20:56:06.594041,Right,115.9333779582812,124.99632329453016,113.43443396876683,113.65104406501632,76.64628418335633,106.61393891238549,113.18760623366688,129.73507069482002
2025-12-12 20:56:06.598063,Right,110.34129782821401,118.98593500378774,108.9607921539864,112.27563432257739,126.70383636229963,102.89713060841314,109.76783370712656,125.91388711181935
2025-12-12 20:56:06.602076,Right,109.80903293259325,116.69415731725167,107.61480391424266,104.69910777377663,91.11464739125222,104.87623361761507,109.7784005276335,126.73793440047302
2025-12-12 20:56:06.607088,Right,111.55977281395462,117.04653303319355,108.20192599596339,99.5582891535305,29.777933280551224,106.52187871365459,110.39352799966582,127.56501906429185
2025-12-12 20:56:06.611101,Right,108.20499127096264,114.28713219921337,105.19688199509983,100.80384338306612,53.66770856741641,101.23056134738727,106.53766369019286,122.88895383384079
2025-12-12 20:56:06.615128,Right,100.84927639656235,108.75854315262404,98.48307346575893,100.8207466751046,117.68005771115713,93.97494717684458,100.6084394614445,116.53176093578804
2025-12-12 20:56:06.619122,Right,96.73370928448276,105.55806183477398,93.08469928323757,94.55770265011233,103.69842109845194,92.52721753393416,98.19623976689763,114.06558778014733
2025-12-12 20:56:06.622157,Right,96.495522775047,104.71421126360656,90.48937730200123,88.87051331126713,39.89449348364724,94.13334528930136,98.13002682619845,112.5724636822124
2025-12-12 20:56:06.626168,Right,94.77608044454246,102.10447733092587,88.26343996493961,90.37131352929282,46.81662873135065,92.09632214839803,95.77772394969361,107.69752152261208
2025-12-12 20:56:06.630204,Right,91.55911850350094,98.44937484920956,87.05621916425298,94.03178626962472,111.1188005272561,88.88024086193764,92.6837489916943,103.86362938856473
2025-12-12 20:56:06.634148,Right,91.87198029184947,98.2474344491784,89.87512807908934,92.74135465314612,110.14962483280397,90.65726693405304,93.6223428612575,106.8951464582351
2025-12-12 20:56:06.639208,Right,94.7026303333405,100.26538702863036,94.4955693090451,89.42000027385075,41.584086927672615,94.0724670131749,96.44807189752464,112.03515707544284
2025-12-12 20:56:06.643224,Right,93.25705366130569,98.1767441839911,94.5752469303261,89.6011548935785,28.59153903799597,91.11027906474192,94.47621463643736,110.44405188050587
2025-12-12 20:56:06.647245,Right,87.26587945007486,91.54832165600965,89.54085881798528,89.63559760325006,90.51303933144663,83.70212934617302,88.07158916967455,103.76700042048469
2025-12-12 20:56:06.650250,Right,83.78896806639386,86.79789015816641,85.53871809726115,83.02988396122237,107.48505449255754,80.26246921901475,83.85741355200298,100.3918248861155
2025-12-12 20:56:06.654279,Right,83.8411198676331,85.46971134893829,84.95544446769054,72.66401071022847,44.521726708626375,79.7876651546685,82.37683826423017,99.99048326764023
2025-12-12 20:56:06.658305,Right,79.70267282958957,81.3722593477869,83.11856850565528,65.95455027872231,15.75472632353194,73.34871189566911,77.13592298375443,94.7288141103345
2025-12-12 20:56:06.662258,Right,68.92068392111105,72.44609317384311,77.92515953344991,62.30595452594571,69.75455602997681,61.13876756824902,67.33992162629147,84.83622489182744
2025-12-12 20:56:06.667332,Right,60.131498001428554,66.03731539513683,74.83311685235822,56.571813611488324,98.74341622299107,54.06309573727776,61.278454124199925,79.8347724750929
2025-12-12 20:56:06.671344,Right,59.53207272628788,67.34087203835952,77.79114323371323,51.33619517443003,41.52849445787433,56.25854039847036,63.486836883530486,82.78309458112926
2025-12-12 20:56:06.675300,Right,61.1440186178952,70.84112494863803,81.83502255569329,53.231071656016866,-0.5808209535753122,59.14436633477453,67.6173749800073,85.43089208757738
2025-12-12 20:56:06.678375,Right,57.73471217867336,69.83286091906484,80.83339207668905,59.320602502149995,47.1472097744263,56.83800390170654,67.38327114650747,82.6706134172855
2025-12-12 20:56:06.682385,Right,52.76126392194419,66.9945924032072,76.95793565249187,60.019729907871806,92.6810292808077,54.892771754210116,66.06096460609115,80.24705269231345
2025-12-12 20:56:06.686388,Right,52.40754947438836,67.3746727713733,75.00662523985375,54.50200241537823,49.14645382986055,57.67164186236914,68.01003130161553,82.21991477280972
2025-12-12 20:56:06.690397,Right,53.363212049531285,67.63636350943125,72.55323409091216,50.686422629252775,-2.817998657017597,59.08241195976734,68.88830791352666,81.9643667730852
2025-12-12 20:56:06.694422,Right,49.225200020271586,61.97508471048786,64.64539359795162,50.21548048072145,33.402738837263314,54.430027778376825,63.23893982791924,73.8784992552828
2025-12-12 20:56:06.699447,Right,43.11007736175088,53.54387801827397,54.25542367316666,46.50398479189607,88.63214606982365,50.96476154361153,55.24392006589915,64.28736901778029
2025-12-12 20:56:06.702454,Right,42.57424944904051,49.79663479409646,48.68575110909296,39.1257724078896,56.66994544383488,56.38641102713882,52.304196441720705,61.25789771898417
2025-12-12 20:56:06.706446,Right,46.250023322267225,50.07835829432588,48.102173429884715,36.70549665806175,-6.691229077070602,65.6533821682533,52.944907708035316,61.719024677877314
2025-12-12 20:56:06.710483,Right,47.09245917153021,48.18126753892284,46.867237015248975,41.96022400028596,13.10592571872985,70.25147937043221,51.05521720886463,58.874007240636274
2025-12-12 20:56:06.714549,Right,45.79333450480772,44.49461391029763,44.441777591302525,46.35969107953133,76.44420809822623,72.61220479186159,47.706346682229196,55.004879879707005
2025-12-12 20:56:06.718453,Right,48.7147270659043,44.59192709924537,45.19157583282504,44.40936341417546,64.93216802745883,79.20804255749681,47.93188738585741,55.481737422553124
2025-12-12 20:56:06.722586,Right,54.544114884440205,47.58657091570785,48.49549508334894,41.85703561268747,3.3613141831447138,86.4286780882685,49.475422010043985,56.67791424921597
2025-12-12 20:56:06.726585,Right,55.672970966406865,47.18051402250421,49.02187491895165,43.81338454996876,12.281074480357347,86.55326410989801,46.035396253704675,52.22451569294208
2025-12-12 20:56:06.731542,Right,52.0639981146378,43.57957832023385,46.67418426698714,45.362526853976306,80.21091809828067,82.44595737868804,39.37389776580676,46.013087353581795
2025-12-12 20:56:06.734575,Right,51.17506328842137,43.17209094495047,46.595526011878974,41.43828905088594,82.4992449782294,82.61177972709993,37.00122110740631,46.25810836054734
2025-12-12 20:56:06.738578,Right,53.785034210581216,45.98667218715127,48.67109704173345,36.644287337345304,12.68960995056841,85.29482328577433,38.9096939410374,50.57307449699147
2025-12-12 20:56:06.742590,Right,52.597098214988364,44.89365754237224,46.867065043072216,36.717105005911435,-5.488168183423113,81.82467682844435,37.93644134767237,50.048044379247585
2025-12-12 20:56:06.746619,Right,46.454643742210465,38.77712728493498,40.53314960884745,37.94414541305741,51.98068240597786,73.43639757715573,33.096419262190466,45.24306251638336
2025-12-12 20:56:06.750621,Right,43.22095584803901,34.97903074757778,36.420920828633825,34.27088014523906,66.89985560885543,69.76984649634687,30.839211157159298,44.372488296823576
2025-12-12 20:56:06.754647,Right,45.521608046925394,36.08246134541696,37.02330657641869,28.74166882233112,2.2513448512909235,71.45671095326543,32.169309397329926,47.258694864518475
2025-12-12 20:56:06.758579,Right,46.05424019564816,35.81248642198625,36.7948305484897,28.109755863028113,-27.70327439984976,69.35276555473683,30.556347538295086,45.59394404137856
2025-12-12 20:56:06.761594,Right,41.34863983604009,31.59362069577037,33.175066021984094,30.753457855709712,27.948005311496672,61.89378672426392,24.94165037557832,39.189695919834776
2025-12-12 20:56:06.766654,Right,38.2165323971567,29.803514594503213,31.59518021978147,30.20122475833341,60.38248993558955,58.13774551458482,22.979459007648984,37.31594127109565
2025-12-12 20:56:06.770692,Right,41.079521651074174,33.88308799745573,35.26278915624425,27.47089003759902,4.4033840421179775,60.868650749645894,27.655710949809873,42.113815344448085
2025-12-12 20:56:06.774704,Right,43.833352551053395,37.4613169253862,38.76819454591896,28.85151079892239,-39.13995321769471,61.1501301247481,31.578410619447823,44.60931848487235
2025-12-12 20:56:06.778709,Right,40.85760553072032,35.036549410942825,37.09100489511911,33.01332190127869,8.693720901756024,54.21615595104231,29.399751429344178,40.45878761705535
2025-12-12 20:56:06.782680,Right,36.396127550760866,30.656416880476172,33.41596280873637,32.0746958010277,57.930127874962636,47.35607024321507,25.910965574686998,36.474335423248704
2025-12-12 20:56:06.786737,Right,35.67049152034451,29.59667435703159,32.256816950510256,25.809140387791558,17.657157581619686,46.08253700197383,26.11483513006533,36.92616252563312
2025-12-12 20:56:06.789756,Right,35.23257288400782,29.20891740490333,31.455624787762645,22.794257535468205,-35.694691591503215,44.63845663241227,26.5038747741346,35.79833597113611
2025-12-12 20:56:06.793777,Right,30.322417831266648,25.262052739257342,27.499280509975506,25.390069083397975,-3.1314700718430686,37.636462203241535,22.95603277196642,28.933785208835616
2025-12-12 20:56:06.798785,Right,24.957924340415047,21.13560393943044,23.57584121961554,25.91361558258359,51.19018553671776,30.634612554349587,19.63086614686472,23.03860052235541
2025-12-12 20:56:06.802792,Right,25.231644214421976,22.03912406504969,24.487300583554315,20.86213640430651,20.624593314620142,29.737902563618263,21.696357668261044,24.25028383891913
2025-12-12 20:56:06.806886,Right,27.34451792750042,24.276060344462167,26.82276497030398,16.2603081654961,-43.029880982743634,29.382788871385856,24.815789924905403,26.6370120463107
2025-12-12 20:56:06.810866,Right,23.090065148833673,20.37443202844588,23.37217251014954,14.998027145324158,-25.190413096876,21.899274842522573,21.62798507300613,22.250837842017063
2025-12-12 20:56:06.813856,Right,14.14062183504575,12.295898387150373,15.511476662111818,11.333335607137997,37.12277252304193,11.97285973848193,14.502070777161862,14.957682252192171
2025-12-12 20:56:06.817797,Right,9.445871543663088,8.750505093979882,11.543147088916157,3.135898161723162,23.634272272407543,8.912482723637368,11.428683423408074,12.970876250925357
2025-12-12 20:56:06.821888,Right,10.414584055164596,11.116640960783116,13.805568629599293,-1.8323179267172236,-44.915178312126955,10.673434529206133,12.672702583528007,14.522385447809938
2025-12-12 20:56:06.826832,Right,10.119043982267613,12.671531623404007,16.75398417688848,1.204391155653866,-45.724080573170795,8.616160063102143,12.027727634980693,12.768451834810548
2025-12-12 20:56:06.830896,Right,6.22264933855331,10.741055967489956,17.245414780423744,4.66887627451797,16.844744163943687,3.040476797905285,8.784057145909173,9.175120374682592
2025-12-12 20:56:06.834912,Right,3.3871441455557942,9.249237014751998,17.687269629866933,0.6268257707124576,20.441722328752803,0.7642189481412061,7.938168048582156,9.835414052737178
2025-12-12 20:56:06.838928,Right,2.245803272264311,8.826393773124437,18.24440374429105,-6.4733980739692925,-45.30450126015057,0.6656769708642969,9.318412197273574,12.335956961018383
2025-12-12 20:56:06.841932,Right,-2.715829284003121,4.732763225591043,14.894715585483937,-8.645339506496384,-58.64566209770419,-4.69591627553018,7.0424883758532815,8.932999432901852
2025-12-12 20:56:06.845945,Right,-11.34008780795557,-2.59560119624075,8.20553255368577,-7.631962542152905,6.600090476422338,-13.856361546102562,1.268213279050542,1.344976310560014
2025-12-12 20:56:06.849943,Right,-14.99138943462458,-5.104647664455115,5.443274928205938,-8.734016105809133,31.71510808660969,-16.798631288853358,-0.12265122593817068,-0.5970710620895261
2025-12-12 20:56:06.853967,Right,-10.487016705039423,0.08307410069392063,9.35215580953809,-9.060858673277835,-25.113411863298097,-12.002966743893921,5.133245126460679,4.427105711220065
2025-12-12 20:56:06.858990,Right,-6.209738895435294,4.961672434932552,12.827029729771311,-3.6851650342796347,-51.03236852935515,-9.454588836022594,9.005521629405848,6.884394672015333
2025-12-12 20:56:06.863001,Right,-8.425504378137703,3.175120110208809,9.99121108588588,2.295897424861323,9.38493007820216,-13.719247925488162,6.149445868606563,2.493038727057865
2025-12-12 20:56:06.866952,Right,-11.835876082273899,-0.8074942836537957,4.998746997785929,0.2220671943287016,49.48070364485102,-17.468074896656617,1.6230851820655516,-2.097594970771752
2025-12-12 20:56:06.869978,Right,-10.514039676243556,-1.1363794164426508,4.026547433604719,-7.159512786012783,-0.3902899848035304,-16.24672890590591,0.563918445710442,-2.734947034950892
2025-12-12 20:56:06.874015,Right,-8.071722580112692,-0.25454639452073025,5.861667538476468,-9.328584446164314,-42.83191864433684,-16.182320512984006,-0.014416322854231112,-4.078395953736617
2025-12-12 20:56:06.878032,Right,-9.117742413531232,-1.9896838688655407,6.895690884892247,-4.780131575593259,4.25511553222168,-20.805246794036066,-3.0677542344419635,-8.203338294842979
2025-12-12 20:56:06.882051,Right,-9.852359108364908,-3.1654807813174557,8.647105470998213,-1.9780977320551756,54.672893725986796,-23.165295440907357,-4.440337807587639,-9.249414666410303
2025-12-12 20:56:06.887072,Right,-5.989252503401076,-0.2968180626776302,12.971290529792896,-3.93767716667935,16.26619221423971,-18.9543109243823,-1.1224037324645906,-5.2139498073011055
2025-12-12 20:56:06.891024,Right,-2.3934848836579476,2.1175425271430868,15.433646743978898,-4.640697644237662,-35.9113762570596,-15.853752952010836,1.3002881906359107,-3.9572094117684173
2025-12-12 20:56:06.895082,Right,-5.152663405460771,-1.11916990953614,11.585898056335282,-2.193006004075869,-0.1897621872521995,-20.549266329657257,-2.4891456562036183,-10.26231250057026
2025-12-12 20:56:06.898048,Right,-10.36955627725547,-6.133380445811781,5.319497626969678,-3.0181825917679816,60.30751205765773,-26.98677347082412,-8.07994916127791,-17.0745667770243
2025-12-12 20:56:06.902121,Right,-11.101101608175668,-6.726856043780572,2.7939615194009093,-9.596829110116232,34.386029795259674,-27.9219080443072,-9.36404123394459,-17.97568606230925
2025-12-12 20:56:06.906139,Right,-9.911768013327674,-5.607843936399149,2.1886206339368073,-15.29913556982865,-29.877316503756447,-28.113540058151557,-9.506916571790498,-18.451253675280896
2025-12-12 20:56:06.910171,Right,-13.435892874462297,-9.049655971677566,-1.9802230835994123,-16.053973804770067,-15.055961441830732,-34.26747659413013,-14.296757356441958,-24.82699435124232
2025-12-12 20:56:06.914165,Right,-19.04390788087767,-14.73050202588638,-8.022785534521972,-16.912091882306413,46.5684463768921,-40.980524623308156,-20.330463234422496,-31.3668170098681
2025-12-12 20:56:06.919162,Right,-19.099915603270347,-15.688004436211486,-10.16695177272777,-21.588634129398997,34.45759396050926,-39.89247029423859,-20.568844172859826,-30.121614350828168
2025-12-12 20:56:06.923178,Right,-15.38954889258821,-13.308105650012294,-9.819786682695849,-25.148328837098234,-33.9989683773274,-35.39713853040121,-17.287854852980672,-25.687075524961983
2025-12-12 20:56:06.926190,Right,-16.631331288459478,-15.021617200673063,-13.423492728801648,-23.70647163288959,-36.1290812123334,-37.32451766750819,-18.289599154955795,-27.388497827094398
2025-12-12 20:56:06.930155,Right,-23.074835760526184,-20.815879794790817,-20.522290902386885,-22.612256945420086,26.2814589583013,-43.60339352367191,-23.14707559742601,-33.03944597264854
2025-12-12 20:56:06.934161,Right,-26.285042725594394,-23.505838102155394,-24.220759867147535,-27.002684497907467,30.785383758435273,-44.61976449201393,-24.618718553876533,-33.747871107367246
2025-12-12 20:56:06.938267,Right,-24.578407397326373,-22.19917879557761,-23.397010220246557,-32.01196082926435,-35.44170936006958,-41.146262751919494,-22.3900351068678,-30.41744064230261
2025-12-12 20:56:06.942238,Right,-25.80015081378224,-23.951027179406083,-24.387852179426773,-31.3236237930505,-50.653344952523184,-42.77162640525785,-23.622006588642762,-31.539063434258424
2025-12-12 20:56:06.946261,Right,-32.32414139276443,-30.37178652924922,-29.076578700206625,-28.500379757691917,13.36394274806662,-49.75176923950039,-29.255079511303848,-36.80398212992441
2025-12-12 20:56:06.951208,Right,-36.28515403240817,-34.19639873864253,-31.547467406658598,-30.39615040096578,37.18262018796486,-52.11124037913362,-31.883414907244514,-37.570787389268844
2025-12-12 20:56:06.954226,Right,-33.92245158327205,-32.445390042041254,-29.56026476265106,-35.11265493314295,-24.035463490185975,-47.73120344102426,-29.424672839524646,-33.43589479657658
2025-12-12 20:56:06.958286,Right,-32.11057599307969,-31.66779050711102,-29.182751824934712,-36.22325850243669,-57.32135653034402,-45.605022624804405,-28.80142934169635,-33.32981188751455
2025-12-12 20:56:06.962308,Right,-35.55203094394892,-35.93829747326163,-34.07215160153282,-34.882719175185684,-3.513380508236878,-48.78072981630885,-33.037329114576096,-39.0420329416836
2025-12-12 20:56:06.966323,Right,-38.9030845962252,-40.03713479878161,-39.29217193031218,-37.210239460611774,32.25080734482981,-49.38974211254481,-36.137513336543634,-42.19915198468516
2025-12-12 20:56:06.970309,Right,-37.297647875820076,-39.28750052509986,-40.0560996019467,-41.60407289988382,-22.284253092315794,-44.20267883342967,-34.3472860005927,-39.59137590446153
2025-12-12 20:56:06.975289,Right,-34.739988637130864,-37.14875735950059,-38.88089945980391,-40.22390206795967,-70.75104408425204,-40.83108267832722,-32.28616863749494,-37.998261729999285
2025-12-12 20:56:06.978343,Right,-35.335671112012506,-37.406032821080316,-39.29706625630206,-33.054245171809725,-27.695557106314936,-43.31386623932485,-33.367922233749596,-40.559995674897436
2025-12-12 20:56:06.981360,Right,-34.829758367121485,-36.653026287599005,-39.111266346073535,-28.53941762591603,22.42787631866213,-44.540474384431946,-33.1607165711639,-40.805935903150385
2025-12-12 20:56:06.986371,Right,-29.247278074891938,-31.76775283807001,-35.98786829740493,-29.24063585602471,-16.065259873515856,-40.05968420588397,-28.473018389495337,-35.473942578852075
2025-12-12 20:56:06.990394,Right,-24.66671642264555,-28.149497825750586,-34.15814365301776,-28.98563112479951,-70.81579957578424,-37.560792223091994,-25.158340637664878,-32.02021225598219
2025-12-12 20:56:06.994380,Right,-28.25957412542084,-31.584080025591902,-38.034125325168134,-26.01273442040838,-36.99298685303802,-43.50272497021433,-28.91364712939867,-36.00068060684134
2025-12-12 20:56:06.998403,Right,-35.041252212824475,-37.06441996602189,-43.17736094705833,-26.38428838183063,26.00649446963962,-50.683617791190045,-34.69340369094607,-40.68514359265828
2025-12-12 20:56:07.002358,Right,-34.87757940664051,-35.804383300954214,-42.16733677125012,-31.318239101157815,4.894277719400634,-50.000257956184214,-34.543578768352745,-38.40734584744496
2025-12-12 20:56:07.006488,Right,-28.96710710784828,-29.8487021167457,-37.048992272801115,-33.60310563353414,-56.22901824739256,-45.93762295266788,-30.98536711556153,-34.05908632449791
2025-12-12 20:56:07.009467,Right,-26.909530856846686,-28.491025782241195,-36.3590182272892,-30.635318200433176,-38.667162019746684,-47.76008231274318,-31.957521829754114,-36.177681680830574
2025-12-12 20:56:07.014531,Right,-30.03039206696303,-32.65697254202314,-41.17307986484957,-29.4023373785858,28.733529650049604,-52.536632695697335,-36.46263230675322,-41.632005760242464
2025-12-12 20:56:07.018458,Right,-31.12839839476692,-35.09597555948858,-44.689411173189,-33.65722887027914,23.390421243103447,-51.210205108462105,-37.099833555657824,-41.88134870573049
2025-12-12 20:56:07.022421,Right,-29.166464238269327,-34.350748246652074,-44.76699210252991,-36.64931123137649,-42.15369608381843,-45.66482536638432,-33.796139707337716,-38.425417960716004
2025-12-12 20:56:07.026481,Right,-30.51927808554683,-36.11834619960791,-46.0970152243608,-33.07462593380842,-44.34032552757162,-44.75803357908808,-33.10561007921933,-38.8245814697475
2025-12-12 20:56:07.030514,Right,-35.49498893783675,-40.990514980057924,-49.730541388402344,-28.81506180830911,20.179481810100697,-47.639583960029995,-35.67154554483204,-42.04451401484039
2025-12-12 20:56:07.034511,Right,-36.51414427536292,-42.46244331802882,-50.51839672429196,-30.391856734790053,29.27725064486185,-45.90988386802201,-35.6969018994896,-40.93878335036425
2025-12-12 20:56:07.037570,Right,-31.708788099447702,-38.7881107038811,-46.876371958773234,-33.163424393387686,-34.834167775450624,-39.86055236608445,-32.54109705983865,-36.41153675895475
2025-12-12 20:56:07.041577,Right,-28.448732131073484,-36.27704630363223,-44.14292792942433,-29.973745044204406,-52.01093157183823,-37.84703858809735,-31.963634644758713,-35.969799678474374
2025-12-12 20:56:07.046524,Right,-30.14652857418696,-37.79908038261419,-45.1012755360789,-24.35687354282345,9.929956306043096,-40.303366542786534,-34.73780352182439,-39.41046474549512
2025-12-12 20:56:07.050559,Right,-30.839575945246906,-37.95530648907152,-45.38768781920953,-24.028564554977493,33.3308688443085,-38.85643877118855,-34.594394100116915,-38.99773269025172
2025-12-12 20:56:07.054563,Right,-27.24605907680234,-33.927453839256486,-42.40951908848365,-27.075516806587984,-30.270956535518053,-32.38021915833815,-30.076143049816892,-34.270305452089815
2025-12-12 20:56:07.058590,Right,-25.313819471964962,-31.448845466067723,-40.79458017920115,-26.473865656083944,-69.15463792566334,-29.845986635496956,-28.244399803545093,-33.68793463318434
2025-12-12 20:56:07.062600,Right,-28.830398645928653,-34.30805051771313,-43.65656118077459,-23.84557602876157,-18.66575951496634,-34.20757816076366,-32.571759262711566,-39.3898676333265
2025-12-12 20:56:07.065620,Right,-31.794793892113375,-37.10142900671781,-46.183231033021,-26.331732375856518,20.288983380152786,-37.123080837205634,-36.87320682022255,-43.1425294200526
2025-12-12 20:56:07.069628,Right,-29.374285936864908,-35.08135375309212,-44.07799788147531,-32.4341734175141,-27.906539476643957,-34.32178133276466,-36.30490690009174,-41.062161895955796
2025-12-12 20:56:07.074636,Right,-26.975711160503124,-32.782629779118,-41.30262839738134,-33.644960516921856,-71.77048320958784,-32.941680878378975,-35.17379223679018,-39.82467221227125
2025-12-12 20:56:07.078652,Right,-30.161335466975288,-35.36347660727915,-42.72946773723379,-29.448785703327303,-25.653078845985874,-37.4559879211447,-37.78370791666384,-43.287450955634995
2025-12-12 20:56:07.082680,Right,-34.171791445500276,-39.00533697158244,-45.56077157997788,-28.155363570094778,27.596689080713986,-41.065258796239505,-40.32302618520043,-45.32020190068579
2025-12-12 20:56:07.086712,Right,-32.65618224494028,-38.31505943677621,-45.37853713929508,-31.97908319869748,-9.85599081519831,-38.67194984796515,-38.97503636969486,-42.345220897921536
2025-12-12 20:56:07.089705,Right,-29.060813088966825,-36.286252177400456,-44.6141770434333,-33.433835496274696,-68.36360776237052,-36.23542293951323,-37.7141779327867,-40.85256192360248
2025-12-12 20:56:07.093701,Right,-29.78031192056369,-38.18093855233019,-47.41888158704387,-29.3745946498384,-41.11577651193147,-38.781564933298796,-40.52232240315061,-45.19947851949837
2025-12-12 20:56:07.097677,Right,-32.612617809492804,-41.518841450342734,-51.33833495905856,-26.927542279314366,16.682348903770617,-40.45565989291936,-43.28852568227012,-49.06557826691278
2025-12-12 20:56:07.101719,Right,-31.686237869100296,-40.81160882401309,-51.44325918247341,-30.378170833319018,-7.823047293924901,-35.70237519701914,-41.04498795708787,-46.63369417274953
2025-12-12 20:56:07.106796,Right,-28.984068307509006,-38.025340657055494,-49.32453789579449,-33.605189685724326,-72.79002860143737,-30.76270248121,-37.58069977627747,-43.093349338989356
2025-12-12 20:56:07.110734,Right,-30.696469221860752,-39.307019031351956,-50.54399971208477,-32.09130446836207,-59.106385261598916,-33.63588846811035,-39.51969764990645,-45.47030575936515
2025-12-12 20:56:07.114724,Right,-34.929068206263764,-43.57688490687724,-54.70110349832976,-31.258171699351806,6.5678047658766445,-39.846200350584695,-44.646898629143834,-50.18608098722325
2025-12-12 20:56:07.117794,Right,-34.12303814916231,-44.11412721347733,-56.129602503890055,-35.344713819155004,0.6895922091280227,-39.820830327109434,-45.56852495583735,-49.85306132120604
2025-12-12 20:56:07.121792,Right,-28.62291100659786,-40.60920860326587,-54.16496280806314,-38.3388191561171,-66.81428840180888,-35.023976936150575,-42.436751601533615,-46.71054880203155
2025-12-12 20:56:07.125734,Right,-26.31288492398744,-39.35250177155103,-53.88776228662755,-34.53287311063468,-71.25419793055335,-33.920406937395455,-41.597284810581186,-47.67177366770193
2025-12-12 20:56:07.129832,Right,-28.812814831857395,-41.47280764259631,-56.1745758656034,-29.35194417009916,-5.975293547853653,-36.09476086972427,-43.30444694617472,-50.661066632921575
2025-12-12 20:56:07.134762,Right,-29.855529844782723,-41.6175422706001,-56.28256237937603,-30.33825493477343,6.083654678743187,-34.53350786000374,-42.10155334958836,-48.779794437636156
2025-12-12 20:56:07.138826,Right,-28.150335641556012,-39.17648299382563,-53.61671458402998,-34.51373120266362,-57.21060573594514,-30.72736143500515,-38.71116863727366,-44.59767562276102
2025-12-12 20:56:07.142845,Right,-29.875347271066858,-40.19921811223321,-53.69425012949796,-34.75857142091263,-76.30504366736204,-32.698560742683185,-39.88237047867733,-46.61388519483444
2025-12-12 20:56:07.145854,Right,-35.984991865632765,-45.787694368300436,-57.9290858477616,-32.71933255276963,-14.121319359361223,-39.11539889118285,-45.646076213037304,-53.33978983727866
2025-12-12 20:56:07.149813,Right,-38.5560842728446,-48.73627867562027,-60.33764009116567,-34.394727932267415,14.758709700301551,-39.91232236717042,-48.04531919951114,-54.83300256996881
2025-12-12 20:56:07.153859,Right,-34.191434890482924,-45.737810895188886,-58.08461743380758,-37.78610916146863,-41.17969062025804,-33.65237628805335,-44.67157641153608,-49.894964130849985
2025-12-12 20:56:07.157830,Right,-30.24407710799278,-43.10111165732087,-56.55602777036256,-36.45839146070648,-74.35111852749833,-29.987994006405643,-42.418050030501036,-47.64439462388691
2025-12-12 20:56:07.161898,Right,-31.961833413966815,-45.23401148428093,-59.418032990564825,-32.133980559206975,-20.564136977078306,-32.466682946585934,-44.67953115277487,-50.79258400495746
2025-12-12 20:56:07.166895,Right,-33.860803799310816,-47.08228641329333,-62.03799149378028,-32.124719885476225,19.814428138175572,-33.21051988139516,-45.617740678964765,-51.42237822856259
2025-12-12 20:56:07.170942,Right,-30.72229543649155,-44.02097329876415,-60.006811429935624,-35.68647651221545,-30.229896710963658,-28.491231493819214,-41.40986297134077,-46.139659487052995
2025-12-12 20:56:07.173933,Right,-27.712715272820788,-40.69496077734948,-57.0165048262279,-35.092362258139474,-78.74142936119097,-25.92080825139419,-37.54993800861848,-42.33840055617475
2025-12-12 20:56:07.177938,Right,-31.0202538529702,-42.63104799619032,-57.886532452190295,-30.236982231050206,-35.13517731300817,-30.177707261296746,-39.02723608107044,-44.63453839709109
2025-12-12 20:56:07.181893,Right,-35.97252618554194,-45.769800617112196,-59.28166678841808,-29.132261374637892,20.49274757494277,-33.64629600630724,-41.18872158596059,-46.543573177274084
2025-12-12 20:56:07.185963,Right,-34.50297029712965,-43.11050930642523,-55.19156414504687,-32.68983879978623,-14.133941906038672,-29.354600041391677,-38.00144700414239,-42.407991868698446
2025-12-12 20:56:07.189987,Right,-28.431926376848423,-36.46696051481558,-47.433424116054084,-32.22815635988081,-73.87336683410831,-22.65154677683313,-32.607457596262975,-37.29269692138041
2025-12-12 20:56:07.194977,Right,-24.971448250907997,-32.52708653709851,-42.51386201631976,-25.062316511721292,-48.72764128960989,-20.89480797435681,-31.109835432391264,-36.970684794818226
2025-12-12 20:56:07.198952,Right,-24.36241791347129,-31.919573222156032,-41.67027219636657,-20.11981713050045,12.312014805051149,-21.34465308565268,-32.09501362186711,-37.72995004768745
2025-12-12 20:56:07.202015,Right,-22.271540940411796,-31.023910293406516,-41.738422714872286,-23.02804579737858,-3.5928932794231514,-19.006720697172568,-31.05703966341389,-34.90349795168004
2025-12-12 20:56:07.206067,Right,-20.214336451688723,-30.75722154248797,-42.806182291169534,-27.182607703005488,-60.75142173510176,-17.57888963017467,-29.78438369712967,-32.80110338386294
2025-12-12 20:56:07.210042,Right,-23.075225024491374,-34.51185271718714,-47.136893639864866,-26.410011029096495,-44.448199623297114,-21.986214289623604,-32.472651554766344,-36.6261518733445
2025-12-12 20:56:07.214069,Right,-28.453438221113174,-39.37559692925424,-51.923446806220454,-25.266814739872643,19.957389743602107,-26.98259275019518,-36.33254223140102,-41.466115739080124
2025-12-12 20:56:07.218067,Right,-28.809557037326158,-38.46175207290071,-50.952346363672405,-28.15191474171297,11.837215992767597,-24.31254610134056,-34.9294492512272,-39.38514674123144
2025-12-12 20:56:07.223089,Right,-24.100731747588725,-32.14456879897625,-44.273414337527356,-29.149503485161404,-57.87189834418314,-16.695516176594538,-29.164704266455374,-32.81494122631557
2025-12-12 20:56:07.227098,Right,-22.188823003627476,-28.267413747533283,-39.11592331994325,-23.01472799865587,-63.16518137649837,-13.348797816048318,-26.143196919976617,-30.52757060559088
2025-12-12 20:56:07.230116,Right,-25.160585262863606,-29.547201936817146,-39.065227368540945,-16.29497470017668,4.752508305791707,-14.370745001415344,-27.126876082707895,-33.041912851360394
2025-12-12 20:56:07.234107,Right,-25.843432946719986,-29.95032521871326,-39.68386137096968,-16.695395302551333,21.660208170822443,-12.043315632126905,-26.194551614426018,-33.43231001376262
2025-12-12 20:56:07.238133,Right,-20.888091196167807,-26.24432208709186,-37.80744349681481,-19.91170449472702,-39.13618717040663,-6.255731417968491,-21.9870444888802,-31.18866450893256
2025-12-12 20:56:07.242139,Right,-16.38555450419517,-23.32619445464661,-36.84110792214051,-17.95334560858464,-59.77699700789162,-4.896848640913959,-20.240626290193177,-32.478932595055085
2025-12-12 20:56:07.246160,Right,-16.552393810095964,-24.507691866143432,-38.999458372956724,-13.751938588626217,-0.335498995740636,-8.885529236293223,-22.75499817601667,-36.89196294679277
2025-12-12 20:56:07.251158,Right,-17.38568575277168,-26.03453636460472,-40.577538398254546,-15.7708421648058,26.86485095435637,-10.665277276631969,-24.338792684495274,-37.134818473081395
2025-12-12 20:56:07.254161,Right,-16.243883297218417,-25.45668016761192,-39.23123095720803,-22.682068332011113,-30.429206094799156,-8.880775787682069,-23.26235968185938,-32.88129113121249
2025-12-12 20:56:07.257198,Right,-17.60667074549565,-26.44288385951222,-38.329303700062155,-25.79258175713767,-64.47947142463818,-10.866081606145599,-24.69717553587543,-31.977122063930437
2025-12-12 20:56:07.262197,Right,-23.146134051938134,-30.08995880432485,-39.31388499454624,-23.884453392223804,-8.404624541668454,-17.528745252999215,-29.98243400442152,-35.57327651332889
2025-12-12 20:56:07.266197,Right,-25.460908151217154,-29.94778974005021,-36.964723176759435,-23.019463137134153,37.91885969108989,-19.254129833574552,-32.050910033831315,-34.934619208506774
2025-12-12 20:56:07.270160,Right,-19.51568271430733,-22.350104798781103,-28.251145320049545,-23.233961878795526,-6.767796370018914,-11.996380886517727,-26.89448831743357,-26.972568637684162
2025-12-12 20:56:07.274226,Right,-12.318587994413974,-14.430067307243007,-19.651891354107647,-18.59558485537491,-54.52328031538127,-4.90291555425938,-20.915441765908326,-20.488769556730404
2025-12-12 20:56:07.278248,Right,-12.45127173965011,-14.132194178462669,-18.470985892046883,-10.584592053935921,-13.364620788335742,-5.211248651099595,-20.405955838890804,-21.323110794379318
2025-12-12 20:56:07.282269,Right,-16.66461544456979,-18.115012473070237,-21.7105602938027,-8.025103329517151,40.916624292534834,-7.0083383349192445,-21.433023942539876,-22.70886844384222
2025-12-12 20:56:07.285253,Right,-16.633606277457147,-18.267343726933177,-21.676502402464394,-11.909085107210558,7.05191187539458,-3.3367385674864636,-17.90532732356951,-17.889977236132836
2025-12-12 20:56:07.289294,Right,-13.192208928434411,-15.040553205668402,-18.418305978295393,-13.094006456030911,-51.704085262479566,1.1545912439869426,-12.743785159749677,-11.88776361879718
2025-12-12 20:56:07.294228,Right,-12.569498658442171,-14.14007176161249,-17.215675933926832,-7.75687069072228,-25.29471055540489,0.029653821238753153,-11.729480977970525,-11.247807706116873
2025-12-12 20:56:07.298318,Right,-13.461452195922902,-14.592591148175416,-17.53751464022207,-2.999801129062689,37.7286206606459,-2.056510842649004,-12.278233566583367,-11.76709063330054
2025-12-12 20:56:07.302316,Right,-10.154786891049298,-11.230566568301583,-14.699488446152827,-3.2351132012699964,21.461186427515713,1.9406697847953183,-8.530079269039561,-7.3037729190982645
2025-12-12 20:56:07.306345,Right,-4.814321519588702,-5.7687934861532995,-9.820039706894022,-2.661117341795034,-40.04741851271501,7.885343492285756,-2.8438164171238896,-2.264859575261653
2025-12-12 20:56:07.309348,Right,-4.2059301033077645,-4.3616553718966316,-8.180270147211559,2.9610821958776796,-26.231357371600097,8.004308048974053,-1.704353808760061,-3.5981407439830946
2025-12-12 20:56:07.313377,Right,-6.152444355961052,-5.610950626913109,-8.81051373470109,8.143343199713854,44.08348687909893,5.869528425999306,-3.2711667021430912,-7.013589798974863
2025-12-12 20:56:07.317350,Right,-2.036702165441966,-2.1918233484539087,-5.683078169960936,8.355752393177681,47.07579225586778,10.274979626043205,-0.23901841257611522,-3.924985160236247
2025-12-12 20:56:07.322365,Right,7.187226104349975,5.258824173462926,0.22662372014747234,8.347062859931611,-15.129213397296553,18.217587499440924,6.142772944564058,2.3473494442587253
2025-12-12 20:56:07.326369,Right,10.818208918692108,7.732502823258983,0.675142491418228,12.036555344580847,-19.07123149409199,18.843373563007844,7.0536320351820905,1.2003997008432634
2025-12-12 20:56:07.330392,Right,5.87684433699178,3.0540339856379433,-6.047369295811222,13.782163346808375,48.4965087102446,12.158353014225213,1.3367148632896715,-6.979184006588184
2025-12-12 20:56:07.334409,Right,1.4991923224224593,-0.5221140283938439,-11.66606831378158,8.462310543149215,65.88843691209513,8.69732058849877,-2.528540348976094,-11.54263353713759
2025-12-12 20:56:07.337415,Right,3.0849757926444,1.3820921502665442,-11.231149078223098,2.062368065573537,4.441182098015815,11.338998665227336,-0.9545763277637889,-9.49866938956984
2025-12-12 20:56:07.341426,Right,4.759429395573534,2.881533844596561,-9.760138690267922,2.3230691388052946,-18.274461165013236,12.301057801589195,0.08347665141627658,-8.375515804047609
2025-12-12 20:56:07.345450,Right,1.8530764531060413,-0.4844375814500381,-11.744080357024359,5.469042157750664,40.72879123102848,8.962675767341352,-2.692272890784807,-10.746496377490985
2025-12-12 20:56:07.349456,Right,-1.0592420346183644,-4.364217291134992,-13.68770864751059,3.0950002399658842,69.30176105591636,7.927186959248502,-4.315305757925671,-10.202904688441777
2025-12-12 20:56:07.354463,Right,-0.2979677546863968,-4.770900527244521,-12.13201693630981,-2.827083410698833,10.992533644193827,10.848118177311335,-2.094972408020112,-5.054378833392548
2025-12-12 20:56:07.358491,Right,-0.2811140082558268,-4.953859019311494,-10.283753207670088,-3.5536067484354135,-28.147367492428202,10.412786142187542,-1.0625579448496865,-2.285840850276145
2025-12-12 20:56:07.362444,Right,-4.0418367501442845,-7.607339976610092,-11.017905552616867,0.7880138940454344,22.580416459289154,4.364700819701284,-4.159788289132848,-4.343147930336272
2025-12-12 20:56:07.365524,Right,-6.306864808229875,-8.775552768805937,-10.746981540130946,1.6245270826329943,66.18290129218622,0.570855667190699,-6.41794163558734,-4.584286987384985
2025-12-12 20:56:07.369565,Right,-3.0097143511775357,-5.443973183144408,-5.854965801947401,-2.5361459602245304,18.715867736696055,3.1246260662655914,-4.199970395035052,0.07481515750987455
2025-12-12 20:56:07.373563,Right,0.3453320375083422,-2.343516128803458,0.3772692744714732,-4.190440120111816,-34.413326238508944,4.995701482383083,-2.2595118397002807,3.1968840275221737
2025-12-12 20:56:07.377574,Right,-2.598580913789192,-4.666197735070455,2.925592690025951,-1.8016671903005772,2.3613784759922964,0.8742855992832119,-5.389937986823497,0.47659598438622197
2025-12-12 20:56:07.381574,Right,-8.151714572752098,-8.961778810866235,3.20520279565244,-2.7285341560109373,58.16588188354899,-3.0504389907341647,-9.511472104004497,-2.344657186851691
2025-12-12 20:56:07.386560,Right,-8.958692307907768,-8.745193919956364,5.594373144347628,-8.314717138022388,31.29657866083471,-0.16514846087648039,-8.560604249116295,0.2108509158497327
2025-12-12 20:56:07.390558,Right,-6.108937776381936,-5.132847278222471,8.882904541829703,-9.750691612891387,-17.770182778498565,5.267841288465661,-4.599552398874948,3.93158164698616
2025-12-12 20:56:07.393541,Right,-4.973025689578208,-3.1665831110076397,9.084638020069178,-3.0551948800748505,21.09134923526085,7.45103272028814,-2.430616765319428,3.945247249928798
2025-12-12 20:56:07.397569,Right,-3.8957502525627206,-1.6382269562127476,7.8197334742726525,4.009408613017513,99.53805751357959,10.426042129330426,0.0693169346122886,4.3736268091561215
2025-12-12 20:56:07.401561,Right,1.875300228017295,3.5784219938104798,9.295364175941359,5.359713516887496,98.42909802177564,19.160741905669738,6.678054761374369,9.542395693149956
2025-12-12 20:56:07.405652,Right,9.07938179791745,9.649323390874997,11.604362872963975,5.903722684710374,48.592071034663945,27.765826047457196,13.266565519532378,13.89664131527752
2025-12-12 20:56:07.410600,Right,10.301339231802558,10.104267233369683,9.388968166055747,10.348962541993387,70.61523148667675,28.416599406128853,13.250175590123035,10.813996901653809
2025-12-12 20:56:07.414650,Right,6.525867496729916,5.897272487545706,3.5605941401390737,13.227337036682002,145.4316919642148,25.364254478135763,8.818558797142032,4.679289385669108
2025-12-12 20:56:07.418614,Right,5.68148372943142,4.037987721569152,0.5860324484310695,9.345934526725614,146.03502686958223,28.119268611202642,7.432829301265883,3.8420730183315754
2025-12-12 20:56:07.421631,Right,9.293269309016978,5.777890156874491,2.143198728162588,4.549809388898211,73.33208816448632,35.469346982608386,9.262216248276673,6.650510316258078
2025-12-12 20:56:07.425630,Right,10.732146566992014,5.349909986145576,3.2196106057908764,5.779531291725107,56.23846426770183,38.81253094978638,7.865899256321427,5.600846503892171
2025-12-12 20:56:07.429722,Right,7.927451872632446,1.3982010414747492,1.818428694509862,8.83487035394046,114.74966813166156,38.29790971699731,2.8040085412467306,1.7079578622688132
2025-12-12 20:56:07.433689,Right,6.998326911159893,-0.28494899036923016,2.10950541292425,6.471287307440434,126.75968941720839,41.81159812548185,0.7055962151371205,2.253220875922125
2025-12-12 20:56:07.437615,Right,10.518056958582747,2.332194200311278,5.5229193079535435,1.8080179034777757,58.256666632045835,49.24859469357398,3.0748094160871915,6.56302199964648
2025-12-12 20:56:07.442685,Right,12.765061740929013,3.5664750294190526,7.054768161967786,2.4462422075293944,25.37813096077025,52.034103422972294,3.910658940074427,7.06173973885052
2025-12-12 20:56:07.446701,Right,10.377956999520393,0.08160190497255826,3.656556111869577,5.999916098083304,74.34937229577463,48.41965941565104,0.8461880748909607,3.3681680792292354
2025-12-12 20:56:07.449703,Right,8.254037657612571,-3.5249300073628547,-0.6116313048423763,4.049355753870259,93.76642516672746,45.97644932975709,-1.2240540311322547,2.8563260368571264
2025-12-12 20:56:07.453693,Right,9.853794312697573,-3.4726716092427523,-1.8526128839657758,-2.4792936986664245,23.97859527136552,47.30387402603992,-0.0175124982338275,6.790432685277892
2025-12-12 20:56:07.457666,Right,10.283660181459709,-3.532146108946563,-2.748858876844679,-5.165410746391444,-29.112476808947577,45.76213595486206,-0.28477920903924314,7.956067099079604
2025-12-12 20:56:07.461738,Right,5.948089395451461,-6.855887734785938,-6.0997815954142425,-3.1904704714688705,9.81076792341537,39.28847594585113,-4.1083203430493995,4.603393279355487
2025-12-12 20:56:07.465747,Right,2.740589998758878,-8.615478520452143,-8.082340781473249,-3.425167792312095,45.752378738759944,36.05063668251296,-5.602567031166927,4.515652318186767
2025-12-12 20:56:07.470697,Right,5.989120302545416,-4.614173375240625,-5.117795981634117,-6.606339754325518,-7.886950045605772,39.95641970205179,-1.3195899709787113,10.603132469443153
2025-12-12 20:56:07.474770,Right,10.083803727091436,-0.07721158862085531,-1.4999917478271527,-6.279564378351779,-66.22700104062096,42.56706931442204,2.524324601768967,14.61541233886419
2025-12-12 20:56:07.477720,Right,7.80383438213903,-1.209956169627958,-2.4293275107775116,-2.0274543765662543,-31.13562864936648,37.474871996135334,0.29604441115270674,11.347296885408468
2025-12-12 20:56:07.481789,Right,3.327242982221833,-3.974058829964406,-4.348179074724612,-0.9629670811060862,24.653306316227827,31.72135885307307,-3.0212796478476776,8.021249725963571
2025-12-12 20:56:07.485803,Right,5.298493443992811,-0.6151719356198555,-0.4544757052208297,-3.8390316688297617,-8.011198163401787,33.497493022095114,-0.09815548913366001,11.913480438097395
2025-12-12 20:56:07.489838,Right,12.056643967821401,7.168162206914076,7.65308455955892,-2.3522377863273505,-72.40381243571937,38.180555360773724,6.535185009255656,18.230055767753583
2025-12-12 20:56:07.493844,Right,15.397248720047173,11.767003816747092,12.895615739569621,6.213477794764231,-53.152215053107284,37.58473526526177,9.85646752941284,19.627914370505096
2025-12-12 20:56:07.498800,Right,15.102832172285162,12.73552020131956,14.61182276605905,13.592559282568345,8.274860893914592,34.43904879264937,10.706720647060138,19.129544232466287
2025-12-12 20:56:07.501815,Right,17.329632253955424,15.425478415952057,17.698101377347484,14.241113977099758,-7.567445112912537,35.18336428206567,14.24353992378201,22.512941552720804
2025-12-12 20:56:07.504875,Right,21.511798150746472,19.535219683177274,22.120370278513292,13.600054019390882,-73.9826412942275,36.10235322216431,18.575801159619004,25.88088636036082
2025-12-12 20:56:07.509874,Right,21.374099564407516,20.015952844159983,23.28310245945977,16.832294780744633,-68.47266945839147,30.119493740792223,18.03110947157984,22.862228825220882
2025-12-12 20:56:07.513907,Right,17.26983602405653,17.51431641846648,21.438060966444027,19.1921675756721,-2.2323326617661223,21.15958023089206,14.434994788527547,17.418185428621655
2025-12-12 20:56:07.517902,Right,16.038268330345545,17.938267806854128,21.843161178312585,15.840908294048859,0.9835795639410208,18.447397415460728,14.698534745099096,17.743109390810787
2025-12-12 20:56:07.521920,Right,18.812912682116803,22.098743194126655,25.75651779092732,12.504616928424184,-63.61790296468462,20.94899682581263,19.110967823809915,22.519692406443937
2025-12-12 20:56:07.525934,Right,19.456652325023697,24.705717370648927,28.90075238240388,16.13672023894469,-73.73340923299838,20.35514032347055,21.787275943910572,24.546825012937916
2025-12-12 20:56:07.529956,Right,16.471939658237716,24.549707925825714,29.900416262753424,22.407117465058036,-10.280008208628715,16.709626403675202,22.016808332324217,24.444617518329324
2025-12-12 20:56:07.532950,Right,15.746981515208063,26.430551809102326,32.465436241844145,23.10180495019631,5.8992408224257815,17.20242878269096,24.81409842551693,28.43482143642541
2025-12-12 20:56:07.537946,Right,18.445416290063804,30.604046668644514,36.849568142213684,19.625827829742775,-59.47525006175783,20.356372320183254,29.48611078423528,34.32868895105639
2025-12-12 20:56:07.541987,Right,17.55337044690623,30.374100160039234,37.65976016923378,18.560082642230554,-88.87339451508888,16.629007203232135,28.83959001502444,33.32221814109653
2025-12-12 20:56:07.546004,Right,10.819249934089612,23.937573734801845,33.608324389388144,18.873568514956787,-32.150917470124114,5.826298332809017,22.091802105223906,25.838066057742253
2025-12-12 20:56:07.549989,Right,5.877256032184505,18.77406445030283,30.988105233838724,14.86884845799068,0.04657582736763288,-1.1974968813528903,17.631014331906044,22.00777084064248
2025-12-12 20:56:07.553961,Right,7.507723979671937,19.88406680398657,33.52100761444308,8.812451905965645,-56.0841861286317,-0.48941857412887657,19.610354051419563,25.013566936322604
2025-12-12 20:56:07.558034,Right,9.994149544267202,22.570793603139464,36.38471197563922,8.437224018482084,-97.72403169400059,-0.3661191562023305,21.99890613345633,26.93464302733264
2025-12-12 20:56:07.561017,Right,7.763145666600849,21.770212727911712,34.757187440933194,12.856708496392457,-47.953805121451296,-5.4306875326924455,20.087566996429814,23.727490162189497
2025-12-12 20:56:07.564990,Right,4.663822558017273,20.50888163298805,31.603443885229353,13.517490499876658,-0.2451871461889823,-8.885163319346702,18.270460459745664,21.68021388899433
2025-12-12 20:56:07.570040,Right,5.480982664779731,22.644373668696062,31.211969918025716,9.16859727951487,-44.62570845833761,-6.502438218131374,20.55475444694457,24.24282133410088
2025-12-12 20:56:07.574067,Right,6.114531055314728,24.277230455445533,30.957255523913773,7.19277624784263,-100.19278218003456,-5.508881868996468,22.21101185138832,24.682330845476827
2025-12-12 20:56:07.578097,Right,1.3904016014510034,20.793340017709852,27.080363411310827,9.451508393734912,-66.2846775604412,-11.286852502443253,18.733262682559143,19.03142227252465
2025-12-12 20:56:07.582103,Right,-4.041457052739759,16.53456546540474,23.46061164753337,9.53390624306303,-9.254132994854444,-16.74313227701714,15.182614442841441,14.772735755839676
2025-12-12 20:56:07.586110,Right,-2.8521085015591723,18.060357844267855,25.849958689082996,6.096717933591208,-36.090403483289265,-14.670691675287344,17.56850504378599,17.851395560508536
2025-12-12 20:56:07.589123,Right,2.4174750444069986,22.718430379194615,31.56113971803279,6.6425665653114265,-92.44345342350425,-10.314741589155346,21.954029621803784,21.802212057857105
2025-12-12 20:56:07.593130,Right,4.421268875885353,23.591160619816947,33.785695144499186,13.97313900543304,-63.88374517599368,-11.039492598984907,21.620741549158993,19.444531137123704
2025-12-12 20:56:07.598147,Right,3.9922657204792813,21.656685129342804,32.756727050036716,20.14997792358008,8.791173259007337,-12.727929863226564,19.0562295970376,15.65134574939293
2025-12-12 20:56:07.602146,Right,6.917398665481187,22.84070606010573,33.63721158570115,19.47226167144072,3.6597833378837095,-8.32547293405969,20.829858576860715,17.951289634307614
2025-12-12 20:56:07.606150,Right,11.33287503148108,26.130071499013866,36.00440116583195,17.188059219375646,-56.67858132455149,-2.292817167661269,25.265016384553746,22.853199466517253
2025-12-12 20:56:07.610199,Right,10.442145970579759,25.44561049736876,34.862194302040734,18.72426084766994,-49.74375541664995,-3.426222257390691,25.739375480785384,22.894024790050025
2025-12-12 20:56:07.613217,Right,5.662958409401767,21.35537823712002,30.509927400569723,19.770844348795436,16.371366983406915,-9.181054349102851,22.801957575858978,20.214144603043678
2025-12-12 20:56:07.617173,Right,4.90373621848255,20.09587045756416,28.03423867276433,15.315207713760174,18.945922555758443,-10.701092666202385,22.302543763311405,21.27723432062703
2025-12-12 20:56:07.621241,Right,8.545894148226807,21.854294636519626,27.496757353153953,10.27760550860512,-47.651834265379875,-8.922542308146149,23.825249453097058,23.717784576911072
2025-12-12 20:56:07.625228,Right,8.66704817944401,20.269191985466023,23.494251821211947,11.034991495524082,-59.68305975737894,-12.03821943238654,21.510563677227765,20.4386446188837
2025-12-12 20:56:07.630290,Right,3.1869992352321788,14.316489450658992,15.559178091141803,13.444127728636886,4.951874037415109,-19.42901703587995,15.783744949443644,13.487256106862333
2025-12-12 20:56:07.634255,Right,-0.18718712942177262,11.181511488415708,10.718729323045409,10.760506397233257,24.371684626043134,-21.63689155137945,14.194608022698958,11.923146323522815
2025-12-12 20:56:07.638218,Right,2.3581764738621587,14.134529478313198,12.349647895258386,6.735829889214074,-40.71009602434788,-16.77970932547396,18.64550230952591,16.312044450896792
2025-12-12 20:56:07.641241,Right,4.016145845641631,16.72928936606695,14.47479448751983,8.702502315978563,-73.40539778249149,-13.69165363875618,21.673206356776063,17.681578445626656
2025-12-12 20:56:07.645301,Right,0.15706124892517437,14.2442707456903,12.123355269046442,13.728368776479329,-17.40355388635726,-16.0305620285053,19.334752310674958,13.597091346608067
2025-12-12 20:56:07.649317,Right,-3.074363982306977,11.49445363167979,9.000584552566579,13.73144313796729,19.926196349038946,-16.810867393392982,17.426256590708363,11.89247695459926
2025-12-12 20:56:07.653344,Right,-0.23579939784599446,13.012349210814136,9.122606913442723,9.833073439695,-30.63473630113731,-12.85074018198793,19.95085949728673,15.379621146930731
2025-12-12 20:56:07.658293,Right,3.5997815372113564,14.677218250031729,9.21939727798599,9.647524036568939,-71.64295143216441,-11.059590869228487,21.86344112641018,16.673637184667314
2025-12-12 20:56:07.662359,Right,2.6732281575116303,12.20843892981793,5.966676225762058,13.006924701017851,-23.30873142911878,-14.733932869039563,19.180235418545635,12.562005244530155
2025-12-12 20:56:07.666365,Right,0.9847003683214552,9.62827856248623,3.223047679704905,12.558082427847694,26.191977824706555,-16.612291049410487,16.599934363421198,10.13471535257122
2025-12-12 20:56:07.669384,Right,4.051688671082047,11.604995810313994,5.09748685505474,8.039576164021128,-13.421778139545495,-12.507865421628594,18.420730032787105,13.216296369442716
2025-12-12 20:56:07.673402,Right,8.403353641443573,14.826061819021561,8.414099611247366,7.881329123434625,-64.02571495302982,-9.48076874780054,20.73389053090068,15.527291075813991
2025-12-12 20:56:07.677418,Right,8.480883985084802,14.624732512809715,8.678909966816718,14.390441233867023,-24.724453479280783,-12.702973375575311,19.47923381138753,13.25310987620469
2025-12-12 20:56:07.681444,Right,7.268205220461823,13.774967146608105,7.827569574539666,19.083078962496074,38.170493478341086,-15.56109368925354,18.333832616150175,12.377644581119966
2025-12-12 20:56:07.685466,Right,10.433598576049917,16.712128589664644,9.440501405239047,17.10828556202614,13.03008574438536,-11.547644393363953,21.36441728698628,16.8382715783373
2025-12-12 20:56:07.690458,Right,14.768801051023729,19.96437511406475,10.775638789476943,14.704092886111539,-49.736821092683385,-6.259876249841909,24.36832559083632,20.03825047157443
2025-12-12 20:56:07.694463,Right,13.193191112923614,17.571280748696154,7.386144504547701,16.887486473735407,-31.99639237334668,-7.256950786711968,21.951715242317732,16.510018149016105
2025-12-12 20:56:07.697460,Right,7.920439330574482,12.381664127864497,2.423480404759175,18.92726785281775,32.18425053504507,-10.353707261103409,17.967087425095087,12.799519470765517
2025-12-12 20:56:07.701480,Right,6.902184213255623,11.671160118850821,2.3551696165959584,16.400083708829698,21.87389133497163,-8.13461332532097,19.11518738948871,16.40418255811528
2025-12-12 20:56:07.705566,Right,9.678668509685394,14.389553722747223,5.815776436960732,13.73428384752151,-43.408471171516794,-4.613400548378195,22.66996314037533,22.04842663951422
2025-12-12 20:56:07.709574,Right,8.88878696339907,13.429388587584981,5.957460834062658,15.161251014529626,-40.534168605352534,-7.965804518436926,21.19938797234863,20.700740957821836
2025-12-12 20:56:07.713512,Right,4.35984069406004,8.732169986342342,2.3092939422276686,15.897665635258818,25.70699795503424,-14.816431750474294,15.953113239964296,15.27959839961477
2025-12-12 20:56:07.717566,Right,3.551172327924178,7.370450605292717,1.085541744803777,11.265851120409934,30.627163201290386,-15.56599953852492,14.616952722797578,14.850097578448185
2025-12-12 20:56:07.722573,Right,7.66063381048798,10.649408117817075,3.828279480105266,6.712390020955354,-36.95063509001102,-11.192022755101789,17.610940880189446,18.345801815397863
2025-12-12 20:56:07.725594,Right,9.120681930464343,11.836456912595168,5.0078567370946985,8.688923448791684,-52.579529327862474,-10.93085892952513,17.676282226122566,17.263926091553003
2025-12-12 20:56:07.729578,Right,5.143167694645399,8.516227820320637,2.6161858437408227,12.549388313900636,12.201542422933926,-15.326364880962501,13.181614031469508,11.681754964956781
2025-12-12 20:56:07.733604,Right,2.3999568082954283,6.697826342206099,2.016517081123311,10.34198508973168,37.317859529871384,-15.882763309444272,10.682396469437663,9.900266500233556
2025-12-12 20:56:07.737609,Right,4.592972262979856,9.518987774579728,6.131746334067429,4.8960957439521735,-21.18304059850925,-11.523888984254882,12.591563536992908,12.905409765688091
2025-12-12 20:56:07.741550,Right,6.158829651142241,11.82416533955984,10.359599460382015,4.587911385751795,-49.938177681488014,-10.766792290196463,13.283465493408585,12.905483531059872
2025-12-12 20:56:07.745627,Right,3.0991058152408186,10.05556942095427,11.196385638017091,8.271143857235074,8.208863317217947,-15.75729261336528,10.234371640282916,8.245186479096446
2025-12-12 20:56:07.750634,Right,0.09837966087798122,8.482289660281822,12.125009351118933,7.8320333733518055,46.340999021230346,-18.37426403617792,8.619237588161923,6.389593539683119
2025-12-12 20:56:07.753665,Right,0.7850503288723303,10.23438392675962,15.907094108726596,3.063877995517032,-6.741803483493186,-15.766649440134643,10.679753269389039,9.320285275549395
2025-12-12 20:56:07.757685,Right,0.13174711406804818,10.43266496472279,18.213079628898413,1.2178042853101942,-52.61262749923094,-15.986759591945884,10.386430877057137,9.014787611613428
2025-12-12 20:56:07.761676,Right,-5.359168604702063,5.6490101027739,15.892415981579688,3.5514600537335355,-6.051021353657852,-22.166140383222228,4.9571120416148915,2.7618828898594074
2025-12-12 20:56:07.765699,Right,-8.561276791436967,2.4420189982047305,14.904697464357014,4.810114978707134,46.53349200044249,-24.51566872614785,2.2295269073874806,0.09191067572464817
2025-12-12 20:56:07.769717,Right,-3.157326827517636,6.947861529628426,21.07006644984358,4.787973606044034,9.299843877729927,-16.83274241442996,8.033010998500686,6.47919357837236
2025-12-12 20:56:07.773737,Right,3.8463801794293886,13.207631996196142,29.06180710202898,8.344251676795466,-43.79515209240026,-8.321098985117715,15.183178173556371,12.761557137935597
2025-12-12 20:56:07.777742,Right,2.674622689213038,12.44553420910961,30.438095965684624,13.970858971442794,-8.365232885153091,-8.552253883219237,14.824443458408496,10.415645703549671
2025-12-12 20:56:07.780764,Right,-3.604201584974362,7.177805785926466,26.95098528264498,13.78701219454706,53.9827149632456,-12.556517706030718,10.136988187576208,5.1899456253922835
