timestamp,label,FC3,C3,CP3,Cz,FCz,FC4,C4,CP4
2025-12-12 18:19:35.901224,Right,2299.4568816035135,2761.2423642446925,2747.308768512076,2472.2948307597985,1754.593684392843,2312.096851792485,2573.046952380736,2831.4537061301116
2025-12-12 18:19:35.918208,Right,12372.787595486265,14858.615088799648,14783.757764314862,13304.033637738172,9492.612106850052,12440.77029504197,13845.45775933895,15237.222478709917
2025-12-12 18:19:35.921299,Right,28314.460698957646,34008.77647485734,33837.728969898424,30450.322872372744,21891.52273152943,28470.939694654066,31688.194797905056,34877.44877340446
2025-12-12 18:19:35.925245,Right,35354.391512040005,42479.985834181825,42266.23896424995,38031.42128613632,27609.89833399636,35554.38889199685,39578.375816372354,43566.73618203694
2025-12-12 18:19:35.929319,Right,23928.933510612158,28777.53208779554,28630.661143118632,25754.339694503054,18881.677009058993,24075.383390219642,26809.50739857716,29509.850802644214
2025-12-12 18:19:35.932307,Right,2803.1764165773056,3404.6410967063566,3381.196480147948,3032.661188563681,2182.6010124981403,2839.072769424587,3172.5604026364745,3477.210361101199
2025-12-12 18:19:35.936393,Right,-13088.759357533272,-15705.1568594852,-15635.135006785917,-14068.19085431064,-10467.147653814347,-13146.004081965686,-14626.915313296486,-16126.476224371349
2025-12-12 18:19:35.940335,Right,-17167.055079271435,-20619.032114942034,-20522.364829125116,-18455.708288708935,-13421.620277043257,-17256.876816919248,-19205.569602924632,-21157.307097585115
2025-12-12 18:19:35.944362,Right,-12360.650236112066,-14836.906133784913,-14765.755294930364,-13279.417791048472,-9306.568698705873,-12425.821098648303,-13823.0172413424,-15216.761135895387
2025-12-12 18:19:35.948363,Right,-5340.506357330771,-6393.746306205052,-6364.823408371769,-5728.734096507309,-3951.2056131519494,-5362.341533698491,-5957.068504923023,-6558.953547307407
2025-12-12 18:19:35.953375,Right,-1449.9569244533777,-1729.5430214894004,-1726.5671092370758,-1552.8896132678492,-1287.934186621278,-1451.0573791315546,-1607.2696523852646,-1781.8744426999474
2025-12-12 18:19:35.957319,Right,-2254.432823350886,-2708.4050894280663,-2701.2668667241232,-2421.533962127869,-1869.7852937504067,-2266.0953279905953,-2518.304766707588,-2784.0346710933372
2025-12-12 18:19:35.960329,Right,-5500.266734412289,-6601.852613353985,-6573.601022623014,-5907.055160669261,-4066.4594415969914,-5530.553020909312,-6149.589228571276,-6771.087417751667
2025-12-12 18:19:35.965398,Right,-7522.790202269563,-9021.796513324836,-8980.823801423772,-8081.393585537444,-5679.993281365838,-7559.142418921227,-8405.336692858487,-9254.36664585257
2025-12-12 18:19:35.969450,Right,-6633.815017471556,-7962.041067117243,-7927.107941729366,-7133.591380253318,-5331.254852131475,-6665.470732682734,-7414.463842015131,-8172.595990568399
2025-12-12 18:19:35.972443,Right,-4351.891593732173,-5233.856499822694,-5211.5560696064495,-4683.65336059907,-3537.7679635573877,-4377.990268303198,-4872.0734729575925,-5371.692365442403
2025-12-12 18:19:35.978452,Right,-3234.601193830371,-3885.8875570438104,-3867.5621908239555,-3476.027076395345,-2296.8185589323984,-3257.1925866495585,-3621.230568395462,-3981.9674771099817
2025-12-12 18:19:35.982459,Right,-3947.3181824034546,-4728.48320172145,-4705.209304669173,-4239.077038086951,-2819.7327611839864,-3969.178062745603,-4409.2064746117685,-4847.583320850041
2025-12-12 18:19:35.985457,Right,-4937.797956637456,-5923.3300566459075,-5896.161503443727,-5311.263523766305,-3979.6829694410553,-4963.972580934875,-5519.382169356686,-6080.986697644461
2025-12-12 18:19:35.989473,Right,-4688.346449910896,-5639.418476993451,-5614.748799882131,-5048.119165866869,-3886.0183580726152,-4719.398939757259,-5252.934558611829,-5789.968531688675
2025-12-12 18:19:35.992484,Right,-3512.031054553343,-4224.282074392075,-4205.143882424338,-3776.539970343234,-2593.030865449924,-3539.0999221204547,-3938.1691827585455,-4330.634793060366
2025-12-12 18:19:35.996489,Right,-2856.9343253150582,-3421.181530447444,-3405.1454436511267,-3065.290055535268,-1925.5041452792939,-2873.4625785789685,-3192.4731292000506,-3505.3073216909543
2025-12-12 18:19:36.000501,Right,-3326.57026781037,-3985.177753105294,-3967.812862949213,-3575.6862536950503,-2655.3115959092975,-3340.6112135715084,-3713.854569566902,-4090.850108821178
2025-12-12 18:19:36.004519,Right,-3985.074323229026,-4793.558946064906,-4772.805514195934,-4292.091656754725,-3397.1147737482097,-4008.351939935237,-4462.755651413463,-4921.493085499387
2025-12-12 18:19:36.008522,Right,-3684.035417398438,-4436.793522167951,-4415.346902749967,-3965.692210611189,-2847.7623772961088,-3712.720097483485,-4133.040714892326,-4546.905885006301
2025-12-12 18:19:36.013641,Right,-2604.292963740416,-3125.1638000365347,-3107.8658094895072,-2797.282008521259,-1734.1103145368397,-2624.510967636248,-2915.4852354039904,-3196.5981194761116
2025-12-12 18:19:36.016597,Right,-2002.859986766358,-2396.6342318521347,-2383.890487517696,-2152.514176288387,-1529.420668127481,-2013.4173556149472,-2234.7620808340143,-2455.234692622209
2025-12-12 18:19:36.020625,Right,-2499.2962499602,-3006.700808303198,-2992.733431578614,-2693.403923154343,-2218.793494337355,-2513.149618258234,-2798.114307247335,-3085.531230208697
2025-12-12 18:19:36.024602,Right,-3205.091872019344,-3862.882589371642,-3843.725938304793,-3450.6363393882057,-2558.996572583914,-3226.5992783796974,-3596.20095733623,-3958.13241336355
2025-12-12 18:19:36.028609,Right,-2934.7694609597092,-3526.634569008369,-3507.075349810999,-3151.838234622148,-2033.5485703413142,-2952.0487561711343,-3287.056192029966,-3607.9585743050557
2025-12-12 18:19:36.032585,Right,-1867.4975526195485,-2235.112057739403,-2222.2437552795745,-2003.5136718346039,-1365.5666960333474,-1873.2904624242801,-2083.533610253595,-2287.7453554761596
2025-12-12 18:19:36.036594,Right,-1305.0262805755483,-1568.6187532795593,-1560.505506984191,-1405.0416807899019,-1242.5758043184178,-1309.6654291182058,-1458.698877088027,-1608.9816423228476
2025-12-12 18:19:36.041611,Right,-1826.9379746309714,-2204.7894174496178,-2192.8684111789335,-1966.6659484363627,-1513.4878053127322,-1841.2998762289062,-2051.7940913405037,-2256.366880930029
2025-12-12 18:19:36.044635,Right,-2481.7691380362958,-2983.817212734837,-2966.43542879913,-2664.9468307892093,-1697.94843576313,-2500.447922712192,-2782.429054760956,-3048.8633661537897
2025-12-12 18:19:36.048628,Right,-2175.7280682054115,-2608.9109177577775,-2594.274661915726,-2336.8578853051877,-1569.0358560199384,-2188.3966377537,-2434.878486429923,-2668.173996235011
2025-12-12 18:19:36.052621,Right,-1215.8385571434628,-1466.4691422011238,-1459.7821141351014,-1313.9373990009772,-1170.0540883543435,-1224.789001041674,-1368.5412953126943,-1504.0498567381874
2025-12-12 18:19:36.057668,Right,-792.6791873011971,-969.7993278951617,-965.1798175182194,-862.6960146345664,-778.378621236654,-806.5085870763287,-907.4503295910545,-993.8037089415593
2025-12-12 18:19:36.060667,Right,-1261.1594864338404,-1524.8725717657944,-1514.6136943236925,-1361.188183079823,-793.5355301997624,-1278.9728598837974,-1430.1747958934866,-1558.3782692268724
2025-12-12 18:19:36.064612,Right,-1739.7015355404,-2087.7535830129636,-2073.322011322831,-1874.3777943468885,-1196.4059840230038,-1754.5528256300604,-1955.6329929475905,-2138.5759834820637
2025-12-12 18:19:36.068686,Right,-1452.7571636678185,-1749.78521519911,-1737.7135258238995,-1572.9438331626588,-1333.4402590804966,-1464.9712891799863,-1635.4843764341203,-1797.9747309588129
2025-12-12 18:19:36.072699,Right,-750.0144832269289,-918.6630581077188,-910.1245536743663,-820.1403182415524,-794.025145388674,-764.6808678890811,-858.4021460011136,-942.2819511521375
2025-12-12 18:19:36.076700,Right,-466.4465638388647,-572.5409089329187,-563.5861314982176,-507.9958358616568,-198.96916128892917,-482.15460044262,-539.6101307931822,-578.6600957207847
2025-12-12 18:19:36.080738,Right,-760.7612942542182,-911.7965064630844,-901.2231955501484,-820.2820191115607,-368.5311529954197,-772.6460434995824,-858.1446527773514,-927.331105632009
2025-12-12 18:19:36.084736,Right,-1047.6793586036656,-1260.3643827751512,-1250.9095665154746,-1135.8663624709006,-971.5497031311388,-1057.9809426456923,-1179.2830140256556,-1293.934392603347
2025-12-12 18:19:36.087741,Right,-867.4295764912385,-1059.7859107080149,-1052.6107515097829,-948.015294217621,-957.9863729424542,-881.2596241021529,-989.3916966546094,-1090.5217872177018
2025-12-12 18:19:36.092733,Right,-401.1673714633216,-499.08936009474564,-492.56107718951534,-440.949490027735,-241.75120970309945,-415.0140921737184,-469.9487172899535,-508.80546920676716
2025-12-12 18:19:36.096763,Right,-127.90691243193578,-155.3945458936505,-148.82204633322544,-140.30341081524966,143.67247158725513,-134.70833391416818,-152.55476744298358,-154.5630597571144
2025-12-12 18:19:36.100766,Right,-239.63566585670924,-287.98527379508596,-282.0200265175663,-264.5267746146419,-269.17980108672054,-242.69091408583336,-272.7548371674493,-297.32482661295217
2025-12-12 18:19:36.104779,Right,-477.7306433285121,-588.7009195360006,-582.7693746538134,-526.9320652118186,-663.9263238576241,-486.4243750820169,-549.102425713616,-608.1858265274204
2025-12-12 18:19:36.108809,Right,-457.9625526519376,-568.3822041956009,-562.0620921938098,-501.75900581257883,-344.69684909749776,-471.1759908043896,-533.1656811845605,-581.3027074509882
2025-12-12 18:19:36.112824,Right,-116.65537042688811,-144.7199946588371,-140.79488888540072,-127.81308829743648,175.0245848505292,-124.40489894535858,-143.90066772326827,-145.22012769739376
2025-12-12 18:19:36.115822,Right,199.60877754411194,239.40725216671126,237.84094275033567,208.5801156797679,154.9917630192358,197.7765838832711,214.34589769807644,240.41316062188707
2025-12-12 18:19:36.119837,Right,162.16994914237875,180.48127199546434,175.3555904959794,159.625305799098,-160.48626700695604,155.1672878554964,163.26861037570052,175.03814849478658
2025-12-12 18:19:36.125835,Right,-88.04678494101972,-126.23513674971764,-130.2053383247985,-108.230359842506,-125.72207951292512,-103.5127725727798,-122.94351472743438,-132.87824751110747
2025-12-12 18:19:36.128850,Right,-115.9573851559544,-145.76959491762682,-148.2713714352285,-130.04821725311922,170.96428195521003,-128.72518613858847,-144.08207698864862,-146.36569730716292
2025-12-12 18:19:36.132851,Right,190.26478572649648,231.38533596717753,226.4937057949137,199.46349917813495,226.1934618598316,187.41882937309856,209.47805850859731,236.66692465083906
2025-12-12 18:19:36.136877,Right,460.8468930831732,544.4560499006329,536.669370709511,483.2961958316737,97.12870500895951,460.1017306721187,506.7046264681994,552.8674100055068
2025-12-12 18:19:36.139880,Right,404.4773236804831,465.2794151631533,458.93642735506,422.6274042306395,185.33834847572143,398.0869988937775,433.4386293520656,476.3633882717768
2025-12-12 18:19:36.143890,Right,226.78196891833522,260.35506060618417,257.307229777427,239.5303253020429,388.0347317961978,220.2781103053485,238.6282505682209,272.84146695867094
2025-12-12 18:19:36.147852,Right,271.3023840306414,324.36813657883613,320.83393715359125,289.3999054513188,319.5942424232999,271.9335336201184,298.6549672082474,335.99502919868974
2025-12-12 18:19:36.152932,Right,495.0996627494169,585.4525671437586,578.5077008410299,523.8066293379379,133.36339471130486,498.6867190278135,547.0902391747368,598.5372089846205
2025-12-12 18:19:36.156929,Right,604.8595089122537,707.1616449836292,699.1058703540475,641.0092463355686,278.16546873835614,605.0125518402347,661.7217111551727,726.8901161989197
2025-12-12 18:19:36.160932,Right,546.7851918888337,646.3619483820221,639.5144665144908,586.2622389616445,607.3281360232795,547.2429427895404,600.2709374669648,671.0585540454776
2025-12-12 18:19:36.164933,Right,521.7786864797235,629.8385760831297,621.8941176098597,561.2662572029512,582.3097007994074,528.0014452951436,582.2419377441402,650.967585043225
2025-12-12 18:19:36.167957,Right,596.8165748239262,713.8388015637174,702.4354723672732,632.8392269559845,269.4722817213915,603.6305303029949,663.4941338048957,728.8983566867537
2025-12-12 18:19:36.171958,Right,641.6905333264731,753.5799364320119,741.3567880585906,675.5346484989277,264.58176561433356,641.6550272027962,702.013197869237,770.6057919917512
2025-12-12 18:19:36.175960,Right,634.5472405219334,749.1915077922167,739.7604454629472,674.4127858043066,626.4180444738304,632.1605839763652,694.0858571555582,774.1704398184665
2025-12-12 18:19:36.180984,Right,701.5361954526161,844.4465804245556,836.723856569617,752.719268594461,766.781878289592,706.1841440383578,780.4369251420139,872.624080006266
2025-12-12 18:19:36.184993,Right,823.206075539696,988.5615066399914,979.8960177286644,879.2697549883742,507.49339341488667,832.676134922367,918.2068639013451,1013.6306767682545
2025-12-12 18:19:36.188995,Right,819.500731736247,968.9185527728405,960.8877392422874,870.2559736390249,372.7230474403477,824.0221811530064,902.8482095783693,992.8314641367178
2025-12-12 18:19:36.193049,Right,695.9593586721458,819.5604604745167,815.298665269569,741.7883179506753,613.9374602804892,695.7398785697296,760.8474197274772,846.635133798467
2025-12-12 18:19:36.196013,Right,695.1200333638117,831.953835410066,830.0173315367429,745.918199165957,789.5886625098647,699.6900139335776,769.7203918421874,860.3430681013269
2025-12-12 18:19:36.200037,Right,888.7792830295512,1065.9711348348064,1062.6513573597185,949.6235609404976,631.5056933793821,899.7405207413831,991.3600987166865,1092.4634890581947
2025-12-12 18:19:36.204050,Right,1015.4663197463378,1205.030182638322,1201.2053306130692,1080.6079478902975,525.7505932520726,1024.3491852346342,1125.6631929693976,1232.2052767927526
2025-12-12 18:19:36.208076,Right,894.0962436402915,1057.8528005040716,1057.5143046716694,956.103846483049,726.5273120904458,898.4536846119445,987.4734510930721,1088.6207547325175
2025-12-12 18:19:36.213094,Right,733.1605463537853,879.8969246174674,882.5996307064779,792.2567653617589,850.6784043388907,740.571666588774,818.783195756725,910.738923057681
2025-12-12 18:19:36.217095,Right,802.9068032812793,968.9050909021171,969.7462068106979,865.2505605142796,640.3959127195994,816.1892376209144,904.2158876645844,996.7732862095581
2025-12-12 18:19:36.221155,Right,1012.6677863000659,1206.5926236634841,1203.9666634340538,1082.7207067247946,512.0512889789534,1024.6699838950299,1130.2480539225508,1236.6275286062155
2025-12-12 18:19:36.224055,Right,1075.232045578421,1273.5554611819098,1271.1958385200705,1150.9654338847613,775.9789662517724,1082.6455569195095,1191.6007377377246,1310.6023596638115
2025-12-12 18:19:36.228164,Right,948.3622723352164,1132.368725911132,1132.6544451279333,1022.3364948087838,984.1469982728595,957.889179175836,1055.9816202323418,1170.005642771488
2025-12-12 18:19:36.232123,Right,847.9605899157468,1019.3485540281981,1020.0572528179036,914.4443732718937,721.2668340947712,862.994768344448,951.7113410751335,1048.2924718152499
2025-12-12 18:19:36.236166,Right,898.5947071156697,1068.4166723939124,1067.905131479376,961.7380908816122,428.16594775847625,911.9501582744997,1001.9535451041302,1092.4918726114556
2025-12-12 18:19:36.240170,Right,1008.740999485366,1190.6037543157581,1191.0474384570261,1079.7792122113751,661.1456603031838,1015.7500013514655,1115.4895106049953,1221.994120320771
2025-12-12 18:19:36.245170,Right,1060.7362790232291,1262.3790933052078,1265.3247236821335,1142.457301322138,1060.401505127782,1068.0766361242859,1178.099849350634,1302.0721985293785
2025-12-12 18:19:36.248182,Right,1031.7931478173705,1237.0382934663212,1240.26567744778,1111.060929800151,939.7045350124827,1044.994074700633,1155.306960670394,1273.3523714266485
2025-12-12 18:19:36.252180,Right,950.9250218521338,1129.1077436631313,1130.703164868988,1015.1486798031256,501.2058818616206,963.9989119666861,1061.4370723338798,1157.3972968322923
2025-12-12 18:19:36.257203,Right,889.0504817010369,1041.3548386195907,1042.771015195991,945.9927396321436,495.05086928629316,896.1287503914209,983.1907703976613,1071.8119118229952
2025-12-12 18:19:36.261217,Right,942.0964232892729,1112.9079160657711,1115.0648318126332,1011.0807629352203,912.6521611023927,949.4073722616304,1047.3696499823127,1153.766175006982
2025-12-12 18:19:36.264223,Right,1081.0014393700985,1295.115962389391,1295.5600785170682,1164.807974434225,1030.611118854722,1096.313255183748,1216.3362834997242,1339.9115427960642
2025-12-12 18:19:36.268179,Right,1107.5950902367476,1323.7149088748265,1321.0669497861527,1187.4192904984811,686.4387738015503,1126.0450848060427,1247.3217223434476,1362.7660945521202
2025-12-12 18:19:36.273238,Right,932.8672358725453,1100.608442940982,1097.9353520548902,996.1060869870707,504.57985482376534,945.4153567298781,1042.0321871947963,1135.7987357017118
2025-12-12 18:19:36.276245,Right,785.2201258969726,926.1349231090862,925.9918725052848,844.514197752811,755.3922499613836,794.7364288861863,876.62278327893,965.6477707158774
2025-12-12 18:19:36.280264,Right,905.6001813011244,1084.013145382516,1083.8101812025998,979.9366116331657,943.8731968610082,921.1278994221939,1022.2153565998888,1129.2293349059764
2025-12-12 18:19:36.284257,Right,1135.7822081976337,1358.4005813102704,1355.1312574455515,1222.7279381914996,767.6116113886237,1155.3427696457366,1281.915591770783,1404.5131758665666
2025-12-12 18:19:36.288292,Right,1117.428869177238,1322.5221662491094,1318.7200435516424,1198.0463454504497,607.6441294341348,1131.1154500603443,1251.1785995890386,1367.227798560867
2025-12-12 18:19:36.292287,Right,859.044173340546,1013.6109659932554,1013.4471767060459,925.9224419563543,736.2002395775635,866.8793011375237,959.2259466089308,1057.6096020434052
2025-12-12 18:19:36.296252,Right,746.0345379096689,894.393132741563,896.4627171158791,811.8729968322441,832.0257108965889,757.8018172202865,843.5491629852913,937.1862788621802
2025-12-12 18:19:36.301322,Right,935.6110623723362,1126.0800825110637,1125.7838814521674,1012.8564876567107,676.5165892194491,953.0987386252964,1061.094394624699,1167.8855173983611
2025-12-12 18:19:36.304339,Right,1111.4122143563582,1324.5813391937409,1322.077909820713,1195.5863950825296,599.8176342035877,1125.4926178648602,1248.8963585083839,1368.581206646515
2025-12-12 18:19:36.307328,Right,995.7395749005955,1182.7601455589756,1182.4876620017458,1073.80066594854,794.4431693635415,1002.8298327453667,1113.4253443335183,1229.1768394007813
2025-12-12 18:19:36.312393,Right,773.9824753579451,930.496596419951,933.3700951049104,841.3170156416018,875.5722231394611,781.2512900400907,872.839754503686,972.9253390147351
2025-12-12 18:19:36.316333,Right,765.5196127498057,926.3526676965412,928.6696603491437,829.173218319891,616.4006280481117,776.3390973822679,869.0933680203743,961.0006478941068
2025-12-12 18:19:36.320400,Right,928.5410990134114,1110.6129113598727,1111.0500246169977,997.5083043037448,457.5500498196343,936.3196830754168,1043.75285848137,1143.9817938697524
2025-12-12 18:19:36.324379,Right,985.921048883698,1174.6691586705856,1176.1570557998493,1061.9102043618914,720.8824506241363,987.364886359428,1101.2419551068451,1213.426117716357
2025-12-12 18:19:36.329397,Right,875.6036158720963,1056.0489337188192,1059.5518143491354,951.7993932219688,950.994424791541,877.4339001622284,985.2988635115325,1094.4773934327532
2025-12-12 18:19:36.332405,Right,777.6119626010768,947.4383958166,949.7714996135328,845.8209638227709,697.0053300618893,783.7837677405914,883.770602225326,975.576824977994
2025-12-12 18:19:36.335463,Right,785.3671809404623,945.507516027661,945.2060851729475,845.8887620079331,365.3336545174243,789.5387078505009,885.8740502665751,966.0159324875567
2025-12-12 18:19:36.340357,Right,818.8500205662567,975.9089488850441,975.994861645624,881.3022271315567,530.3922854126431,817.3452576983254,914.2455024803057,1000.8126836738084
2025-12-12 18:19:36.344456,Right,821.2468668104848,989.4372549725231,992.0407852397766,892.0982632823288,895.4670798795996,822.0950239172671,923.249367894372,1021.3538451453205
2025-12-12 18:19:36.348441,Right,814.0362646265421,993.0219968887977,996.0300933888648,886.4471204909496,803.4431438327301,823.6611586754443,927.39241806278,1022.1482207656372
2025-12-12 18:19:36.352455,Right,782.5020901204553,947.4791490177158,949.2042341295164,845.1507988264784,404.51745295058936,793.7919682540232,890.2767248628661,968.5786768165417
2025-12-12 18:19:36.357490,Right,704.823477137601,842.5143732561264,845.132571761962,758.6736991726793,376.7324612205848,708.8446390205063,793.2523965979926,862.435321373865
2025-12-12 18:19:36.360492,Right,662.3117634006776,799.2821606041398,804.3707623130176,719.3330178281758,715.1236330176471,662.7377627288224,747.2747137239203,823.6092170630582
2025-12-12 18:19:36.363440,Right,727.8410881169839,892.6200186288916,897.5360827995464,792.5571489131544,777.1591134860646,732.6990037113428,831.121124838246,916.4807222587988
2025-12-12 18:19:36.367499,Right,790.1850778103108,964.1395857264288,966.631640661275,853.0598352027591,456.8433856762713,797.3508826675825,901.3651831287425,982.5861110116821
2025-12-12 18:19:36.373580,Right,700.3443670485867,844.411348878406,846.9847371659707,753.6014783983119,333.77520694432314,703.5867089841049,792.8364522659685,862.1294300772715
2025-12-12 18:19:36.376564,Right,547.4408764697146,666.0501990227494,671.5615539045539,597.543136439519,583.2832810786786,550.4940517171053,624.6237192533445,689.2430935073644
2025-12-12 18:19:36.380566,Right,547.6165037261089,681.5483921619598,687.887204766972,604.6234868918546,688.195215133368,558.6498691157904,638.5325037222356,707.8986427113414
2025-12-12 18:19:36.384590,Right,680.5451254736399,838.9884699834511,842.743579152273,742.6175209761132,434.43940809823107,696.6468289446784,790.8004139785189,863.2337968561333
2025-12-12 18:19:36.388590,Right,706.3261338435113,853.3502331716008,855.7489137316588,763.9276954756351,292.4538166881539,717.3697546711192,808.9926218523178,876.2365483781323
2025-12-12 18:19:36.391615,Right,564.5427138692467,680.6112777162343,684.658122952329,615.1191406483995,500.579615576542,570.3593958498677,645.67485778837,704.5236660914961
2025-12-12 18:19:36.395618,Right,470.4711417395156,581.3369533091318,585.4868150076363,519.4631885178387,614.9992092138855,480.11248819960747,548.9183961398667,602.9339639253449
2025-12-12 18:19:36.400629,Right,540.1566735975211,668.0148188169114,668.3697430926841,590.1523042136105,371.94371329667047,554.6143876505084,630.3242777950363,683.6125584451947
2025-12-12 18:19:36.404630,Right,603.4301782115363,731.2593943173997,728.5635932991281,651.4824606316397,206.8587800776586,613.5405088814441,690.8520286809653,744.7398632674012
2025-12-12 18:19:36.408655,Right,519.3073921933537,627.2703518571798,625.9455574793974,564.1250171868596,429.0452817622572,522.2628065614263,590.3780351731693,643.9878506867681
2025-12-12 18:19:36.412616,Right,415.7485868028598,516.6739229485393,517.5637647097465,459.2199432889465,612.4149515052559,419.2804136334453,482.91108193364926,533.5582525003701
2025-12-12 18:19:36.415682,Right,439.73427484114654,550.4022409283789,550.2294336020714,481.1678850790486,378.3796008757781,446.6330384075409,516.2259499747306,561.157637412427
2025-12-12 18:19:36.419708,Right,496.762780806981,604.8349023212213,602.837760941824,533.1634419149486,117.61627413379028,499.40596930938773,571.056877576746,611.2694659819826
2025-12-12 18:19:36.423652,Right,446.61408245016355,536.6720262789167,535.9169773141621,479.2035414042184,280.27695093117654,441.8230385474162,504.8876156366896,544.9881003359333
2025-12-12 18:19:36.427732,Right,365.45243336563,451.43627699033823,452.6959882249357,398.699157633353,540.242609125562,361.34120100340806,418.0517304262612,460.1616264471086
2025-12-12 18:19:36.432735,Right,385.2731940159574,484.566260845284,484.5101755806245,418.62362140696496,395.0741969225928,386.9012354061706,446.31761126220226,486.74844199675135
2025-12-12 18:19:36.436741,Right,432.11625353468116,529.9947365126573,527.0981506354874,459.9445939118741,92.89372342673596,432.59957751689944,491.3697923294967,525.9860224729637
2025-12-12 18:19:36.440764,Right,367.36823353066575,441.87091833434533,438.9151857707184,388.79829393082764,165.1355280695716,361.0207623069873,409.0974090581294,439.31573126639705
2025-12-12 18:19:36.444726,Right,262.9195822972106,326.633446608088,325.1029290857259,284.6395995019702,441.2485587140545,256.0900834003696,297.52786060178187,327.6293285160791
2025-12-12 18:19:36.448793,Right,278.7001371246297,358.7773707326269,355.76123428088613,305.20105874864385,378.7037979341112,278.17228714958765,326.6412734455662,357.3319143927656
2025-12-12 18:19:36.451794,Right,359.6222911013756,449.7675813625101,443.352297149715,387.07155161036644,77.94597016472835,360.1959143796703,414.96238677215297,443.35026101674885
2025-12-12 18:19:36.455810,Right,322.9069505862426,394.0950869235676,387.18704231327865,346.3903702319367,81.89570729457773,317.49867201631423,363.26299528894015,387.69885614910163
2025-12-12 18:19:36.460812,Right,189.1979168294929,240.01645671436563,235.29203178815078,210.12216325395275,349.76268521149177,182.7350414992543,214.8495939419372,236.20788371830713
2025-12-12 18:19:36.464836,Right,151.28855626529548,208.065813867026,203.3142942043487,173.13363549252972,339.6736258784658,152.34202931262553,183.33502926281653,202.6802149200812
2025-12-12 18:19:36.468790,Right,232.51467696530744,301.9724732468603,294.4827520153485,254.40890099923126,39.54910684010247,238.03686268196907,275.14650996308774,293.4352651590016
2025-12-12 18:19:36.471852,Right,251.86807240685448,312.5919224675745,304.5158197651617,271.19714123464655,-4.174961008189712,253.0633048589807,287.43027269281447,306.1631881961366
2025-12-12 18:19:36.475825,Right,150.01184660149738,193.5053007081151,188.31624688312877,167.0351700137835,276.48739438701887,147.91230589477345,172.42248865042347,191.07086921052542
2025-12-12 18:19:36.479819,Right,82.60573092987761,125.59007078211289,122.14571936917491,97.89730616938323,325.5066412552842,84.49021414516028,105.63477392937057,120.07162392907776
2025-12-12 18:19:36.483886,Right,130.74344421271235,180.25477984780446,175.24774494662415,142.3828296373831,4.974302436283324,135.0720713136252,159.04165692045353,166.8693809614051
2025-12-12 18:19:36.487912,Right,169.28030913026305,210.85135038057342,204.8688115628902,177.29993654228747,-125.5434734429,168.1193564386922,190.05980506772175,195.88329716736916
2025-12-12 18:19:36.492904,Right,111.60989281296497,141.18907656148076,137.1352018759353,120.64548194676172,158.2756380441133,105.952583698323,121.85841364436783,131.64502342860214
2025-12-12 18:19:36.496920,Right,54.88918217626633,88.38623458973598,85.48111014300957,67.05742663994897,314.38060391129693,53.50061813677894,69.05904247483704,80.15019020589534
2025-12-12 18:19:36.499931,Right,73.00588138989406,112.7564489551587,107.56999547302257,82.78942841110984,26.435473770427052,76.27967743109912,94.5032228922937,98.23951594799291
2025-12-12 18:19:36.503928,Right,79.12862739770208,104.80279883183539,97.4055502449628,81.63957790716086,-207.377152469242,78.0779867565725,91.37958954978967,86.3976069688797
2025-12-12 18:19:36.507897,Right,17.239524954231456,24.428943294798955,18.069124843983445,17.168536346871406,14.492216628219467,9.956195536942687,14.845608180679847,9.989969610644039
2025-12-12 18:19:36.512041,Right,-13.276702366070822,0.29771763045573607,-4.675245660590008,-8.547923802747391,263.1691214442835,-18.090604171680752,-11.581980103510432,-10.51451011520112
2025-12-12 18:19:36.515999,Right,38.71976457827259,69.14228182617808,62.7456221942557,46.05100529966876,71.61882395495195,39.708820874628145,54.15438977011945,55.22739504626952
2025-12-12 18:19:36.521030,Right,46.309980235935654,66.9735659280559,59.10778403526638,48.10770277742995,-217.06666799855884,45.42147413949715,56.583217662526295,49.783467864093836
2025-12-12 18:19:36.524017,Right,-62.92058218765305,-70.1946100135101,-76.27655033906922,-66.60318765771808,-98.90438850730425,-69.1002349499613,-72.01832375157392,-84.19262353621889
2025-12-12 18:19:36.527021,Right,-137.84420518035768,-147.60222939302912,-151.63748072180897,-138.3156812377274,168.73322598720551,-141.12567371013574,-148.3464410485467,-157.35872353531886
2025-12-12 18:19:36.531984,Right,-57.15920017962344,-42.200686613621656,-48.18019523937255,-51.481872902892064,69.25982907961588,-52.52849794027861,-49.16467237652978,-53.536897610814776
2025-12-12 18:19:36.536044,Right,30.983079220401123,51.44171268097125,41.94437229068717,35.115496096084826,-215.07027973837103,35.955540381139144,43.74340682680486,36.93507850822061
2025-12-12 18:19:36.540033,Right,-51.80716927279718,-59.84812816156773,-69.33925453625852,-55.08046322752489,-171.04649270468508,-53.14327235115343,-58.26582004793454,-72.43103149736999
2025-12-12 18:19:36.546070,Right,-195.18743603135226,-223.16162012552377,-230.22599243198056,-201.4732939020614,77.65767925526598,-197.22773754116497,-213.81126621068688,-232.10052483901381
2025-12-12 18:19:36.549069,Right,-180.75944918228197,-193.89463445160072,-201.0142853668949,-183.83372629148653,25.96112391690258,-177.0749685416813,-187.1070425270591,-203.71708490728633
2025-12-12 18:19:36.552107,Right,-60.29234280696255,-56.66366903312155,-65.8776555681543,-61.40822820487665,-243.3082691654854,-55.9466124533792,-55.194272943161195,-68.72281126285088
2025-12-12 18:19:36.556083,Right,-63.993716551864054,-73.29032833792735,-81.90431242794148,-67.5006257253408,-222.43236469413387,-65.64833121100673,-69.42179510815185,-82.84476187132532
2025-12-12 18:19:36.560085,Right,-200.46097519199247,-230.1474662894907,-235.61628681828734,-206.042549170641,41.54620574635919,-203.0196712735342,-219.2296204457234,-236.0295774198894
2025-12-12 18:19:36.564112,Right,-252.75214629428228,-278.7424001483887,-283.6539353862172,-257.5141343784344,22.424803904126748,-247.99330123045365,-265.565128896269,-286.81776839052327
2025-12-12 18:19:36.568124,Right,-161.31564921388053,-173.4376096786582,-181.28136214910774,-165.1843272435217,-280.9890878982842,-152.87180212799285,-163.1107811271795,-186.32273952828837
2025-12-12 18:19:36.572167,Right,-109.6571161763859,-126.0277661276923,-135.39588309419923,-113.73265435827489,-318.5959780919511,-106.50719980179565,-117.15219298940792,-138.25788401145837
2025-12-12 18:19:36.576156,Right,-188.49172444446594,-218.41544165438972,-225.98548710391333,-191.9049508527096,-20.778526435657113,-188.94133425346809,-208.3400147405482,-226.9323879120493
2025-12-12 18:19:36.580123,Right,-257.4469009108798,-287.1110033652076,-293.5617524940899,-260.56183184358815,48.87649931726628,-253.26684229207603,-276.73535164077475,-297.79439836513484
2025-12-12 18:19:36.583201,Right,-221.77494981340715,-246.02761674712383,-254.02344013998663,-228.6104007670292,-262.1475830209165,-214.51529633897735,-236.02547329571826,-263.22485254982894
2025-12-12 18:19:36.588192,Right,-188.3517844563612,-221.85840038620518,-230.3743681280248,-200.84347934343896,-395.4728381980458,-187.14629052287455,-210.35691342623613,-239.646836259064
2025-12-12 18:19:36.592215,Right,-237.59830234636456,-283.048181496717,-289.0418845533941,-251.40157288468527,-109.88701811023566,-242.53515317714846,-270.26386105832535,-294.97788287644926
2025-12-12 18:19:36.596228,Right,-274.8811272561725,-313.69161531681857,-317.93897161037967,-286.2929579247866,62.383254883094196,-277.0969675276756,-303.0235663764324,-324.0302056407563
2025-12-12 18:19:36.600224,Right,-234.50756358617946,-262.4749283265628,-268.3579967474798,-247.30178637517383,-208.34267735571848,-232.78389178635553,-254.05767383790953,-278.7127830938698
2025-12-12 18:19:36.604259,Right,-216.97802470401075,-255.89831344487175,-263.2275380372448,-235.77708581053594,-440.5458767934542,-219.71643794565898,-245.13344894265174,-275.8840955885753
2025-12-12 18:19:36.608244,Right,-285.98651133751264,-343.80846349382773,-349.19216651283205,-306.89040067919996,-227.7238601645222,-295.1086616554094,-329.4265916061122,-360.10442088254786
2025-12-12 18:19:36.611262,Right,-328.3630581090256,-381.1256848599587,-384.2422723884665,-344.1904617046239,20.209113515280478,-335.53463731902593,-368.1512135767698,-394.0053290987853
2025-12-12 18:19:36.615297,Right,-267.68276930140564,-301.405307993482,-305.5067932627426,-279.7576310892764,-156.50354146586324,-269.71189944955404,-291.99266178012476,-317.1240481929708
2025-12-12 18:19:36.620292,Right,-227.50876191511634,-265.6034569722542,-271.3766153929173,-243.61137419840088,-425.6817688315641,-231.90855768529582,-253.77805722822086,-284.15058296197094
2025-12-12 18:19:36.624313,Right,-308.99777696776437,-372.29302144719986,-376.6939214116428,-330.9005184555426,-297.5272032499779,-319.4021004846436,-353.4485229830898,-387.60548553298577
2025-12-12 18:19:36.628321,Right,-385.5671237822098,-454.98362412839197,-457.2751666926197,-407.4896143671067,-33.87808479357045,-394.3659598327358,-434.1714393326838,-466.564429805876
2025-12-12 18:19:36.632319,Right,-319.77971674501896,-370.0259793784353,-373.5076976570708,-339.5699828802608,-143.2610119421879,-322.02248843901907,-353.77161647964385,-383.7370513661008
2025-12-12 18:19:36.636288,Right,-223.08483912682277,-267.62684045522474,-273.51656478250516,-245.91750298187253,-426.8892651502101,-225.9022864048893,-252.96867887224653,-284.49000779740163
2025-12-12 18:19:36.639348,Right,-269.1922642312129,-335.3842080082104,-340.2554695366416,-297.82344169335556,-362.2352620761667,-278.80885383076384,-315.2638345975429,-349.97948574778275
2025-12-12 18:19:36.643288,Right,-384.0905342702463,-463.8102623298473,-465.59316508178017,-413.77107163966866,-88.73514217481716,-394.14095316111343,-439.22074313339544,-475.18744453869294
2025-12-12 18:19:36.648359,Right,-378.13456162414514,-443.0627188272192,-444.6357076910208,-404.9440292538202,-139.1821817124437,-380.9497755400953,-420.6573875765025,-456.9472370700678
2025-12-12 18:19:36.652313,Right,-284.4810702675313,-336.7057685449836,-340.52122967515606,-311.3932458157651,-429.24563486731495,-284.59478788796696,-316.85280582262203,-354.347355875012
2025-12-12 18:19:36.656385,Right,-290.7397852287977,-356.64421112509444,-360.3973089794745,-320.89939466828946,-412.91177399409935,-295.92981821199646,-333.4526754383114,-371.5000809066696
2025-12-12 18:19:36.660406,Right,-395.61824904661626,-476.93452413601335,-478.18491196696414,-426.0511511884397,-114.48787832955713,-402.5268242204911,-449.20915318629704,-486.0840956356842
2025-12-12 18:19:36.663423,Right,-418.77150023099966,-491.4141304556397,-492.3637873127591,-445.8242698602844,-92.55264676111983,-419.5940434137592,-464.0949560261797,-500.6104663228034
2025-12-12 18:19:36.667387,Right,-334.3668675927911,-394.14686044474365,-397.5972559475922,-359.77766685618553,-394.0415765377693,-331.3873876358848,-368.49789411510574,-406.8343472031993
2025-12-12 18:19:36.671428,Right,-309.33932475867914,-377.8438663574052,-381.93479544314323,-335.66072092257673,-461.1235848722863,-310.05865863960935,-349.33803872572025,-388.57609782152576
2025-12-12 18:19:36.675385,Right,-387.916593059781,-469.72318273590645,-471.3581583482446,-413.0626155011123,-174.31872629612917,-390.70776825147914,-437.1995799583383,-474.5821098073502
2025-12-12 18:19:36.680469,Right,-417.1233632058138,-491.05712954036426,-491.68298223626334,-439.1566810972872,-79.48798595444532,-415.162652226747,-459.40497157000937,-495.78391426365124
2025-12-12 18:19:36.684486,Right,-342.46202655736124,-403.2713489968446,-406.23125835112296,-365.2738431268954,-367.3408399926848,-338.55167000798974,-374.52370065508876,-413.516183093132
2025-12-12 18:19:36.688502,Right,-310.26446176011814,-380.4977468064171,-384.85246062488295,-338.29368847899605,-512.2892447789782,-313.7280837132712,-350.39823342638556,-391.8605546414037
2025-12-12 18:19:36.691495,Right,-387.2632043984486,-475.2460815233644,-477.5758002063958,-418.141119069478,-249.91781096620252,-397.58413801068673,-442.03677571518347,-481.5747428161558
2025-12-12 18:19:36.695561,Right,-430.5271002626396,-513.3122809067718,-514.0899938959046,-459.300522738311,-69.47218121401966,-437.99197619303595,-481.9760028911405,-518.0012887778576
2025-12-12 18:19:36.699501,Right,-356.01261657133,-420.8321334827342,-423.35322315170197,-383.56167233287124,-301.93713794625364,-358.62912578502437,-394.148255150707,-430.4257734649582
2025-12-12 18:19:36.703562,Right,-301.10068444529315,-368.7358901439002,-372.5560710914433,-331.42629917460727,-507.03753535595024,-307.06900802697055,-341.6663883252768,-380.99413531064056
2025-12-12 18:19:36.708601,Right,-370.6536344586639,-456.6127288979478,-457.8789845142164,-402.29846433206694,-300.87005977134686,-382.39741592650535,-425.04951605625683,-465.20104340743273
2025-12-12 18:19:36.712631,Right,-437.582355853694,-522.8132449641125,-521.1042470951215,-465.48302039923146,-72.70811594516272,-447.0278206609655,-491.04462992970366,-529.6379581533256
2025-12-12 18:19:36.716560,Right,-374.3357223929488,-439.98360370571027,-439.04017936007585,-399.01733132702066,-251.99775372160366,-377.86812066735,-413.2170578694204,-451.88012235960923
2025-12-12 18:19:36.719617,Right,-289.84704937477363,-351.7949194434332,-352.8004865847761,-316.9933655128116,-502.43992915324634,-294.8870542255463,-327.3710812982172,-367.630102355266
2025-12-12 18:19:36.723537,Right,-330.943188765028,-410.47621410433203,-410.3253731816076,-361.8861695608939,-354.0803856769344,-341.91954321967205,-383.4527693751734,-422.886854568962
2025-12-12 18:19:36.727610,Right,-415.19080299453344,-500.67003452184144,-498.12642268592026,-445.3750964985229,-86.91895852680318,-425.28516597824637,-472.8460867329268,-509.21493965690024
2025-12-12 18:19:36.731607,Right,-388.2001049880637,-458.1770906477468,-456.14180406183004,-415.7280530894059,-206.29625380260404,-392.263014837692,-433.9555682365317,-469.3537639915012
2025-12-12 18:19:36.735614,Right,-307.03215918672504,-370.1625421397621,-369.96421344496775,-335.1814288624446,-491.7824173111585,-311.2501923866221,-347.7107830620371,-384.6111925551668
2025-12-12 18:19:36.740671,Right,-325.575852163136,-402.96494989003986,-401.6884596166201,-355.4056565150968,-405.5586618205998,-335.7651155871572,-377.5274977951776,-414.1329885866726
2025-12-12 18:19:36.744647,Right,-406.5628164837253,-491.4302755345125,-487.4891682731686,-434.5519445539103,-100.21941430476727,-417.2312539438717,-464.3427860086085,-498.3605516134994
2025-12-12 18:19:36.747657,Right,-398.1705625639297,-469.43624209519476,-465.9885366198141,-423.7150606632349,-137.89947788999416,-403.1252045404981,-445.81995466095395,-479.74519876460545
2025-12-12 18:19:36.751666,Right,-321.78113206627313,-385.1754514365457,-384.76099957409315,-349.8590684958035,-440.5369609242189,-326.6093622856424,-364.81185161008034,-402.1389304412296
2025-12-12 18:19:36.755675,Right,-326.3367996898596,-404.09718782349955,-404.21753614605404,-359.21570458554197,-433.2903768955148,-339.1376879979507,-382.6573684270261,-421.1896800736431
2025-12-12 18:19:36.759633,Right,-399.74124890356325,-487.5483337783953,-485.3893648387166,-432.76303869485855,-117.36763165332377,-416.8028802166227,-465.4831606444204,-500.28815284883603
2025-12-12 18:19:36.763699,Right,-389.06633970182156,-462.60061205434613,-460.1494152673986,-418.95198842021637,-70.34989864291856,-401.86272691510385,-444.233060614788,-475.9466379438527
2025-12-12 18:19:36.768695,Right,-295.37159856635844,-356.2274231923511,-356.3119187777629,-326.19402493175585,-372.30975522159133,-305.7782458047732,-340.268338094349,-374.4025397502119
2025-12-12 18:19:36.772732,Right,-280.74744314391864,-355.19025365659036,-355.980586774298,-316.22138060315046,-459.7601861851872,-296.07863355393056,-334.999282011413,-373.1451209348161
2025-12-12 18:19:36.775733,Right,-364.4274783678702,-454.8883401977364,-453.1333727608435,-400.1980160246603,-174.95653215260245,-381.8668530071154,-429.19370580173563,-466.85118508397136
2025-12-12 18:19:36.779741,Right,-380.7166229332797,-459.76068821607623,-456.5733382476028,-410.9469163994072,-51.00873102975311,-390.93805230938597,-434.4578394329874,-468.5076798942173
2025-12-12 18:19:36.783720,Right,-287.84279043303104,-347.484118732973,-345.8842970422702,-314.7051457206253,-310.2793067373568,-291.55368901568,-324.77088088705204,-357.46473500388674
2025-12-12 18:19:36.787767,Right,-251.83934099850012,-318.0284172060201,-317.009548679227,-281.1818317543948,-454.86146892560646,-258.270465189009,-292.4725182411494,-326.16906375449616
2025-12-12 18:19:36.791735,Right,-339.7061911499477,-424.9395005911356,-421.29203081224114,-371.0072428700514,-206.96536689350614,-349.61378865584265,-393.7603126189206,-426.8438950116979
2025-12-12 18:19:36.796807,Right,-388.5153708244907,-469.3068273810204,-463.8305587277282,-417.0044443642255,-28.98011347540887,-393.300962330075,-438.25575262878556,-468.9811354635749
2025-12-12 18:19:36.799804,Right,-300.67467662488343,-360.6829134186264,-357.07213457266334,-326.8575330831809,-251.497229262779,-299.0817881949479,-334.8241898055421,-364.9832866676152
2025-12-12 18:19:36.802820,Right,-225.13137461914448,-284.3806667517638,-282.6658400193555,-253.97542932722718,-451.68814712407766,-226.12664200377185,-260.2400315962732,-292.0076455709059
2025-12-12 18:19:36.807828,Right,-288.14280094142305,-365.8353524894919,-362.49433295149356,-319.97997155529447,-249.5256263737101,-294.68306887650397,-338.4245186932385,-370.98819766088855
2025-12-12 18:19:36.811848,Right,-365.63001582969446,-446.21522494091187,-440.7357894614106,-395.72862307575997,-23.789386847580317,-369.77368304040283,-417.60144040663727,-449.7331729034195
2025-12-12 18:19:36.815801,Right,-312.14762786671054,-375.77486838924233,-371.4257694320986,-339.0255282702856,-199.53508180036442,-310.2912102830596,-350.1900762055302,-382.80265459639486
2025-12-12 18:19:36.819877,Right,-222.74689308309462,-281.3550224171486,-278.7070828063879,-249.46839348203503,-444.06017062364845,-222.06719538313337,-256.9991925304057,-290.12031908438075
2025-12-12 18:19:36.824885,Right,-251.22538722294848,-323.8585390232038,-319.26813773135655,-278.2801779730944,-286.97146236349363,-255.44707240455318,-296.69842633779626,-327.33489029388875
2025-12-12 18:19:36.827900,Right,-329.2992454877822,-405.41543197713327,-397.5723489319207,-353.6978332401486,-7.1772019797354005,-331.0828053507721,-377.15510244993493,-403.6866381788859
2025-12-12 18:19:36.830894,Right,-302.72131408238783,-362.9857126008719,-355.4921501057688,-325.0260325332638,-118.32224685302936,-297.59590647532605,-337.8946172310971,-363.27941428520717
2025-12-12 18:19:36.835929,Right,-218.35594156518346,-272.2308383571217,-267.41324617003556,-243.02419262181502,-407.3780187693774,-214.22657297673868,-249.08819895016495,-275.9165716979187
2025-12-12 18:19:36.839911,Right,-226.29353364836425,-294.17036803415976,-289.52909091534093,-253.24743117718026,-328.23746376112103,-230.0374677835498,-268.850422293297,-294.6397012514062
2025-12-12 18:19:36.843872,Right,-293.6481993609341,-367.3027273864718,-360.91272893187124,-316.8978109002346,-21.729772760299966,-298.84763028175803,-340.9310828911839,-362.6545679940609
2025-12-12 18:19:36.847932,Right,-273.00945534324273,-330.1511607125867,-324.6827809383394,-290.28157239069697,-55.032769668032415,-271.14963750413153,-306.92256209638435,-326.9745489959605
2025-12-12 18:19:36.851953,Right,-188.17879669112153,-234.55396537354682,-232.4642900020117,-204.77196975331753,-362.9538043831126,-182.75491603720002,-213.277414200129,-235.88582203758415
2025-12-12 18:19:36.855960,Right,-191.16926624404732,-250.42690099950414,-249.48090843076352,-210.88665214541834,-367.3941398583702,-189.5141695785569,-226.38463438861072,-250.52807561855298
2025-12-12 18:19:36.858980,Right,-271.5227416646667,-340.846559593454,-338.3813571050996,-290.8917146003805,-53.20589907147223,-270.73408435244346,-315.0261320127174,-336.4869190034224
2025-12-12 18:19:36.862989,Right,-270.4138337749755,-325.4339967283886,-323.317585808225,-286.38398791651707,5.4301064924220555,-263.9631830860744,-303.495294219465,-322.51291645667516
2025-12-12 18:19:36.867947,Right,-178.9829239391256,-219.87077067000791,-220.7940265329089,-195.552742570173,-285.76492286042776,-171.00994160049595,-202.07977227075025,-223.02101287839469
2025-12-12 18:19:36.871995,Right,-158.81870549189625,-211.17993659817148,-213.2440138978418,-180.11246904172003,-371.24450362921925,-158.35356438992312,-191.9826358227292,-215.7158589354949
2025-12-12 18:19:36.875957,Right,-238.9066456904984,-306.4170469981618,-306.2712949672714,-261.4106411333196,-85.3660651264363,-244.13882443337934,-284.8926773277344,-307.40065887977835
2025-12-12 18:19:36.880036,Right,-256.90029734862037,-313.5410854400834,-312.294216676848,-275.34869118290953,43.75096048996784,-258.9460252618883,-295.53702262300067,-314.8286891874159
2025-12-12 18:19:36.884050,Right,-161.8493262504344,-199.19109801505692,-200.02058441226836,-178.1450048199622,-213.03198969352525,-161.21392443444347,-186.72548541380093,-205.56503701745532
2025-12-12 18:19:36.887072,Right,-114.4637592836516,-157.01319836941548,-158.87729391094763,-133.4018420536886,-359.89514343842166,-119.1927880482981,-143.85005555464886,-164.0897897024406
2025-12-12 18:19:36.891072,Right,-191.45089426910272,-251.5605857616756,-250.8422646226827,-211.33725345664425,-110.12864666112,-200.24183284270111,-233.08629680622835,-252.44682942144573
2025-12-12 18:19:36.896019,Right,-241.35241934488295,-296.81378339603543,-293.9985194467008,-256.8946844766033,75.46905351115856,-243.6240147112985,-276.7412314538378,-293.46545671171043
2025-12-12 18:19:36.900093,Right,-163.63806360954186,-198.9040986530017,-197.8277497118106,-175.7661334965378,-145.26782067120075,-157.19910425622948,-181.32660959579516,-197.44445480697323
2025-12-12 18:19:36.904102,Right,-94.79613401636016,-129.242491464247,-130.16717964643613,-109.5003194938763,-352.1522026624298,-89.13280788512202,-111.28164734004531,-128.58525439328514
2025-12-12 18:19:36.908131,Right,-155.51439504383598,-207.06876074289903,-206.33867375191767,-174.05715532286558,-150.03949013433885,-155.14822774555068,-185.5494084789534,-202.38915529299993
2025-12-12 18:19:36.912184,Right,-228.64877732726745,-281.1323387438897,-277.88816946104635,-246.7408697574865,89.9441663507605,-226.80527338624233,-259.97014648502227,-274.9461418054998
2025-12-12 18:19:36.915149,Right,-177.79507123294752,-212.1501752990298,-209.61115906224586,-194.16669726127293,-72.9198110800935,-170.75042404793203,-195.92630620131968,-211.0406187910121
2025-12-12 18:19:36.919185,Right,-96.34072453196859,-126.31703710427973,-125.56950558279641,-114.17604264814872,-320.69595387851587,-90.8567588540609,-111.8263448078651,-128.75754926388618
2025-12-12 18:19:36.923182,Right,-126.76567919593072,-172.41625162411947,-170.54601259401534,-145.8507474475773,-173.0279573124717,-126.80046732228948,-154.00230330141494,-170.6528685025405
2025-12-12 18:19:36.928201,Right,-194.29941184882773,-243.9490597458789,-239.8480154321296,-209.7866684482433,107.68266414408572,-192.65508897631662,-222.93968429951929,-237.2226435149787
2025-12-12 18:19:36.932198,Right,-152.83292952814372,-185.32543286436703,-182.00628430279903,-163.83335100585828,2.6206631954410113,-144.33080961246742,-166.68343632941833,-180.55201935302466
2025-12-12 18:19:36.936205,Right,-64.27568071871065,-89.28606955544092,-88.30007128912257,-76.11803462554235,-290.89793096273206,-56.06589052925119,-72.5935391804087,-88.355948494107
2025-12-12 18:19:36.939228,Right,-84.00112345046364,-124.04764659237117,-122.63402473804308,-99.25581329548731,-222.8530516353785,-83.2354478930356,-105.84499118151143,-121.39114355656784
2025-12-12 18:19:36.943235,Right,-167.2311194742797,-214.95720386022003,-211.42135022504954,-181.65016992669553,84.75245086662471,-168.53610620473046,-197.14442536089336,-209.30118680058513
2025-12-12 18:19:36.947224,Right,-149.37484697980108,-180.63624462182634,-177.8605511293281,-159.95281288592378,66.280208521639,-145.1502202358679,-167.90540551074082,-178.1176484679454
2025-12-12 18:19:36.951191,Right,-52.562155751977116,-71.21449630631832,-71.53720408078516,-62.65175382990856,-232.6150500313961,-46.84849456534721,-61.77704348700354,-73.5071353550884
2025-12-12 18:19:36.956255,Right,-44.398359509941656,-74.88815353013342,-75.7341793634696,-56.83736034476897,-244.26675100426655,-44.832978091260884,-62.467734413803555,-74.71520482149208
2025-12-12 18:19:36.960262,Right,-125.00350017473102,-166.51005183777306,-164.93468461168231,-136.76262509153457,57.74468570121098,-128.45146091276547,-150.99213621061062,-159.68571617559064
2025-12-12 18:19:36.964280,Right,-127.78922235261416,-155.85458031209419,-153.68201102985768,-136.3815028660465,111.44814374716952,-126.74244382890174,-143.4308435456478,-148.2835398033494
2025-12-12 18:19:36.967297,Right,-32.08698699588422,-44.885168773646,-45.03880780102918,-41.43056871177396,-179.30696611444,-29.632029864529613,-37.33547700528288,-42.00800380832516
2025-12-12 18:19:36.971303,Right,-2.5707270012935624,-25.210836873797234,-26.14921116270125,-16.613285561848897,-264.7720710042049,-7.370362885354552,-17.55495976936072,-23.298706674482673
2025-12-12 18:19:36.975320,Right,-82.25335078319767,-120.60654910973972,-119.14160589146195,-97.59880526002962,20.838267762039322,-92.37865710561164,-110.7268112586462,-115.12710990494816
2025-12-12 18:19:36.979269,Right,-113.01419910695404,-142.82219448167598,-139.8836300590774,-124.20045958959963,149.66773774614558,-118.67034406308085,-134.9383705854998,-137.3431098330766
2025-12-12 18:19:36.984334,Right,-31.292585094459355,-42.69995078200009,-41.26501455833204,-39.27586094790604,-109.43405711973901,-31.624543704208918,-38.76634489634307,-41.6812609541812
2025-12-12 18:19:36.988356,Right,15.053944924788084,0.4021320102037862,1.1444742101593874,6.212295030534733,-256.7225154301268,11.793291131791193,4.557256473810412,0.7100892861490138
2025-12-12 18:19:36.992365,Right,-53.09280158934416,-82.71672216954175,-79.52956848114263,-61.937987894634716,1.3947505744290538,-60.59139349358156,-76.33002053934615,-77.85519653576193
2025-12-12 18:19:36.995369,Right,-95.7053002975299,-120.31407092761947,-115.21895685011987,-101.24941900128033,198.84029593068408,-99.7444198486046,-116.31408392079175,-114.16490222973516
2025-12-12 18:19:36.999384,Right,-16.517765461816452,-22.813890862977132,-19.12941314757336,-20.698862544901203,-21.006610725540668,-15.747180096223019,-24.124105090566445,-21.35222750826506
2025-12-12 18:19:37.003334,Right,53.21926897135563,45.95243781560566,48.610616810503416,45.682234867243096,-238.43763786388445,50.47069725196343,43.97272901434917,45.38686086097732
2025-12-12 18:19:37.007403,Right,-4.304493936069775,-28.64649093541084,-22.834549076855183,-13.97340574505506,-41.36381271012942,-13.13538685668027,-26.73964769928716,-24.03369269799441
2025-12-12 18:19:37.011412,Right,-76.5490676726331,-100.50202949775849,-90.34997337905224,-82.61876420141198,205.5539576408628,-82.96383415732998,-97.41826786339516,-91.10906999296276
2025-12-12 18:19:37.016441,Right,-30.719445418042596,-35.66126657713903,-24.406619198794942,-32.64808896719478,44.147591238172026,-30.15441976467264,-34.98416200448992,-27.61049122089753
2025-12-12 18:19:37.020429,Right,43.30061354290228,42.35073243122315,53.36196473351447,40.436973247269634,-221.2747391749872,44.192946660274174,43.89709754358046,49.17854089051252
2025-12-12 18:19:37.023452,Right,8.310831673559733,-9.20219387410907,4.293530443450436,3.3998853352386504,-95.50484758047969,5.476718336634804,-2.3196096522151493,2.4182418124983087
2025-12-12 18:19:37.027461,Right,-59.65782594241318,-81.28508973901626,-64.4209953964455,-61.950368722493295,180.99687730288133,-59.18764983082656,-72.1407181226532,-64.87759539752733
2025-12-12 18:19:37.031457,Right,-15.817624391696882,-19.42387327068718,-2.893875958165154,-14.188662429951364,85.10323154710932,-7.017775802582037,-14.04208785330411,-5.345020933018532
2025-12-12 18:19:37.035595,Right,75.46195365587482,79.94462852034485,93.60055553575512,76.19526512012817,-206.3445693574031,85.61875858245185,82.49115780607099,89.45374644652475
2025-12-12 18:19:37.039534,Right,55.005579654098256,43.72730316146044,56.71872295788489,52.842207466077525,-145.33342843590071,59.8806744144531,48.71053178270813,54.21893940877635
2025-12-12 18:19:37.045552,Right,-33.273076747893356,-53.446654697705526,-39.319377309817355,-33.54051169365994,162.07818738737842,-27.994741420989158,-46.3400609382079,-39.894997684052214
2025-12-12 18:19:37.048545,Right,-20.00514509723871,-23.68793047266081,-11.032589280686807,-15.322169358609244,153.3600713238411,-7.059581073495792,-19.160217789933085,-12.505472297169035
2025-12-12 18:19:37.052536,Right,76.37258147640387,86.38916248435271,95.37107212882256,81.88084592306404,-140.49971104078577,92.21872268698644,89.03137561713811,93.09037485771114
2025-12-12 18:19:37.055534,Right,84.33271536199027,82.41328948063892,90.44167261183611,86.8000481390045,-158.01943482435308,94.9508944308327,89.0000601389329,90.85706361645134
2025-12-12 18:19:37.059554,Right,-2.0108794091211166,-17.42620135177276,-7.178434641420608,0.11023037481936626,138.31145875752554,6.471414858882781,-6.0671921794710215,-3.4496890667069238
2025-12-12 18:19:37.063566,Right,-13.372617084649391,-18.583638676122064,-7.809349190793,-8.639755970682018,193.94949791725958,0.6675681923225056,-7.898448579799151,-4.395506002329057
2025-12-12 18:19:37.067526,Right,79.19592469383497,87.4014736104582,95.73357672133716,83.19229892682051,-93.31744040378544,95.90816493736929,95.58916766467155,97.27458198947716
2025-12-12 18:19:37.071628,Right,112.47042706271168,110.28737761848606,117.64999250526307,111.83587553544203,-177.3988166035415,123.09212557287537,120.37237461743644,120.00661863625282
2025-12-12 18:19:37.075621,Right,36.7111396988912,18.057121044839732,27.602555834921077,34.33587665989762,112.8128019394062,42.427392162178876,31.40670733922161,31.68668250835617
2025-12-12 18:19:37.078623,Right,5.7798240780539345,-5.797067455772776,4.7973711611412,6.481394407048356,248.73685663483047,15.280097155366093,5.885090685012983,7.247693911282113
2025-12-12 18:19:37.082634,Right,86.25784799372195,91.58403794991318,99.79682087275432,88.63081723212963,-11.07931287503743,99.63875057180121,99.38895538423094,99.24877605799702
2025-12-12 18:19:37.087602,Right,133.7433972084109,134.72270226597902,141.015987354971,133.65567950325203,-168.5751960292837,142.63005015677481,143.32580089732073,141.53404738378595
2025-12-12 18:19:37.091646,Right,66.35755853701266,51.62207954309997,59.25148700893624,65.36215689804521,82.36403837660328,69.79287941392977,63.83296923810849,64.05203652320779
2025-12-12 18:19:37.095612,Right,19.409024638182018,9.478423651773483,18.279279200331075,22.28449929546332,282.3536478231108,25.708106880963896,20.884884105820674,24.655415283021284
2025-12-12 18:19:37.099672,Right,90.88719043208403,99.76662155395024,106.39070242833986,97.00218867856893,65.44677008502185,102.05784638569457,106.74785022591823,110.81964975844312
2025-12-12 18:19:37.103696,Right,155.89422566717258,164.64418655310874,168.61979161131603,160.73925943548966,-155.08057781141542,164.004909346535,170.71632055540977,172.80621140112635
2025-12-12 18:19:37.106684,Right,99.50802049241611,91.94302852585679,96.13495748814603,103.55260437335528,42.24810136284941,101.91138478633366,100.65434184658807,103.32976260522264
2025-12-12 18:19:37.110726,Right,33.05042944928573,26.767125572747318,31.53033144233632,41.06482933906955,299.5595599049848,37.6699500875111,34.74572178158269,40.3748071554146
2025-12-12 18:19:37.115718,Right,86.87293552987103,100.76980032680149,103.09917116261204,98.57305952660681,147.46253774254728,97.23009732928767,104.30341336404672,110.44832438734011
2025-12-12 18:19:37.119682,Right,166.09401827387046,184.48880092203035,184.01980606405414,175.48326715789153,-120.41091558191692,173.96881495924754,187.30000760806433,191.06072701478843
2025-12-12 18:19:37.123737,Right,127.69830856972112,128.4885070178134,128.92138331338356,132.78456306859152,0.7126777475568815,127.43369845414418,135.5554708038544,138.82234230385802
2025-12-12 18:19:37.127772,Right,47.726804358557274,42.90783149629715,45.68218129956222,53.196479534242826,284.0700246860215,45.981898726313375,51.20833311854949,57.22173398545419
2025-12-12 18:19:37.131783,Right,77.65315402892884,91.02407679832686,92.80904825439211,85.94358704346087,200.58255368698883,80.79023451417743,94.37524740582012,102.0396123336177
2025-12-12 18:19:37.135803,Right,159.65562958777446,183.20314532811608,182.05877762046293,167.00775972355768,-88.27621564856236,162.28450570047426,182.66204874667892,189.0195680764882
2025-12-12 18:19:37.138797,Right,135.87406170562463,145.77371066800697,144.78218188675237,140.2708308254223,-34.855222772406705,131.63703462573903,146.9185630508946,152.91484312983084
2025-12-12 18:19:37.143776,Right,47.90183033351059,49.718176321170176,51.487320418098534,53.57049089220527,265.5465081767197,42.09234354488217,52.3083563674154,60.98969334636058
2025-12-12 18:19:37.147750,Right,62.910250501743576,81.37056923640557,83.59710635287774,72.78559615178528,251.50185169267752,63.21989690345072,80.40608261221496,91.04928208973797
2025-12-12 18:19:37.151810,Right,160.71696757401878,193.40127030302392,193.46607604377277,171.0207024543961,-52.0599789325388,163.3771307093175,188.84952898658594,198.06963265245577
2025-12-12 18:19:37.155840,Right,167.47047559022576,189.21714091504873,188.97054754018973,174.62583692687622,-78.50754596761658,164.75933785270718,185.81338637133013,193.5138268755145
2025-12-12 18:19:37.158848,Right,75.69402995777182,85.36514203390107,87.30255934681463,82.63119099647702,220.9174599983371,70.70158934383608,83.18652159303065,92.39703645938971
2025-12-12 18:19:37.162862,Right,55.63581491108175,77.69137087120635,80.10748450548294,65.69837149043774,286.8022792340016,56.43307397077024,71.80681029062453,83.06664203702428
2025-12-12 18:19:37.166875,Right,139.77735111258698,178.04161145845592,178.44235796962857,149.86831617370444,-0.806144754486013,143.96801394929753,168.30245075110724,179.1148410194255
2025-12-12 18:19:37.171872,Right,167.6977824554251,198.04550841720993,198.25179935112465,173.86146498146627,-99.19490727849552,166.70940199523648,190.56467311052984,200.5623541879504
2025-12-12 18:19:37.175877,Right,88.21798557760485,103.63818401496974,106.73145994876904,93.36939947316205,178.5455294538515,83.61464919693753,100.6451667139736,112.36329047142135
2025-12-12 18:19:37.179900,Right,52.541015883150976,76.08478560224103,80.72843273181934,61.76432846996977,311.8928506859229,53.7799105807826,72.54230864454075,86.19066760332498
2025-12-12 18:19:37.183917,Right,127.46760213385642,169.04626543402264,171.8405977741204,139.44150687328147,47.71770886807644,135.01071387476622,162.09773668614798,174.43423279003764
2025-12-12 18:19:37.186930,Right,168.71141475308468,206.7342170233096,208.3884774619146,178.9138420208983,-123.53594808702474,173.70430206994206,200.51857428576477,210.42223904353887
2025-12-12 18:19:37.190878,Right,92.92293148210592,114.84534703321697,118.72132783223788,102.16961483029445,116.49358003652014,93.71770015846414,112.10990486153605,122.55448237010569
2025-12-12 18:19:37.194939,Right,37.25193770865735,62.703772326683975,68.30229163505282,49.50954627383908,318.9608831192745,41.83100351483881,59.22700373718544,71.69450625438185
2025-12-12 18:19:37.198904,Right,104.25551247559633,147.45745766752952,150.83581695085013,118.30772990745027,107.26675336019252,114.415684482301,139.7669642578112,151.26996777058957
2025-12-12 18:19:37.203918,Right,169.23103983445617,211.55546336073894,211.97993980898173,180.46380539647362,-119.32707183143066,176.65659715831862,203.43891924813215,211.75266476871911
2025-12-12 18:19:37.207988,Right,112.6199352466283,137.1373452073458,137.86277368222363,121.85143713624711,65.72953995647549,114.39147733172285,132.78144041312044,140.38737951558142
2025-12-12 18:19:37.211945,Right,43.02264601523348,66.3578958583239,68.38248195046617,55.525974819174735,317.50368115495075,47.17078262462746,62.88880364462966,72.48484042550263
2025-12-12 18:19:37.215034,Right,93.15368756886892,134.64468812788255,135.14703818892303,109.14368003913842,166.09713799207384,103.20841435942566,127.69371065456653,137.6175134290388
2025-12-12 18:19:37.219018,Right,171.1904996073281,216.79984629686805,214.89667660692066,185.28486075440014,-102.58680316319806,178.35383128776448,208.25386078814336,216.09169974640827
2025-12-12 18:19:37.223039,Right,132.5983222721261,161.21494187069766,159.91963169527298,143.40467779675964,18.722422909442685,130.5384832333657,154.4949418061442,161.877615520556
2025-12-12 18:19:37.227033,Right,51.0217425339215,74.24748819820525,74.78539718134562,63.32447339549253,309.11001410322206,46.51796994941833,66.38542382227024,75.94066582084633
2025-12-12 18:19:37.231057,Right,82.48282183018455,123.55991219554562,122.79348788887728,98.29325901577249,231.54337668573135,82.93877133721253,109.81619069031149,120.14736247238761
2025-12-12 18:19:37.236106,Right,175.2540506607911,226.20847820164636,222.33670324577542,190.42452574502386,-64.76313321774069,176.36444853137073,209.2763991143729,217.70528525415284
2025-12-12 18:19:37.240083,Right,166.0059337092389,202.75592180047533,198.81824514428445,178.36300475918688,-26.413281083921902,161.5889328678022,189.1679393864615,197.24186712551455
2025-12-12 18:19:37.243074,Right,82.66901734402927,109.69273106347828,108.24754452117486,96.19001065731572,267.7611046880338,77.17856469683466,99.23311849313905,110.45686792235938
2025-12-12 18:19:37.247086,Right,87.48168268946756,128.60352511476958,127.4315688181814,104.74096974577697,257.2965749228315,87.45073086619959,115.60220300040965,129.28667023689195
2025-12-12 18:19:37.251093,Right,168.62007042468758,221.59425816270232,218.36645145468356,185.82139277704118,-45.580243494245224,169.81750640021346,205.4999389132572,217.9243367738818
2025-12-12 18:19:37.255051,Right,161.8911798879708,202.20967247741646,199.28059181313438,175.89107255722047,-75.33212175173685,157.31295813832548,188.1947339777107,198.79666295123752
2025-12-12 18:19:37.259130,Right,63.68375867929717,90.4442951574456,90.71715859201504,77.74444931439939,227.46106671418238,57.66612969645939,79.53051548570511,90.78896907927992
2025-12-12 18:19:37.264143,Right,46.4341894275276,84.11479424373829,85.58477149074315,63.83251531305723,300.58354361369857,47.919700672267936,71.61395524528052,83.32612740303739
2025-12-12 18:19:37.268149,Right,141.62333051188034,194.25789400131907,193.28178041355568,159.27023639372783,7.897872384710354,148.5099301875016,179.34662811121962,188.38488509127637
2025-12-12 18:19:37.272153,Right,178.93364199584175,222.52844689178164,219.6795051759982,193.22919035088853,-107.7806115042622,182.3505951117113,210.56393994556856,216.7029269230843
2025-12-12 18:19:37.275158,Right,96.63375678143348,124.31888596748468,122.15119497306296,110.70853299523878,161.4051142578246,97.04967770024086,117.02044801204465,123.93018856807612
2025-12-12 18:19:37.279106,Right,48.61405485772411,84.1520605525584,81.51744854490971,67.15041568367451,304.1713637320936,53.826363755448256,75.72057221693103,84.98422457385459
2025-12-12 18:19:37.283169,Right,114.33901174018683,168.42822166383849,162.32274922556826,135.10566771913727,51.0137077368272,123.35969633566856,154.89778756417218,163.7164107542485
2025-12-12 18:19:37.287134,Right,156.51735914021265,207.291473397956,198.85252517228946,174.20462739627692,-121.65710289783601,159.86743928369833,192.07359249397996,198.72654168627923
2025-12-12 18:19:37.291208,Right,88.02584084318369,121.93202941576601,115.12469251526636,103.44888589851325,112.93215279781725,84.37421001683106,107.94596909551183,114.95971003122395
2025-12-12 18:19:37.296233,Right,40.671805449048406,77.13481265679002,72.120616612694,58.51012110937154,316.9044193747686,38.98131790071784,60.76626034756191,70.07308985746931
2025-12-12 18:19:37.299251,Right,116.20884845456749,170.28706222082837,163.5670290752896,135.9284813439881,106.90725407123682,119.40508661733475,148.53201502293814,157.88229094841518
2025-12-12 18:19:37.303248,Right,188.07736274991476,241.46870350971585,232.5556102314731,205.20066029639565,-126.78397241146013,188.61006460730277,218.66210724867415,226.03796045295894
2025-12-12 18:19:37.307262,Right,130.42456083875732,165.2535486689303,157.5251795258082,145.3652711067989,50.78623908686859,125.46605564208585,146.2351889773272,153.72859366971534
2025-12-12 18:19:37.311218,Right,50.283385284332326,82.33378305309452,76.6168966825935,67.61180217171204,306.10213367722463,47.53133452881593,64.2941335470241,74.04518993425881
2025-12-12 18:19:37.315280,Right,89.24784841302608,138.2277539552888,131.25456738984212,108.5840323943994,162.3716661140934,92.3673214106675,116.36810806125868,126.33717485473608
2025-12-12 18:19:37.319284,Right,163.49554343984346,215.91112833013176,206.54227756208275,179.3772236231016,-107.6567316527944,164.779051296151,192.43703585717594,200.06958055059658
2025-12-12 18:19:37.324324,Right,125.152330465673,159.42287406828837,150.93328556107008,136.65185547579313,6.503928565362003,119.64017364525353,139.25897684856318,146.15724919890636
2025-12-12 18:19:37.327332,Right,41.00979563355213,67.98251190461451,62.096491402509855,53.50413273088634,295.21033608460857,35.88809604733251,49.46361584184342,58.21429495487246
2025-12-12 18:19:37.331312,Right,68.28109623884666,111.3782553676283,105.1310180312721,83.9871232737496,219.0483509942278,69.64941457097302,89.31707615734194,98.36959869996645
2025-12-12 18:19:37.335343,Right,160.91479567674105,212.90316141807125,204.13778988309787,175.3816760054906,-82.68060739713837,162.185743591137,188.090264892322,194.40901497099549
2025-12-12 18:19:37.339274,Right,154.55139060883084,191.46075437313993,182.76135459984653,165.22338660099194,-52.65947252206388,148.14076546402066,168.82180547356256,173.5688892280159
2025-12-12 18:19:37.343345,Right,70.67883385845926,96.51986684658914,90.32356975864968,81.49927183473483,242.756925980284,61.64243432809599,75.70459163832129,82.37115564619307
2025-12-12 18:19:37.347365,Right,71.99002549771103,110.53480147529626,104.58535069526988,85.68159598644706,240.3737079268176,68.6482620217721,86.90737145027379,95.23503891230212
2025-12-12 18:19:37.352388,Right,154.1023499656876,203.4930509350379,195.1734998903703,166.88759855384706,-62.7573264708044,153.26138151573832,177.7066637701064,184.59414030611515
2025-12-12 18:19:37.356382,Right,153.40142361272592,189.27545135171385,180.69504601997323,162.3778782755544,-102.36598095904628,147.5311681170133,167.1498261129018,172.6711976242368
2025-12-12 18:19:37.359395,Right,57.02450973843224,78.67509843359585,72.84571186330868,66.4596078042523,195.7107158600993,49.5887087166775,61.12063319576555,68.2225065518287
2025-12-12 18:19:37.363347,Right,30.983296203543432,63.739285669114906,58.882199192012195,45.37454519950552,274.36180254218925,30.8361431764788,45.299022803868866,53.82892962702317
2025-12-12 18:19:37.367412,Right,110.72080289872247,159.3158268366824,151.96359405876137,126.97741219907766,-13.29710418342438,115.72007350885542,138.04602812646772,144.6617288349371
2025-12-12 18:19:37.371422,Right,134.67867539197323,174.41530768680968,165.5405297142279,147.53656701050932,-128.75433263133164,135.05304100949434,154.82737017524778,159.24264498989214
2025-12-12 18:19:37.375442,Right,47.39488632968278,69.74714148920611,62.51710895032738,57.95861959218746,144.6642279310181,42.72869389122934,53.69144583216985,59.66954858286772
2025-12-12 18:19:37.379457,Right,4.9409642626706045,32.729869729460916,26.293028587009758,17.00523129387875,296.36321782442974,3.3737888194737025,15.56086517512449,24.76481281084125
2025-12-12 18:19:37.382458,Right,84.36315456908778,128.57461814998533,119.73897271047463,96.1679681740934,42.60965933157422,85.99065210000845,107.66896371220355,117.50766280078096
2025-12-12 18:19:37.386525,Right,139.17209249202278,178.39571831410285,168.1271834850195,146.46113587444415,-145.34567062622227,135.22471221306478,157.82844080083305,166.82958282149048
2025-12-12 18:19:37.391465,Right,70.69980330902035,91.53968344992609,83.96453833510168,75.25141971735866,75.21056808847061,60.253579209558666,74.00712502695387,84.46022416863707
2025-12-12 18:19:37.395534,Right,9.524722259258851,32.11690888059093,27.527150545211043,16.64540340838721,279.34224655143043,2.244362106488552,13.249611015431583,26.235529822995886
2025-12-12 18:19:37.399529,Right,69.34474203252466,109.95347730684443,104.51293259338127,78.48736403643852,74.64411073288647,68.71586797232158,86.05683068596409,98.37784586744965
2025-12-12 18:19:37.403525,Right,134.22125825178227,174.72728582436685,167.31700740434462,140.07383714333992,-160.93707074280246,132.2251636723522,149.95882298910874,159.06983967442648
2025-12-12 18:19:37.406524,Right,76.5646819420217,98.01009189104661,91.71595976830577,78.83009075396694,12.840024012533831,69.53213322866941,77.74545615940588,85.90819387999363
2025-12-12 18:19:37.410539,Right,-3.3627811686019413,14.376857553987065,10.339415427588392,0.8625864143832587,271.40153681598895,-7.195651758433087,-3.034954240254592,7.152951600466622
2025-12-12 18:19:37.414620,Right,35.79092906138976,70.85646219350747,66.15673918044195,44.02126010219217,130.41461984693888,40.62411914381664,52.48680413499824,63.48984503632528
2025-12-12 18:19:37.419614,Right,113.76067868896644,154.00406425562687,147.2381845204509,121.95797817932907,-148.67594458042004,120.17483195978275,136.6591324515175,145.93129321365268
2025-12-12 18:19:37.423607,Right,80.59446467584348,103.79102339420933,97.55694468779257,86.71528669947293,-48.367982785232016,81.72450577326526,90.9477420692856,99.3190963510715
2025-12-12 18:19:37.427627,Right,-2.160595059263869,13.03085726473364,8.658374198363163,4.925185576983495,236.40854392824986,-1.7578540043759858,1.465658742643427,10.781659830798162
2025-12-12 18:19:37.431611,Right,21.974880929585197,51.69665137701668,46.421571572398534,30.785022080410272,164.34851313506078,26.91229396115523,35.688841133291135,44.31392889129347
2025-12-12 18:19:37.434668,Right,108.73344664261094,145.90371554580634,138.14202347912942,114.67636862094514,-137.22263489336183,112.7649913488276,127.04634892134345,132.44114716700278
2025-12-12 18:19:37.438626,Right,94.07047036271251,114.8290114448464,107.71148381492821,95.07412959940848,-109.75456165072683,91.19279731439019,99.57261426353944,103.46121753688203
2025-12-12 18:19:37.442635,Right,0.4418206792179262,9.009800038067624,5.276883198035648,1.2914325519523118,191.00766161843785,-3.303967348561855,-1.7731651161739137,4.334397880389588
2025-12-12 18:19:37.446597,Right,-5.846917151429807,15.397059078561142,12.831256354053039,-1.2962614783609752,199.57855630309496,-1.8954024830454728,4.543756516621215,12.437102591851726
2025-12-12 18:19:37.452697,Right,75.32795119806542,108.74078331270721,104.37978263711557,80.3799175430031,-100.80065501833451,83.10803554428276,97.15810119255912,103.1924503587652
2025-12-12 18:19:37.455685,Right,81.75823614963156,102.94171582418494,98.18415884283604,83.54774045206432,-148.24906666661263,84.09269600723928,94.41250682377722,98.07108985556988
2025-12-12 18:19:37.459687,Right,-3.4890777970285853,3.122300441726111,0.4489856204309035,-2.4350967001955723,143.91998621726816,-5.166297350660898,-2.8198924796888605,1.5027684422093444
2025-12-12 18:19:37.462686,Right,-19.567058658445603,-3.644386781088542,-5.981126964557916,-15.819839852352743,224.12247169991315,-17.262200811848743,-12.45978143197135,-6.654063327237964
2025-12-12 18:19:37.466721,Right,68.56700162924244,98.69176334753865,93.45714075682918,72.35614036653715,-63.93423437185993,73.47651264918386,85.83310397938476,90.6163280318724
2025-12-12 18:19:37.470712,Right,100.55724948638817,121.30820305433008,114.27021422929829,100.67451178394549,-186.72908835862472,99.67814961224212,109.6280139163573,112.85717618555645
2025-12-12 18:19:37.474674,Right,17.663101767539047,21.25038799684262,15.856200113747036,16.835774129009224,81.9346890635934,11.614058958148235,12.994956076989183,17.39032547950046
2025-12-12 18:19:37.479730,Right,-27.992175419887644,-18.689659104973543,-22.740433144645067,-25.281023788484163,238.06867862015497,-30.35250871210883,-28.005447400384583,-21.853981558524538
2025-12-12 18:19:37.483749,Right,43.33275432464143,69.12343117396813,63.57940118512488,47.307246077485615,-9.641166715387953,45.41355658900284,56.36904315519496,61.00421964857378
2025-12-12 18:19:37.487822,Right,92.25653319584671,112.69207628967706,106.43947456314345,92.19163954192481,-196.35431546416658,90.36414717658772,101.36951215859153,102.944522425998
2025-12-12 18:19:37.490778,Right,23.16652720939601,24.214483380317688,21.004051827752846,20.24660670646699,26.164300318341702,16.18660770841234,18.24854895674798,19.695327381705283
2025-12-12 18:19:37.494771,Right,-37.17990484046459,-35.5090876428585,-35.34395456367929,-37.19018906571728,236.1816453208885,-39.86078261931834,-39.582579460024135,-36.05975133292668
2025-12-12 18:19:37.498743,Right,21.009217061655363,40.65416037516843,40.93148459815711,24.60433640803967,32.32011087361025,26.315069502175902,34.76713765336899,38.20877194660716
2025-12-12 18:19:37.502803,Right,84.378494380755,105.45531543594552,105.2489309713128,87.1720486721897,-213.22300963867747,89.81378465924354,100.86292279820191,102.1862111222872
2025-12-12 18:19:37.506811,Right,30.19734772350057,34.122624053343316,36.30724751506932,31.430412023648387,-50.37083758666995,31.151924448713544,34.39857054693857,35.73874671365775
2025-12-12 18:19:37.511910,Right,-42.342020384181524,-41.588889756734716,-36.86341019165411,-38.95645735721337,206.50056459827465,-39.55527001725568,-39.90716156321287,-36.257450950637576
2025-12-12 18:19:37.515849,Right,1.1083517826045863,17.79125604557339,21.130504955217475,6.626270567125175,67.45647724276932,9.692921770430985,16.259843862237176,20.239021876215702
2025-12-12 18:19:37.518878,Right,74.55348666891223,94.12833663939091,94.48401213259785,77.54730975553684,-214.80051541501598,82.04280325144646,92.12064935700619,93.86621215433115
2025-12-12 18:19:37.523847,Right,28.927192406947142,30.04006475045753,30.58980047350633,28.90537710324861,-116.88502486884681,30.410143399538356,32.718540346671944,34.05902093704208
2025-12-12 18:19:37.526823,Right,-67.42034666927066,-73.71070791195962,-71.08316087795538,-64.93905928131426,175.64473957841255,-64.95335777979926,-68.39262086145754,-64.47706393366389
2025-12-12 18:19:37.530893,Right,-49.2773654863995,-38.793245987806586,-36.903484584297985,-42.190102977023344,114.4708705420926,-39.55525758751901,-36.86389457562473,-31.871134016706492
2025-12-12 18:19:37.534894,Right,43.054596239177044,63.25338382605696,62.38426410846296,49.55267369723879,-186.4925132719145,53.20281424379209,61.808924611948896,64.35379835616914
2025-12-12 18:19:37.538917,Right,39.726470560301095,44.39948896128044,43.666638025359134,41.94593303653528,-164.7234522773142,41.614646326517686,44.171733773779124,44.77062029171793
2025-12-12 18:19:37.543922,Right,-45.67041065118974,-53.56350878148805,-51.3239029073593,-44.262865212294855,138.79461197330238,-47.78873368439963,-52.971650773935835,-51.20570585003588
2025-12-12 18:19:37.546931,Right,-47.91016694014252,-43.61807126725034,-40.46520875985152,-43.94320539274486,157.80081421754585,-45.25871810707031,-46.91083879178041,-44.17478786506399
2025-12-12 18:19:37.550929,Right,37.360568207644974,53.751754986311425,55.09985517934547,41.03458393314213,-138.70717185588728,42.460152497907984,47.12411528841767,48.06746044845204
2025-12-12 18:19:37.554946,Right,47.40852931168047,51.45149972572108,52.87064865003049,47.99472073161451,-190.26320643640793,47.21716960532649,47.27367655352282,46.910280320138554
2025-12-12 18:19:37.558978,Right,-38.76750248670578,-49.721528134658,-45.342756041383836,-37.82453443913255,102.95972448832617,-42.23098169690638,-50.53884803179244,-48.7477130019397
2025-12-12 18:19:37.562972,Right,-58.83657614263939,-60.75564718629175,-55.17698791513976,-54.15379969589412,192.01689191510377,-58.088480906779296,-63.60981454490684,-59.29855048855825
2025-12-12 18:19:37.566999,Right,27.980419150160742,40.18859363431693,43.441401228585164,32.553750729348394,-91.98841454417561,30.61523018609296,33.71607436527847,37.21676577508333
2025-12-12 18:19:37.572031,Right,62.03620460208913,64.18500418271287,65.93820422819408,61.417659081795136,-219.7826276682099,57.79061734578136,59.431392493934254,61.17361376827466
2025-12-12 18:19:37.575006,Right,-19.38728611177794,-35.90179570046894,-32.3707869930804,-22.613749495896627,46.27235036044294,-29.128790957925958,-36.10312116902787,-33.13013856014004
2025-12-12 18:19:37.579014,Right,-64.13465053028631,-75.80962542429916,-70.94297259071755,-63.89912774087861,207.23366881450784,-68.87270890837681,-75.46272290899651,-70.03598961376701
2025-12-12 18:19:37.583035,Right,11.235368217370706,17.176538346728194,20.38311030445766,14.865278198689339,-38.69927728636685,13.794526136873174,15.811866333759099,21.0149522137217
2025-12-12 18:19:37.587048,Right,65.07274106874684,67.93056063786207,70.09835072184069,67.74567072792706,-231.3531253711626,66.80027604824136,69.48392344434251,73.24805936930352
2025-12-12 18:19:37.591056,Right,-5.945134307614353,-21.207437302640756,-16.530197139778465,-4.22068351967755,-10.46617815783975,-7.505091386672575,-13.486946459313913,-8.401783695619088
2025-12-12 18:19:37.595083,Right,-75.00357047296711,-90.19170096629387,-83.05580928500422,-71.09165765380749,209.19967289830674,-72.82396077409794,-81.0877918444894,-73.16694049939542
2025-12-12 18:19:37.600020,Right,-22.337252474331763,-21.18918484272581,-15.423859185728361,-18.298214077731245,14.081254803957563,-15.31896048651106,-16.256539000554767,-8.371287907648366
2025-12-12 18:19:37.604087,Right,43.68118019974645,44.2336635780448,47.69949555666972,41.83690910509176,-233.79946569713502,45.70589416137955,46.64347274490137,52.142710124579025
2025-12-12 18:19:37.607095,Right,-6.066047684311343,-24.474779767660948,-20.044100162340328,-14.208665198610106,-74.61550832430294,-13.891339111731213,-21.173374053061707,-15.9655496400228
2025-12-12 18:19:37.611100,Right,-78.40813815619913,-100.4100861986226,-93.89058143972215,-87.17734997913067,188.74625489822938,-87.69607719941268,-98.71238424479088,-91.52768274566188
2025-12-12 18:19:37.615129,Right,-35.417648282025766,-39.86387868502061,-34.39849821649841,-42.67694131664757,58.86583595519187,-38.82571030474355,-43.03520143312926,-35.99941624445637
2025-12-12 18:19:37.619122,Right,43.635811219224706,44.38001352092397,47.3012981651118,34.242857517747325,-224.41887669573407,41.46132077189395,40.354940135810466,44.28664877740812
2025-12-12 18:19:37.623126,Right,8.68131119015743,-8.400082889471378,-5.05303924382315,-3.5893813773436705,-133.76470511225853,2.192699944222113,-7.2777374338693335,-5.019422086203122
2025-12-12 18:19:37.628159,Right,-79.84675260163203,-105.8178612255142,-100.10606385010033,-90.08074693683011,157.4610407942164,-86.19604398557567,-101.46900289887708,-97.65612672609132
2025-12-12 18:19:37.631167,Right,-61.19971463012189,-72.14541253875359,-66.56391869926665,-67.516262310608,99.47181065644327,-62.82761391115491,-70.85001270176872,-65.94946545831044
2025-12-12 18:19:37.634116,Right,28.13498508655175,26.430582509325177,29.93220677874706,20.696312678890536,-204.22999515678384,24.9750277712119,24.721233082622348,28.21079116679175
2025-12-12 18:19:37.639188,Right,23.96785366460972,7.072847226882004,10.866077003207465,12.078079960709147,-189.99844656337336,12.40610551359714,7.379884157457127,10.254369429589133
2025-12-12 18:19:37.643182,Right,-59.42298290562758,-88.65404057220803,-82.59201111931907,-71.71068627477143,111.2024773919602,-73.66549097841198,-86.50904227317005,-81.46385833231761
2025-12-12 18:19:37.647151,Right,-58.15757905463397,-74.71252439365708,-69.11664729495533,-66.91030724344091,132.15698934697866,-65.8458359608776,-76.01106291168617,-69.45461423863162
2025-12-12 18:19:37.651213,Right,32.39132690038605,29.054841908789967,31.215853024845273,24.12172823867877,-168.38030470670674,28.27412760604784,23.867670591378555,28.811485752506997
2025-12-12 18:19:37.655215,Right,47.216074246785865,32.109204697600944,32.811969131616934,35.40985056237332,-228.35516673079292,37.59377541369031,28.563133946532616,32.109289123014605
2025-12-12 18:19:37.658264,Right,-39.97947499973452,-70.94481038939921,-68.46111717140047,-52.90584429793671,64.89381964052518,-53.627966708645545,-70.94268149252093,-65.51216554516213
2025-12-12 18:19:37.662251,Right,-67.02976635616506,-89.78169968186921,-86.67621840039465,-76.85150227425765,162.66275038394906,-75.75575024486898,-90.15633132382573,-82.53024488711526
2025-12-12 18:19:37.667229,Right,13.45296132700605,6.087297740374197,7.033145943259115,5.363577899861411,-118.82971762174566,9.876237809985469,4.619300065698553,11.070061089831142
2025-12-12 18:19:37.671260,Right,45.55829460734094,31.107601773617716,31.2644529557665,35.984993268575636,-254.58915194801375,39.58252409484703,33.72542028179669,37.838020735531245
2025-12-12 18:19:37.675279,Right,-36.91436331033765,-67.46890285494374,-64.82762325628664,-45.838603066495125,7.072918673752611,-45.32709077117033,-58.989216111624046,-54.66041977448731
2025-12-12 18:19:37.679324,Right,-84.6315078847183,-109.41202673724729,-105.33892263872394,-89.25781863141856,174.96596109552684,-88.05990513580764,-100.74887140013197,-95.48821920428963
2025-12-12 18:19:37.682287,Right,-11.519476659079373,-19.233062878069177,-17.6344445017794,-14.75966311015145,-63.58037433012123,-10.598541429730176,-14.360758347556839,-11.192271530442667
2025-12-12 18:19:37.686444,Right,43.02860702561884,30.5334861973858,29.543634195584673,35.1886722580457,-256.652419389608,38.488094734759215,35.35922885599257,35.20134616869382
2025-12-12 18:19:37.690362,Right,-25.789890583659144,-58.50582657854193,-58.76563009426263,-37.53703237157333,-35.605222571316375,-38.06579723505547,-49.99633593807425,-50.40268768249189
2025-12-12 18:19:37.695279,Right,-91.98964665732638,-125.49411447765215,-124.79529445514163,-101.7610769959374,191.3230345055606,-102.56605817243235,-116.50264656631686,-115.12204170016048
2025-12-12 18:19:37.699341,Right,-34.79169203082165,-50.525613084484576,-52.206937976510744,-41.652711534345144,0.925858366495504,-38.759331643122096,-44.67483078749501,-43.90340795192071
2025-12-12 18:19:37.703349,Right,35.82212326494482,22.13638315323533,17.471561877746353,27.18827583182656,-252.81181332354754,31.712146242222843,28.041038565100735,25.98036110516091
2025-12-12 18:19:37.709412,Right,-14.267532035160912,-45.20887315835171,-49.54024059472431,-25.808698712091427,-99.63251928497584,-22.803273813835858,-35.25288672752595,-38.266940640043686
2025-12-12 18:19:37.712462,Right,-93.03131864519673,-127.3613058538267,-130.22858072285453,-103.39830506661173,169.91202859876557,-99.64192335281643,-116.58023715191484,-118.310720061354
2025-12-12 18:19:37.715333,Right,-54.78058782332482,-71.26197621632491,-75.63790070473624,-63.00564086401414,51.08755362592001,-55.44566796921663,-64.82895370531332,-66.82960854846897
2025-12-12 18:19:37.718342,Right,28.724555693688217,19.10026760527944,12.01225739543952,18.479078516132176,-230.48008330114135,26.809892285509477,23.108610360503008,18.69875140676959
2025-12-12 18:19:37.722424,Right,3.3531480310994084,-21.70871287411137,-28.28645795547709,-9.761077028492764,-143.93784929136655,-5.235161804937434,-14.957302732111202,-20.055404871372957
2025-12-12 18:19:37.727412,Right,-80.35624231062025,-112.250152471006,-116.27072444012083,-90.84880321795845,150.98201709473324,-88.30550844172558,-103.85975067021354,-106.91041941459298
2025-12-12 18:19:37.731464,Right,-64.54546516986306,-79.68665882590722,-83.73050709877498,-69.2862968489253,103.8934540490036,-64.08719845656196,-74.6317933566097,-76.86327046239967
2025-12-12 18:19:37.735520,Right,18.238396848754746,13.89764106677103,7.790653138101334,15.125811203726698,-192.9239559714988,21.713627747836654,16.31420396115209,11.992033780106794
2025-12-12 18:19:37.738522,Right,6.94026252014919,-11.572262491161382,-17.071892310734256,1.8621888200432295,-175.32096439680754,4.793178916215766,-6.781123286462389,-12.249217543445411
2025-12-12 18:19:37.742507,Right,-81.70251810510126,-112.11761754692998,-114.30139631365091,-85.8357426916009,135.45587625921326,-86.48802440578766,-105.37237402384562,-108.61802417616491
2025-12-12 18:19:37.746500,Right,-79.36110902312976,-96.65397418339126,-97.69764378462423,-79.76865717681721,169.16801588264389,-79.59739433770119,-93.56695362472237,-94.65488128321158
2025-12-12 18:19:37.750451,Right,19.973927277792427,16.74819485206899,13.730175964439695,19.79236881518409,-129.05324892616773,20.865204020619785,15.51499143959154,13.567327557855606
2025-12-12 18:19:37.754516,Right,45.19451023276633,31.365211170901603,27.879989290733647,41.79868142433588,-197.34145662649098,39.45871847871058,31.558995574978326,28.594262683993293
2025-12-12 18:19:37.759517,Right,-37.56084594146523,-65.79134278767742,-66.6047985018522,-40.710748103761944,91.8117123914617,-46.35318412976085,-61.87775235731169,-62.95868966044145
2025-12-12 18:19:37.763516,Right,-66.58505659826187,-84.91535724884307,-84.15574195614317,-65.209481212627,194.98198204451546,-68.26382336245115,-81.39794778189753,-80.47275241157331
2025-12-12 18:19:37.766525,Right,11.34986589512846,9.600180100547732,8.658167531546496,14.150387275683897,-83.07171569136335,16.462072613878263,11.13580698705482,10.542809072365344
2025-12-12 18:19:37.770549,Right,43.98277942824643,34.84299173783802,32.5949715218303,42.59071504421081,-223.67468901081338,46.42946445175767,38.628075988570345,35.35597696739569
2025-12-12 18:19:37.776562,Right,-37.48827867457476,-64.42368270041334,-65.3453832151572,-42.04320269810705,34.229462070134105,-39.83484082727409,-57.282335090123524,-60.095671928473166
2025-12-12 18:19:37.779561,Right,-87.14432499484246,-109.77378554650932,-110.27539758198691,-90.13143421691348,205.79654714490061,-87.93020060599156,-105.20523723652514,-105.78741484022248
2025-12-12 18:19:37.782572,Right,-17.062692836603674,-22.313409778740606,-25.708281166946108,-19.023677950950514,-30.591290010283046,-16.247166614281014,-23.683017746654514,-24.467862689438334
2025-12-12 18:19:37.787591,Right,37.93654075172526,29.954110740320175,24.084439994017885,32.93904785369887,-230.7741356922652,32.788225618351134,28.058722282883537,25.262389014322252
2025-12-12 18:19:37.791549,Right,-27.15797318614932,-52.845186071695935,-57.50586329457292,-34.011728754936485,-18.017417511620806,-38.04547048130553,-49.7455578932786,-52.59010628001124
2025-12-12 18:19:37.794604,Right,-90.93065608107645,-115.4106976133553,-118.3968729054468,-94.38422113816705,209.48884455580628,-97.18551316731828,-110.12402646434566,-111.5165516285706
2025-12-12 18:19:37.798629,Right,-33.2509224123678,-38.70020820979698,-43.35164295559662,-33.316734629686835,23.82400078178034,-31.379595406608132,-36.20258103591186,-38.42386757716304
2025-12-12 18:19:37.802621,Right,39.08822148524632,36.00736943801894,28.968482166201284,36.99820313526652,-229.39862486452148,39.698928830355726,37.23585055129661,32.212028208021366
2025-12-12 18:19:37.806624,Right,-8.590237558495573,-29.721901564895234,-35.67977181945025,-14.023392983555823,-75.50577484525093,-15.009615868402761,-26.074841183006356,-31.7003928385966
2025-12-12 18:19:37.810651,Right,-86.84957792892601,-112.68443137255963,-116.11395721794543,-91.27800469770591,201.17941389209227,-92.83996656582167,-108.59527969370538,-112.31995852366526
2025-12-12 18:19:37.815658,Right,-47.981594352630054,-57.078483675803,-61.08191344791703,-50.457540275820065,87.61126240197882,-47.17357863608049,-56.16091918409802,-59.72610166738741
2025-12-12 18:19:37.819685,Right,39.22284890513038,35.77085509950848,29.30370484248124,33.75346197125691,-200.49364970030183,40.35629384173444,36.02852995502326,30.072274871359696
2025-12-12 18:19:37.822715,Right,17.975249447896203,-2.9147343242148054,-9.247728331924009,7.600373960958677,-124.08187396982248,12.012646703187784,1.1481431722640991,-5.397642608135357
2025-12-12 18:19:37.826718,Right,-65.10849085081281,-95.33465111794794,-99.58233344079781,-75.63270444656882,171.0742286120476,-73.8415226504876,-89.89870928241726,-93.69931754823483
2025-12-12 18:19:37.830697,Right,-50.23477145837387,-65.64815924537106,-70.15648473630426,-57.98533277726165,130.156561480042,-55.30771384223772,-64.57550373746199,-66.50418042005185
2025-12-12 18:19:37.834662,Right,34.69911522548864,29.298551665058767,22.641494443370902,26.174476965970825,-169.7192726435169,29.26914480086998,27.337992360946373,24.047408038204594
2025-12-12 18:19:37.838741,Right,27.727978868271748,8.114558682202187,2.001833906113461,16.32638187341945,-164.4025337149651,16.08295361393175,9.73185005049163,5.444707963870314
2025-12-12 18:19:37.843733,Right,-61.17526609053675,-92.6092994961873,-95.37330225700134,-70.73562304878578,138.5738450274148,-73.8205391760639,-86.60568279143627,-88.71790810217499
2025-12-12 18:19:37.847695,Right,-66.68826372143303,-84.90315804630518,-86.32334635871666,-70.60335173109343,172.24171055034458,-72.27893418397798,-80.13832905573508,-79.93412006158906
2025-12-12 18:19:37.851762,Right,23.30755523755215,19.155966789352533,16.054488772053446,20.968038225786586,-128.1531643934868,20.80601959428168,20.856893607749953,20.365816499826906
2025-12-12 18:19:37.854713,Right,44.253969603945734,28.72253818468016,25.42070791412698,38.09437217642699,-202.56470312148303,35.38724260088202,31.45230430286756,29.535355152358534
2025-12-12 18:19:37.858774,Right,-38.71468799576178,-70.43183578514436,-70.8646844809482,-47.18013997980597,85.84207191202222,-52.01813549345388,-65.53710117916489,-66.77055276728788
2025-12-12 18:19:37.862786,Right,-66.59114930355281,-89.98065424787637,-88.64681548255612,-73.38446711510915,193.34723530277915,-74.37864974145486,-86.99969697098277,-87.79009949215833
2025-12-12 18:19:37.866807,Right,15.49249266831248,8.834262321113783,8.85048098196421,8.998210480451235,-87.60912770601863,13.98872236725947,9.366362568434852,5.848772457735322
2025-12-12 18:19:37.870823,Right,55.617213121968234,43.31138637971162,42.82080573774874,46.394204432945116,-239.59699581287714,52.54470024301918,47.2584466528715,40.574941728889826
2025-12-12 18:19:37.875777,Right,-21.25113335696369,-49.503881308977725,-47.393848808991606,-30.247975006474007,12.674022546620108,-25.921699872633326,-39.09828470853972,-45.397723046560714
2025-12-12 18:19:37.878784,Right,-74.54416312445028,-97.369822197943,-93.37772065132594,-78.1239732570466,189.32078996117707,-72.1866219810181,-85.04440985222755,-89.345821691335
2025-12-12 18:19:37.881841,Right,-12.171021635938814,-16.99997806448664,-14.76388168388803,-11.838890536950203,-43.81347093007207,-2.162838898046175,-6.533495327697892,-11.596915891153913
2025-12-12 18:19:37.886867,Right,38.45491777432471,30.78675282424956,31.11596939507581,36.815781475859694,-248.26143175933612,45.88183846240645,42.46882844421634,34.833123747768695
2025-12-12 18:19:37.890883,Right,-26.539718395004456,-53.437357363109186,-51.68629083968699,-30.771784131655295,-35.07813102725413,-25.891574372537434,-37.6481056227567,-45.64804903876211
2025-12-12 18:19:37.894887,Right,-87.66645527417859,-115.74395643937169,-112.13352187276905,-90.08745218232798,203.6288427599029,-85.9072751190215,-99.53369760538044,-106.3512578798618
2025-12-12 18:19:37.898897,Right,-24.712643561069854,-35.360678169447056,-33.03873673050839,-24.786526253614284,25.714317859983566,-16.82687768065807,-22.145950330952473,-30.177108183190285
2025-12-12 18:19:37.902912,Right,54.47094303915219,46.02985607765004,46.716973571317794,52.90762105119211,-234.4693921102189,63.05085686008533,60.59158475995355,49.56037329100218
2025-12-12 18:19:37.906915,Right,10.62818974746915,-15.366203166500782,-12.29424129166,7.963780434343789,-91.44060139952853,16.934740437747678,6.154494473863451,-5.0822693468944635
2025-12-12 18:19:37.909936,Right,-71.69824642549793,-101.87841816042055,-94.38228002670803,-70.09123051315692,184.9963054614127,-60.83248032227857,-75.84864244519122,-84.1153033990995
2025-12-12 18:19:37.914948,Right,-45.80716131522058,-58.52302100099769,-49.45872915718792,-38.986212842290115,78.49233347570771,-26.993889426463284,-33.94336123531684,-40.692792816356814
2025-12-12 18:19:37.918965,Right,24.765435463079484,18.622912093378545,26.9016496743061,30.85735543105693,-205.1286623829401,42.565604422161414,42.06389031751314,33.743496096540184
2025-12-12 18:19:37.922958,Right,-8.121110243526346,-31.298242975033645,-22.196997277751507,-6.357197796933178,-124.6311138993915,0.801407522012596,-5.2352314557138016,-14.566657756993663
2025-12-12 18:19:37.926930,Right,-92.75526770216675,-125.56017685662664,-114.63958757648652,-92.06799153487373,179.59961676317835,-87.18331215622311,-99.04089632212708,-107.08756254601758
2025-12-12 18:19:37.929941,Right,-70.04180583890411,-87.82940772124857,-78.07776748714241,-67.7790397990102,144.85100802531815,-59.90215905606601,-66.7117029521105,-74.43670869276684
2025-12-12 18:19:37.934016,Right,27.776713314851804,21.49968520335824,27.7634264206863,28.865845650754636,-161.63064863526597,38.808046940474014,37.63846870163252,27.632104961390723
2025-12-12 18:19:37.937984,Right,31.58505615220929,12.762719172133075,17.934191983367782,29.884108839301916,-166.85480183470645,36.659353697243205,29.757885812796303,18.46603835253336
2025-12-12 18:19:37.942013,Right,-54.890586531451845,-85.05616194583854,-78.29843111223454,-55.1924894261756,138.4497633999199,-51.484281240605924,-66.1390592939133,-75.35232030276529
2025-12-12 18:19:37.947014,Right,-66.0524417372726,-83.21916531677562,-76.90801241979352,-61.8724650330696,185.21008340224216,-56.00987613088364,-66.82507416512817,-74.03099006026605
2025-12-12 18:19:37.950977,Right,15.298919275715889,12.676172733939893,15.476646068273112,20.032591557675914,-108.02980053724241,28.932959594043496,26.13624700078799,17.767499314490124
2025-12-12 18:19:37.955064,Right,29.124657671032764,16.61926187187055,17.45716282196372,30.056104626477463,-184.5924995611531,37.274629945000925,32.17128774344019,22.331596563184576
2025-12-12 18:19:37.958012,Right,-56.8826725502513,-83.77097952324402,-81.55663884042588,-57.12699021673325,104.94468840554691,-53.06290712526243,-65.22305396602314,-73.50221322085417
2025-12-12 18:19:37.962078,Right,-82.8336282334567,-99.77645347629004,-97.06569531332207,-79.97476956956962,220.6617257299913,-74.93592962286493,-83.8665847207958,-90.1205087546914
2025-12-12 18:19:37.966075,Right,4.728750560447224,5.814635351423931,5.97026022864884,8.470406780375924,-56.42229227317148,16.09381938304432,16.666128238561214,9.195372508816945
2025-12-12 18:19:37.970095,Right,49.923774983028125,45.94001610457781,44.57167664424196,49.9870855572226,-213.3117191495803,56.23802976205479,56.71982060770097,46.99971056658251
2025-12-12 18:19:37.975110,Right,-25.142062952822016,-45.3366604956027,-44.46500151410146,-26.96022134143277,36.54425638896282,-23.98890080297133,-31.24252768545557,-40.002126373321516
2025-12-12 18:19:37.979116,Right,-77.02621259860462,-91.96457274415297,-88.96347366371629,-75.61110549926525,218.7833067581596,-72.0623775738859,-78.29308512894931,-84.34726405388938
2025-12-12 18:19:37.983120,Right,-8.808528433582978,-4.798541910924541,-3.3768346371944062,-5.073507208318915,-12.524392618564889,1.4024869821805623,5.357683779177023,-0.7816422011383111
2025-12-12 18:19:37.986155,Right,50.478587171914114,53.6025819811548,52.665647493704455,51.19727907956258,-227.2829921594348,56.854544259527756,63.776121673188754,55.293167392897885
2025-12-12 18:19:37.990153,Right,-11.186653651908273,-25.218701333033096,-25.608943345738226,-13.638042532824329,-25.72947365908476,-11.77452223108412,-11.84137349010416,-20.504453086789
2025-12-12 18:19:37.994197,Right,-79.89791819700622,-93.46332313193125,-92.67975421922893,-80.61634566960129,212.36547974278074,-79.12570004683948,-80.37470293268416,-86.68056828902627
2025-12-12 18:19:37.998176,Right,-31.605696601094678,-26.49745182402694,-27.27779506519437,-29.890282096494047,39.19075572386282,-25.253469427632808,-17.156211292662192,-22.259953943794244
2025-12-12 18:19:38.002145,Right,34.203330923235626,42.329671047540614,39.70982454204204,34.055471272498835,-222.02973590677357,38.80039767631388,51.8487923288194,46.29828609771357
2025-12-12 18:19:38.007187,Right,-18.153494037367636,-27.36356776618777,-28.229299075246672,-20.419081799307605,-82.3808792800337,-19.46904928965523,-12.458529864430602,-16.91958816537226
2025-12-12 18:19:38.011229,Right,-103.43001152868237,-116.70832601049187,-114.42328286980046,-102.5709369931792,196.72886796457897,-102.28964995043498,-98.68252694412513,-100.61253884300822
2025-12-12 18:19:38.014244,Right,-71.11431738446117,-66.01632785578113,-63.758276746935735,-65.81105535660026,92.74925239231379,-60.664616098649276,-50.27101835989015,-52.31345538463938
2025-12-12 18:19:38.018222,Right,15.47931184949266,28.775754111375136,28.983775488464744,19.758944628782046,-199.3841087432993,28.63137847215694,42.80003756273072,37.310477337479824
2025-12-12 18:19:38.022268,Right,-2.079137136010104,-4.451814849919174,-3.906499494842137,-1.7547542188258376,-132.15141142066204,5.629932359355735,11.5733954333773,3.7880823040832183
2025-12-12 18:19:38.026249,Right,-82.5947474133718,-93.94533752317511,-91.32977656207368,-82.14798714064818,168.91299682295357,-76.5849802345183,-77.8918009358531,-84.6851861594696
2025-12-12 18:19:38.030261,Right,-65.57349357493513,-61.79584160397644,-59.749640154528606,-62.382605076425534,139.7863765687871,-55.10866919015098,-51.04564412750915,-57.10785690233752
2025-12-12 18:19:38.035297,Right,24.44129867189622,39.17367394458415,38.34821708599338,26.116220256844827,-165.74361712401515,34.48143051705847,45.59809099446284,37.708716193905275
2025-12-12 18:19:38.040283,Right,21.006427497464756,21.78424683117919,20.423971366733895,17.75782850451651,-175.96519892374636,23.313992709940067,29.934838951634447,20.950036866743176
2025-12-12 18:19:38.044241,Right,-73.000786940931,-85.05523031293706,-84.36696639280126,-77.31162726831099,129.1297782871079,-73.591520041693,-74.46457886074859,-81.37348725626362
2025-12-12 18:19:38.047251,Right,-88.4928225749245,-87.84320756120724,-87.32959471322101,-89.4285465586072,180.62774735587664,-82.37858816011067,-79.97892083330589,-85.14166448778269
2025-12-12 18:19:38.050321,Right,-1.9845350551477168,14.199020336447575,11.304199999627599,-1.7020243327060598,-115.03996486333199,8.853631206824502,18.491750048295216,11.420632499386556
2025-12-12 18:19:38.054333,Right,25.151881813741056,32.34156490065652,27.50802083365852,23.285057457105722,-202.64725766392075,31.752800065354677,38.350702709209145,28.604546159578604
2025-12-12 18:19:38.058287,Right,-50.05727290451614,-57.56811677971564,-61.05079037874384,-51.508997653661936,81.10653051743793,-47.00839234877276,-48.42583503936112,-57.85115282971674
2025-12-12 18:19:38.063370,Right,-74.98976113350363,-73.71964463617041,-76.69669016997796,-72.415513234424,202.28920891097005,-67.49285527681786,-66.8686257649897,-74.94049866240675
2025-12-12 18:19:38.067387,Right,7.260932676377706,25.36180219234666,19.99230918622925,11.024506299407221,-68.52935370874184,18.1690782189944,27.511118926395284,18.530431523897278
2025-12-12 18:19:38.070384,Right,47.728057564861956,59.65656917780143,52.95146783835662,47.94285504490108,-224.53229428470877,52.90983092732131,62.063858828070806,51.96499464682711
2025-12-12 18:19:38.074393,Right,-28.577821018741815,-34.01568403170313,-38.52850102975208,-30.05261208498996,28.975581890774265,-29.44921684806104,-28.27262736494231,-36.13317818206997
2025-12-12 18:19:38.078339,Right,-79.34631739983524,-80.49025738242563,-83.0443527749594,-77.48349089165276,221.98185535133052,-76.46911989579166,-75.79968908447336,-80.01230508134904
2025-12-12 18:19:38.082397,Right,-9.920301642905542,7.375903658594325,3.508279421570478,-5.746845907549869,-1.2965438138799072,-0.41369184467112063,7.54826206765938,4.1930512774779345
2025-12-12 18:19:38.086421,Right,48.71376188376598,64.64977082992482,59.55519886602633,50.0608277762185,-217.36400858177512,56.61946293740766,64.40523932572978,60.33298558323804
2025-12-12 18:19:38.090488,Right,-16.556714128655585,-18.796355104081158,-21.577265989817533,-17.846548919518682,-17.379221483221045,-13.776082142390806,-15.170830252198357,-17.289048795653798
2025-12-12 18:19:38.095500,Right,-88.59994662845929,-91.50092119594046,-91.50315851826599,-87.6213383821887,226.33388171618026,-83.84278850833289,-87.1375069994283,-85.64421775065057
2025-12-12 18:19:38.098439,Right,-35.307211679188185,-19.732101909674384,-20.678762154177093,-31.918867249729374,56.142392187157384,-25.585681712695077,-19.1288156479568,-17.36588372692131
2025-12-12 18:19:38.102498,Right,46.69768823979393,65.98626906973368,62.542511393399764,47.270992846675654,-214.57098780742854,53.19962393998139,64.9596624074693,63.52303771521838
2025-12-12 18:19:38.106490,Right,12.335997614649386,14.59605682210531,11.412680788853322,8.92528750477868,-86.62385701787025,10.61649864368519,15.612892983474012,12.608275928916555
2025-12-12 18:19:38.112549,Right,-64.72903879153455,-67.35320187173784,-68.99703061135006,-67.43301594968943,193.6310540194736,-67.56730489110123,-67.46268507171408,-68.88062412855652
2025-12-12 18:19:38.115516,Right,-34.827773423672625,-20.203424496896332,-23.211643299749994,-35.33338194035241,98.90327111251281,-32.91480316685556,-26.929840562472236,-27.682098878340184
2025-12-12 18:19:38.118450,Right,46.020017849743454,68.465030342104,62.44180260636858,43.28960987377286,-190.44576185434562,46.54541379719376,56.89809038120802,54.217000658009056
2025-12-12 18:19:38.123524,Right,24.4741367254137,31.525607616989873,25.289532255017548,17.967406860956544,-125.86204635393551,17.277062915927672,21.159714384848485,17.596079079456103
2025-12-12 18:19:38.126539,Right,-57.073800962061796,-58.69607520819409,-63.15753805211716,-62.358094198294566,178.67166554072355,-66.24660577450413,-67.69443513185252,-69.43338904617849
2025-12-12 18:19:38.130549,Right,-36.78020198711965,-23.078019428430707,-28.468865823888336,-37.93870451463954,157.16244673632355,-40.37589483176271,-35.14879514954373,-36.01327418998699
2025-12-12 18:19:38.134558,Right,60.650897314924805,85.29034378133838,76.5409379717712,59.29885541767726,-148.95706315651478,58.38127461219483,70.87144826035546,67.93888448307189
2025-12-12 18:19:38.138582,Right,63.82587538877124,73.82430659463535,64.25925498629113,58.67325958357105,-166.5875288866264,55.599429592384695,62.59742990609266,58.27115790159951
2025-12-12 18:19:38.142527,Right,-29.148109164485504,-33.29391802790087,-40.449969269775465,-34.62586760189879,138.20715282852507,-38.89673226750892,-40.80883693762371,-43.29053274813123
2025-12-12 18:19:38.146579,Right,-47.80580600024405,-40.34856883578868,-46.59574895010883,-49.90826889843447,198.10055020898108,-50.29177709108262,-49.45609870237604,-50.193528101535776
2025-12-12 18:19:38.151604,Right,34.52981091643596,57.06042837300993,48.77199608929368,32.65458843712622,-93.43737125056577,36.27371801010304,45.12557011989702,42.86020593813373
2025-12-12 18:19:38.154620,Right,55.695077660289826,68.73430257400742,59.68291372945896,50.059119163270225,-184.72063991289724,51.903478671083576,58.98633343088477,54.84692665797775
2025-12-12 18:19:38.157608,Right,-28.409608104611834,-31.136550047890523,-37.795760439713376,-34.75795128235404,98.91071264545826,-37.129858123342274,-37.01564153578147,-39.492026102921955
2025-12-12 18:19:38.162636,Right,-61.348122299445095,-56.11138619472331,-61.02828189849333,-63.312990474332764,227.36184164131555,-65.98663189158106,-62.99083876719487,-62.37830488230793
2025-12-12 18:19:38.166637,Right,19.633198048151826,42.12734892136086,36.14068262804085,20.46759373185705,-41.155527508724845,19.952704363851808,32.193181103162715,33.0868221203782
2025-12-12 18:19:38.170654,Right,65.28951076556223,82.69298108845396,76.2820952902025,64.15103696314509,-206.92640588539507,63.105094977729095,74.77035947234981,74.23069183902408
2025-12-12 18:19:38.174609,Right,-6.88501476705278,-6.470720327396748,-10.387946826315329,-9.00481763245989,35.79234831575741,-11.710545304269544,-9.303247312897838,-9.243057551149832
2025-12-12 18:19:38.178672,Right,-58.80071062395109,-54.46584407813907,-56.53592671165734,-57.47113469334727,226.66505235558543,-57.90450696331027,-56.88052131605218,-55.166521678096615
2025-12-12 18:19:38.182680,Right,9.410529446380679,32.08089876644053,28.282045135641567,12.927577242899133,1.9852593559407978,16.83542377699996,25.774827406104123,26.551570675949733
2025-12-12 18:19:38.185698,Right,72.29081092896013,93.97359796479418,88.20277959298267,72.37108552896643,-223.29612931126212,76.54429295634327,86.61395940343209,85.01602382600413
2025-12-12 18:19:38.190717,Right,13.81509809353156,17.491289824692558,13.139875262199439,10.082122427906143,-31.550763917333825,11.213514340597612,12.226254383414016,11.085822428697611
2025-12-12 18:19:38.194724,Right,-55.272894517043824,-52.37265729873161,-54.621686942246924,-57.607633658673876,216.055142722058,-56.61532802737747,-59.03505162406236,-57.456056758673185
2025-12-12 18:19:38.199724,Right,-4.612599307396522,16.87533785616597,13.497686494686604,-3.9770759379734955,55.61671749788911,-0.4978713478831196,5.217755029324053,7.314316147284444
2025-12-12 18:19:38.203744,Right,71.70367788547446,97.02103797705149,91.47967262712154,71.59024476122158,-211.6038733457026,73.41171829077211,84.32556392852257,84.76737289815719
2025-12-12 18:19:38.206747,Right,31.764118324930678,39.55222267510544,34.849356573759906,30.245807113293267,-84.31696337253197,25.56492886172782,30.87200279780882,32.07749467221629
2025-12-12 18:19:38.209754,Right,-47.57484551785092,-45.332575409997844,-48.09569073247167,-46.10071775346296,199.45164933188425,-54.71687646002829,-53.17568473117922,-48.31930852288724
2025-12-12 18:19:38.213729,Right,-15.051748363831393,4.624633882651324,0.48566152518651506,-9.466101404257643,108.70767713422174,-16.457378999997673,-8.57395360040573,-2.1973282280163176
2025-12-12 18:19:38.217780,Right,69.79502942635372,97.9945383933973,90.6133800699372,74.68042225843874,-184.63902559938288,69.00478684267728,80.96717762011929,84.95715647394402
2025-12-12 18:19:38.222809,Right,46.668721144585106,59.22008910624936,51.783641279247604,48.74917295444175,-126.6921970500407,40.52563345527233,44.722984605211806,46.851357739632476
2025-12-12 18:19:38.226805,Right,-45.09082570666578,-42.729364930573865,-47.29608050803108,-41.162480392554244,181.16536157971132,-51.20413375599583,-54.44706767486991,-51.02054717961278
2025-12-12 18:19:38.230824,Right,-37.565414700320616,-20.893269375676027,-24.49969364062781,-28.744994709904404,171.07991328503704,-36.907562241602136,-35.08607640819582,-30.503341401499256
2025-12-12 18:19:38.234763,Right,55.86758389316037,84.6044776477629,79.52009170254678,65.39755936984284,-130.18360535613283,57.85424759229045,67.28224469117504,70.55210778796891
2025-12-12 18:19:38.237805,Right,68.35815702942273,84.86450806777793,80.18974974117737,74.44869988463239,-154.02321801128346,62.68729737452486,68.94792741683295,71.6004274140787
2025-12-12 18:19:38.241844,Right,-10.211301106419796,-6.4739009382628865,-8.105037543828075,-5.043543850238933,143.99265234529958,-20.800497048851867,-20.559284147370363,-15.556558818771009
2025-12-12 18:19:38.245868,Right,-20.329458715109467,-5.526983786561686,-5.733679577577277,-12.804472119069601,201.96856590918105,-27.293099014376367,-22.34396461096003,-15.515079566664099
2025-12-12 18:19:38.250871,Right,62.79171063985223,91.22371093027868,89.59401893866743,69.82479543641898,-93.75465063992124,58.26941869076336,71.54666519707234,76.72174063235707
2025-12-12 18:19:38.254906,Right,81.40458707743255,99.03582863447627,97.11280687892577,84.25050074536739,-194.07960689371794,72.25291342695436,82.3485106836988,85.78578689122423
2025-12-12 18:19:38.258893,Right,-6.291631370711684,-5.286503169882053,-4.8908923671951925,-4.713434479222087,84.58349509155232,-17.600744820975706,-17.086634149583915,-11.572377859436529
2025-12-12 18:19:38.261918,Right,-43.318588335846016,-34.516266716218524,-33.12936461080608,-38.16791470946964,215.4047079721513,-47.47042771396309,-46.5883790601838,-37.83771302868081
2025-12-12 18:19:38.265857,Right,34.85221440857481,61.50630336502945,60.67993632410435,41.992561849883714,-53.33435491151977,37.581832805813974,46.68320441309697,55.242111664010736
2025-12-12 18:19:38.269924,Right,78.85352525095948,100.94611075875582,98.69630833483097,83.34706292489409,-226.7513328801342,78.93711410772903,88.16729488826877,94.44477237081264
2025-12-12 18:19:38.273926,Right,2.847357640950065,7.3930038370453985,7.149515063352737,5.566232770490387,11.421773725969615,-1.8385038103665465,-0.5429446625757919,5.677076240648603
2025-12-12 18:19:38.278948,Right,-55.891658271517144,-48.796039447373914,-47.309167405212065,-50.78449244536023,208.80991809877742,-57.746858782511936,-57.17899057964405,-49.401992478588
2025-12-12 18:19:38.282951,Right,7.25345317991264,31.70057531203929,31.148655128061364,13.596358380717902,-6.7659041787846945,9.695341207591014,17.940778282531028,24.938577641774827
2025-12-12 18:19:38.286919,Right,71.1986174472006,94.28956462182032,90.87960053421921,73.74661784509772,-230.35015514460247,69.26222570556928,78.2572190032206,82.53314290967137
2025-12-12 18:19:38.289932,Right,17.25354262999508,21.49401171206773,18.376089327211957,16.19001862039204,-39.971705867208584,7.83693095669463,7.813967541621423,11.468826284475654
2025-12-12 18:19:38.293986,Right,-50.53044235133598,-49.02024403749601,-50.75511842989363,-50.02894710026521,210.95971192332945,-58.77858375602227,-62.06027696480214,-56.89358324553723
2025-12-12 18:19:38.298038,Right,-3.476443450035731,14.406208213466016,11.33310838799298,-0.5569368734522868,54.28760441445593,-5.393130399763322,-0.9806447859227774,3.7792138244985836
2025-12-12 18:19:38.302016,Right,69.14649510580375,89.43499587775295,84.10439815940481,69.85412575077589,-215.97671074366554,66.67856584455285,74.78876825437874,76.85214735649424
2025-12-12 18:19:38.306009,Right,28.42327420257925,30.451443804784503,25.892577330225322,25.94686358989202,-93.219048417679,20.26007233954806,20.73316338377117,22.084444633550447
2025-12-12 18:19:38.311076,Right,-51.29928036789579,-55.3758376031692,-57.69182940114115,-51.96870110706732,193.84474524622055,-58.536775672781914,-62.994163516117624,-59.33220686133063
2025-12-12 18:19:38.315053,Right,-19.37121578184042,-6.190554217839235,-9.137602900384081,-16.269662683158458,109.15266381004949,-19.805319634866464,-17.163396939095037,-12.438531160772982
2025-12-12 18:19:38.317992,Right,68.12030368979913,90.29528980308896,84.77033347190445,70.32955769720684,-187.90260313000545,68.32155173486353,77.2839450603824,79.9743469693858
2025-12-12 18:19:38.322082,Right,49.52513954286678,56.56099173408438,50.927968702038925,48.01090199810096,-141.56623454523287,43.57221613822139,46.93240081845761,48.172656236200055
2025-12-12 18:19:38.326069,Right,-42.2204033068665,-45.458401762825815,-49.16256694445474,-43.656508619345914,159.74142275079248,-48.83125132417763,-51.923422278090584,-49.523214629087306
2025-12-12 18:19:38.330137,Right,-40.60834254910151,-30.066995855908317,-34.26005067627921,-39.032551820391745,149.8153807148974,-40.00339063580304,-38.13905135771711,-35.272275095519944
2025-12-12 18:19:38.334109,Right,45.321980147768045,67.01073913211803,59.91844820271581,46.47381546725592,-153.87886452709063,48.96425617667364,57.531875734668574,58.26349190086148
2025-12-12 18:19:38.338120,Right,51.494149590555935,59.317532032582676,51.52139206739594,49.22315671733668,-182.344158335467,49.84079742540962,53.3861029104919,52.9385628863929
2025-12-12 18:19:38.343148,Right,-32.35190607085224,-39.11156829018364,-44.75921737617682,-34.34709300180111,119.01359905406025,-36.349196993327496,-41.42041319230884,-39.58697192510226
2025-12-12 18:19:38.346124,Right,-46.04524567734734,-42.1078719302277,-47.28304380429108,-43.48296896276952,187.71603877948837,-43.935085234019425,-46.25820903303975,-42.105751595216134
2025-12-12 18:19:38.350145,Right,36.92451500414518,56.30068748155827,48.64526765923438,41.818965732034485,-102.33872362090551,43.08241807898412,49.32296724741718,52.55290365449764
2025-12-12 18:19:38.354102,Right,57.83567070377194,68.91515694336704,60.19341544907002,61.35995368671138,-204.36981228978766,59.31898454917973,64.64004627208851,66.43524376012283
2025-12-12 18:19:38.358162,Right,-28.135577935641777,-32.48041265676511,-39.020789893111214,-23.914396713831593,77.34222646244234,-30.167271414270544,-32.16141202428844,-28.833227403854835
2025-12-12 18:19:38.362184,Right,-63.34390446919679,-60.30026818915212,-65.63222038657841,-55.20714731812404,219.92216629034738,-59.80495073783186,-61.01095542243638,-55.551431803538435
2025-12-12 18:19:38.366210,Right,20.488544454663497,40.09419322571193,32.48119432661042,28.96021697139804,-40.63866481212062,29.24380786088659,34.6430310769083,39.060922272088646
2025-12-12 18:19:38.371222,Right,73.62577358650015,86.65417151838847,77.01569320597628,76.20277483765858,-216.1553608334325,77.06363943795259,80.04927097412292,82.2726205294166
2025-12-12 18:19:38.374219,Right,5.2352368132469564,-1.869302194671036,-10.408006384794135,2.583489469381675,19.74052768065667,0.014335405456222361,-6.8418889731929085,-3.7493136380689975
2025-12-12 18:19:38.377236,Right,-49.61591127501106,-56.178388794705825,-63.922279456761316,-51.978350924930055,221.4235485447516,-55.78900352509663,-63.39107288483501,-57.694988948067476
2025-12-12 18:19:38.382198,Right,15.781760678641149,26.08674259581312,15.530094978115812,14.403291928545514,7.007314507192859,11.863963734615027,13.576098672308945,19.201265510495432
2025-12-12 18:19:38.386238,Right,80.54719371605916,89.90950947882084,76.02221864595776,76.2067465428645,-225.6653643352547,72.37699364837044,76.27782376807409,79.61977575245328
2025-12-12 18:19:38.390247,Right,23.840148133325783,14.56470453941074,0.7742086536236457,16.79388198219749,-43.83720458746575,9.457525518320836,4.125058668918427,7.060726633651939
2025-12-12 18:19:38.394284,Right,-48.911378081880684,-60.79342456447557,-73.24218704483792,-53.774407334636635,209.90157857939812,-61.142035341256815,-71.01947827184813,-66.634239527717
2025-12-12 18:19:38.399226,Right,-4.221294443046645,1.0498681780627521,-12.618520564043138,-6.126400030163495,59.47580616389314,-10.12272432014288,-12.942126369296602,-9.02769904427987
2025-12-12 18:19:38.402238,Right,70.07295777126456,79.0250085312,63.54805979392404,66.70432309295575,-213.2957629737266,62.90167132476472,64.70847118164966,66.28710222148584
2025-12-12 18:19:38.406251,Right,30.840489861158858,22.34191950575405,8.511198602252989,25.308330800236945,-97.11450778696963,17.426391934644926,13.343997102429057,14.888345367355214
2025-12-12 18:19:38.410309,Right,-51.527897669002414,-66.25544753144277,-76.75483093210642,-54.223666321342535,191.03999481906794,-63.41608795413413,-71.52827991886807,-67.25177797090873
2025-12-12 18:19:38.414437,Right,-24.614055406982516,-22.766912985029194,-32.93847381318483,-22.855213122460555,112.55553383280312,-27.67427471432711,-29.54006933130404,-24.24581303271043
2025-12-12 18:19:38.418360,Right,61.06882307734122,71.06516992473917,59.06306296656112,62.236245719370345,-184.19281493544622,61.11697568398631,63.69459355033905,66.8662089725949
2025-12-12 18:19:38.422397,Right,47.117150291032885,41.028055406084604,29.699744736470166,44.8022331981756,-142.68047399176612,42.332840086735814,37.85254178304422,40.044507768736366
2025-12-12 18:19:38.427363,Right,-35.43505628230196,-52.52248716453323,-60.83654144946195,-37.291064374116104,157.87789230984708,-41.486038157083385,-52.61722755813207,-47.94454157447035
2025-12-12 18:19:38.430365,Right,-24.565762500955316,-27.650957196961826,-35.096270452260796,-23.16597728679517,149.73537906800084,-25.145589668663888,-30.437283835186463,-23.54527007586148
2025-12-12 18:19:38.433379,Right,66.43639243287544,75.92753493741111,66.8346845640408,67.15289380985632,-159.4129691419639,67.58595410104135,70.15640221993635,76.05622733153359
2025-12-12 18:19:38.439405,Right,69.51686347952636,66.93370750393296,57.90600725352124,66.06366622920359,-198.31020391783932,65.3159646346885,63.57325795581164,68.16868274838998
2025-12-12 18:19:38.442401,Right,-26.323339993705304,-42.52244201547364,-49.06942744652042,-30.504538548193523,100.98537707673859,-32.08132447645221,-42.38326283315655,-36.429708355011826
2025-12-12 18:19:38.446468,Right,-52.87530837956001,-58.50579948493396,-64.29715781354025,-53.66822018831226,177.13897887114217,-51.5542475401453,-59.637588264100486,-52.22174568883929
2025-12-12 18:19:38.450469,Right,27.535743476946664,36.64476330831894,28.904305050913536,27.736091068405585,-110.49707583341115,33.89490207054769,33.24268258971824,39.125588409508055
2025-12-12 18:19:38.454434,Right,56.18387461784732,55.99031844502315,47.9867220496817,53.597042087769296,-220.63162645814555,58.60832173526978,55.60496984993006,59.29711032157138
2025-12-12 18:19:38.457431,Right,-23.278382124208292,-40.25148380963583,-45.170424404830555,-26.481164071961757,55.208179381467744,-24.789336381143585,-35.74731605492525,-31.631009947781422
2025-12-12 18:19:38.461467,Right,-60.88152446346612,-71.61525970395087,-74.58394320801744,-61.01151459022367,202.64783280133088,-58.8338223571609,-67.66704875015785,-62.74804283125195
2025-12-12 18:19:38.465413,Right,16.03424307776004,22.10018144867354,17.27793990414648,16.552737627769602,-51.460883012859995,21.076659177620968,22.14099287668978,24.626379431643727
2025-12-12 18:19:38.470496,Right,65.73313904421957,67.2500699651755,60.70955121062434,62.24343376275283,-227.7566183865456,65.19697937279852,67.46563014273124,66.45418125201832
2025-12-12 18:19:38.474494,Right,-1.2329150939967803,-17.203466650091286,-21.990953959284525,-7.1810403831150325,6.5724630007471205,-8.080726762400445,-13.813592693893952,-14.928028346239444
2025-12-12 18:19:38.478450,Right,-53.51620861161609,-67.04679678791945,-69.67320375154668,-56.8772848069857,213.50563177816002,-57.70693611027673,-64.73824959520971,-63.73068259278807
2025-12-12 18:19:38.482518,Right,13.804801178943308,18.236752322241955,14.915992816226208,12.561872257334471,5.0532768642242445,14.903425653372324,15.777237746387982,16.699185391880746
2025-12-12 18:19:38.486531,Right,79.80463111838799,84.2087195535787,80.16250146234961,76.07664320689037,-228.14636414699453,78.26848251558658,81.02099335852108,80.07451611977376
2025-12-12 18:19:38.489542,Right,21.339514301360396,8.021388253124314,6.718228440542589,15.692132644346202,-46.39171623242328,14.223329565593303,8.96863722738999,8.463361552087008
2025-12-12 18:19:38.493555,Right,-56.799363374670065,-71.7064029580688,-69.42144500940776,-58.80754933277058,215.9411601327838,-61.265569383953334,-69.14092320025156,-67.17607666681215
2025-12-12 18:19:38.498560,Right,-14.973728324079275,-11.258966203618911,-8.614595110579103,-12.439125330374736,74.54891621231582,-12.48468141812009,-11.528194554746733,-9.440839310256706
2025-12-12 18:19:38.502594,Right,63.89136111956577,72.78731954047907,74.53534784803924,65.73323328363949,-200.64634931256023,65.21550474594551,71.868018470268,71.48510352629819
2025-12-12 18:19:38.506531,Right,31.219846283951483,23.03691264252484,26.97835046684486,30.24854977592804,-92.27472228095667,25.002200717244705,25.964425657604806,25.184458991210704
2025-12-12 18:19:38.509570,Right,-49.734626645800745,-64.81692146553905,-56.930380942598276,-49.61204485308008,196.4370505514471,-57.111026033528105,-60.15709395333215,-58.09856550372206
2025-12-12 18:19:38.513579,Right,-24.256730868810337,-22.719272544618434,-13.566343335776764,-21.269809750034256,124.22317664743605,-25.6059444757484,-21.596027249790495,-17.835446472498006
2025-12-12 18:19:38.517615,Right,61.84466605501984,73.38245276478483,81.97545800837543,64.08148152987451,-173.03923827456038,62.371933385235025,72.23057253010666,74.7773685691136
