timestamp,label,FC3,C3,CP3,Cz,FCz,FC4,C4,CP4
2025-12-12 20:47:59.025057,Right,2130.976339639395,2323.481179223425,2360.0543305453225,2214.388902798113,1819.4113481237466,1837.3160907451288,2166.2720884575856,2475.2781437483404
2025-12-12 20:47:59.042133,Right,11476.761040732537,12511.587506345775,12707.508337152609,11924.094103324744,9798.759018864494,9893.50625886274,11664.721018365219,13329.503610774682
2025-12-12 20:47:59.045121,Right,26299.096462100282,28662.67681954943,29107.546976432528,27316.6366195055,22449.460777488865,22665.10333036604,26722.00208221618,30538.33179447125
2025-12-12 20:47:59.049116,Right,32901.75447054009,35838.892016554586,36385.16036804779,34155.705097794904,28060.50734896044,28342.53871571056,33412.73208839113,38188.034431044995
2025-12-12 20:47:59.053144,Right,22338.83734134319,24293.469072472813,24643.895073090855,23153.12319730722,18980.162201390114,19221.770762342312,22652.609170809264,25890.893077717046
2025-12-12 20:47:59.056154,Right,2689.201664069202,2848.4815309643745,2850.681209751434,2717.5212465782242,2136.9023192223976,2275.4149174203194,2664.6024512737786,3042.1165754428075
2025-12-12 20:47:59.060102,Right,-12111.876592875109,-13294.964913528733,-13551.438983982312,-12664.95741074084,-10511.1870710683,-10486.218811058963,-12385.563314841304,-14159.835167262703
2025-12-12 20:47:59.064192,Right,-15869.738632343826,-17384.209434439952,-17703.51049609098,-16561.07659781055,-13669.941660305602,-13726.516622257594,-16202.795977093221,-18515.569820876874
2025-12-12 20:47:59.068209,Right,-11360.411735822388,-12453.040859181783,-12688.611212291056,-11862.438148601854,-9776.146091094473,-9834.642854913545,-11608.065752889204,-13259.895216006029
2025-12-12 20:47:59.073182,Right,-4874.197181507945,-5369.604552053264,-5487.348855872173,-5112.613401612616,-4241.268147328345,-4233.243195620074,-5001.446400547167,-5715.933495166362
2025-12-12 20:47:59.077165,Right,-1327.7720535635017,-1500.4039212188218,-1555.232773692347,-1425.0607282225974,-1225.2659955777926,-1170.7071658506175,-1392.1680440952769,-1599.219189972966
2025-12-12 20:47:59.081225,Right,-2068.315572509542,-2310.3094501233427,-2379.4214230293874,-2196.9914990017423,-1840.4393746472197,-1812.8439821796492,-2149.6836426375667,-2463.5637178312754
2025-12-12 20:47:59.084231,Right,-5031.019106163061,-5539.43920479191,-5659.467193403747,-5275.188745584572,-4350.618808151223,-4369.557132049114,-5161.985112000373,-5901.054990844452
2025-12-12 20:47:59.088243,Right,-6920.0868962340755,-7592.033632100327,-7741.132623177371,-7231.398390177055,-5972.265123623889,-5991.155378950061,-7072.753105959506,-8086.661290587974
2025-12-12 20:47:59.092257,Right,-6151.988229392213,-6746.580243126722,-6878.912227564491,-6424.441640001838,-5324.084894488449,-5319.78691816295,-6281.8545119309565,-7187.2315465477295
2025-12-12 20:47:59.096250,Right,-4031.1755278421333,-4428.815384818474,-4522.971883986262,-4215.091802896466,-3487.6834134790115,-3490.169905296294,-4123.466028768453,-4716.9728030852275
2025-12-12 20:47:59.101303,Right,-2941.6366793456255,-3236.382392842439,-3309.788370963186,-3080.540029431926,-2530.5744664102094,-2553.8620537089882,-3015.7332327963086,-3443.488850164693
2025-12-12 20:47:59.105298,Right,-3610.9570757289184,-3961.421805877937,-4042.3668978287606,-3774.208450707956,-3114.545249438961,-3129.2394816079177,-3692.1381583829643,-4216.64890195569
2025-12-12 20:47:59.109390,Right,-4598.551883553271,-5035.025247192709,-5128.5670792758465,-4798.660233767587,-3980.7083859549602,-3976.462087309803,-4692.670319619356,-5365.264268615982
2025-12-12 20:47:59.112366,Right,-4378.952310302411,-4793.770520858932,-4879.5130299037555,-4568.861708810786,-3777.017058692989,-3787.1790038733743,-4470.735490243998,-5109.6568949871
2025-12-12 20:47:59.116346,Right,-3225.2686599680455,-3532.005300560966,-3592.2166964176577,-3366.872026163037,-2756.6748727611266,-2793.401397397858,-3297.487491966225,-3761.0127144339494
2025-12-12 20:47:59.120305,Right,-2599.94171616144,-2843.6351325216237,-2885.366104913526,-2711.7397464835085,-2222.586229810724,-2248.6148004087154,-2654.3767633112147,-3025.160957323853
2025-12-12 20:47:59.124364,Right,-3101.504315666971,-3385.3595791627886,-3429.611703105853,-3228.371821963694,-2675.707560759969,-2673.439751331811,-3157.5556221827865,-3606.584081857698
2025-12-12 20:47:59.128380,Right,-3748.5888088473585,-4089.1494394427864,-4142.536493097432,-3899.2077949360246,-3222.983017854276,-3232.1677076956257,-3817.373533225036,-4361.141972190235
2025-12-12 20:47:59.133344,Right,-3416.8484547870466,-3725.4814889903646,-3772.67590926087,-3553.2645243947627,-2905.8990097148344,-2952.630144393421,-3483.7978009183425,-3972.369867547648
2025-12-12 20:47:59.137319,Right,-2375.118515412556,-2584.796878692927,-2611.861800759216,-2466.375878860359,-2008.6165663887514,-2053.6162209387403,-2418.699215653236,-2752.897693752311
2025-12-12 20:47:59.140340,Right,-1864.5744626426604,-2023.328834506101,-2038.8053663868923,-1929.5446480211103,-1597.309200766962,-1603.1924237393541,-1886.968176325434,-2152.968761381693
2025-12-12 20:47:59.144393,Right,-2375.8952746724244,-2578.808506473317,-2602.1786950370297,-2456.362014602637,-2037.4020807471825,-2035.9050064550247,-2399.274104462238,-2743.452399192378
2025-12-12 20:47:59.148411,Right,-3001.5684412178816,-3258.8001664184267,-3292.835419370793,-3103.871360711986,-2539.024265715503,-2574.5756802456453,-3033.885917045176,-3463.5275812880136
2025-12-12 20:47:59.152446,Right,-2709.164103279938,-2934.3761241477914,-2961.5212080690544,-2796.4235412270064,-2270.6566995247267,-2321.435536604724,-2732.420809443691,-3114.230653372826
2025-12-12 20:47:59.156424,Right,-1749.1316978615941,-1881.5832357604522,-1889.5240992050385,-1794.2792769895168,-1468.672502016183,-1488.583085446502,-1749.1862354582408,-1994.793489103904
2025-12-12 20:47:59.160442,Right,-1271.8995064580813,-1359.256165518309,-1358.2056991785066,-1295.5951531095197,-1071.5984043114586,-1075.1641953897197,-1262.2303424275015,-1442.98078423657
2025-12-12 20:47:59.165456,Right,-1729.8005448561162,-1858.8968098680489,-1866.1387488329783,-1770.407175008906,-1439.7381013977574,-1474.2404127338668,-1731.476981983753,-1975.8205231158063
2025-12-12 20:47:59.168451,Right,-2293.125210341881,-2471.1798938384745,-2486.7711816545343,-2353.9377586604096,-1903.834805642371,-1962.0908094815677,-2304.1608586892253,-2626.260689348448
2025-12-12 20:47:59.172459,Right,-2040.6451249452075,-2192.1243418387603,-2200.617378077586,-2089.26450786693,-1705.5101570552215,-1739.9952572251204,-2042.6151856285287,-2331.3951416553464
2025-12-12 20:47:59.176471,Right,-1211.8793274223572,-1287.00412598392,-1280.1865220650798,-1228.6956457990455,-1013.1499204894062,-1022.5110788738821,-1199.8239297516411,-1373.381751982728
2025-12-12 20:47:59.180420,Right,-805.9483714360977,-845.3940933530685,-832.3296927770134,-810.7947259303182,-648.9494153324049,-676.8263876703568,-793.9153921989491,-906.6896162990015
2025-12-12 20:47:59.184491,Right,-1180.0337308989838,-1253.271352241747,-1245.8310472579906,-1202.651297788485,-951.1020266751293,-1003.5626514054602,-1178.2630131095648,-1341.8842875534901
2025-12-12 20:47:59.188498,Right,-1624.994145098608,-1736.9278634315124,-1733.9781425819965,-1664.9463292286964,-1347.3003755005775,-1384.2289908236125,-1627.0968092880212,-1859.6133997516008
2025-12-12 20:47:59.193522,Right,-1409.1410598866642,-1501.33820257755,-1492.4297243454494,-1439.5798525859136,-1180.944675086299,-1194.1696941206465,-1404.426843474037,-1612.492525739246
2025-12-12 20:47:59.196501,Right,-750.323594850488,-784.132678820868,-764.1948702974478,-755.0686420912389,-600.2415493377484,-629.2685026432155,-736.8766359360889,-847.5675644464791
2025-12-12 20:47:59.200476,Right,-428.04004907631315,-432.18438855477143,-406.9447131805355,-419.8693891380681,-300.17570152616827,-356.69172241922934,-409.75290533085354,-466.56848575070035
2025-12-12 20:47:59.204537,Right,-701.4332083804766,-727.6465489438269,-705.4029421776067,-701.464720368851,-546.2260236718575,-591.0427402221248,-680.9406658351654,-777.1367276522797
2025-12-12 20:47:59.208547,Right,-1035.2159168036887,-1090.033798225806,-1071.7975296466611,-1045.0986985593336,-857.4689626592444,-874.0055239679641,-1013.4618354298873,-1163.7261456018314
2025-12-12 20:47:59.212565,Right,-885.6426899940707,-927.3883812722052,-906.3540865947725,-887.8765106574865,-719.9492488836986,-745.6004031141638,-862.2144148185616,-990.3000822009053
2025-12-12 20:47:59.216565,Right,-393.46570533083286,-390.1764160634484,-360.1438015761087,-375.4143377401051,-269.6909200064838,-325.3115858142264,-365.3900247095153,-414.48907163273543
2025-12-12 20:47:59.220515,Right,-116.78467956982786,-85.59673803148326,-48.86039772134973,-86.28950445872033,-35.5266935559921,-85.81263720308198,-82.65939581795828,-88.61147718067514
2025-12-12 20:47:59.223586,Right,-277.96269578067586,-258.93392836954445,-224.26281811133958,-252.761524464353,-199.86767115537077,-220.2381754067028,-243.62282278120983,-277.2233279129141
2025-12-12 20:47:59.228602,Right,-531.327229614195,-535.1347288608667,-507.2873339232756,-517.3268254438299,-415.20221352914814,-439.7531351719517,-504.1013290193514,-575.2319667154807
2025-12-12 20:47:59.232609,Right,-464.2725074242335,-461.9804121600464,-435.7496853665798,-449.6167032077792,-329.5166037554154,-388.30581443500705,-440.87489338818705,-495.8750290601747
2025-12-12 20:47:59.236624,Right,-116.44708644232014,-80.86524756537983,-48.3155366104329,-87.86322263051989,-28.420320741919568,-90.1329404944263,-85.56471814250108,-86.74114305118565
2025-12-12 20:47:59.240578,Right,123.75788913288852,182.3590457160608,220.96022997493856,163.970125381893,150.02231586436392,121.72089935230906,164.73669553210493,193.88023500802228
2025-12-12 20:47:59.244643,Right,45.34831942690653,95.66414785850793,132.9734139716311,84.15669508613064,76.3062115428911,56.29866980112274,86.53199022173067,101.31537358427886
2025-12-12 20:47:59.247641,Right,-137.46562747081043,-104.72500735669746,-71.76788129290799,-104.58276735883555,-53.57186690153321,-104.48381491424516,-101.67733910831157,-109.23420331499074
2025-12-12 20:47:59.251718,Right,-101.98090190644143,-64.45347276990651,-30.556661894748686,-65.20465725674876,-12.70583467920369,-74.3481675805524,-63.76852495933417,-64.06209527849569
2025-12-12 20:47:59.255689,Right,158.24136529234238,220.59064143319847,260.05615103150194,207.62280969004496,185.18816739217436,154.90036496406537,205.59124582957884,236.0328447506181
2025-12-12 20:47:59.260689,Right,360.0211124685593,438.0030899909325,479.85991260863375,416.55282396076655,344.69980501879036,330.57459760720667,409.2400440896163,461.5447887932096
2025-12-12 20:47:59.264693,Right,329.78576460047043,400.9751199404709,439.82678133415175,382.0099312557795,343.4403442324019,299.29779721460363,370.86349118468206,420.312699153641
2025-12-12 20:47:59.268666,Right,209.53220603528825,269.26430758544564,305.60844304992315,255.47832408138217,260.0554332602078,192.35549841915054,245.2190427540787,281.3863525111676
2025-12-12 20:47:59.272723,Right,221.82086220650126,284.8007076413487,322.91713069262914,268.927137792758,252.75078176919487,207.37665927563285,260.93398372752563,296.12495256021066
2025-12-12 20:47:59.275731,Right,372.3220699112935,449.06166727255913,489.95415376490564,425.0290486855811,363.1388803025038,341.25417699186073,414.2628163946356,466.43245546838443
2025-12-12 20:47:59.279751,Right,496.44342028014944,582.1455572134291,623.4599999542261,551.6923329560814,485.15968335137586,444.8269504974305,534.4228652924794,606.9511373093264
2025-12-12 20:47:59.283761,Right,511.7979584999266,597.9034417636867,639.0139912370942,566.2043725423282,515.5345793559682,453.6603568030987,546.9177216541138,626.7859758449486
2025-12-12 20:47:59.288707,Right,486.8823541525635,571.4967356091947,613.9195208217425,541.2761798118008,475.76351915622945,434.88715757711907,526.6233915924095,600.7314530351723
2025-12-12 20:47:59.292770,Right,494.5907088909007,579.2223646487109,622.8076327696035,550.2460413887165,458.8556558623095,446.33266702320543,539.6472969401511,609.1081746432756
2025-12-12 20:47:59.296807,Right,530.5658658100583,616.0552687981981,659.2587168796454,586.6353178581921,503.4009928040032,476.0822128453874,574.9407896628836,651.4043473475031
2025-12-12 20:47:59.300849,Right,579.779905341391,668.9232101109228,712.5620598956011,636.3953516280744,570.6202325944032,515.0689813748177,622.9536042916006,714.0615218759631
2025-12-12 20:47:59.303819,Right,646.9139196079923,743.3314665327198,789.6311444602907,705.8881446049782,617.0831943806843,575.2798931715661,694.2045427169651,796.6809993802453
2025-12-12 20:47:59.307815,Right,697.521658011945,798.0310669731116,845.8310959336231,757.693290437921,631.9565904082265,623.546470860776,747.9896844751202,853.3163131222827
2025-12-12 20:47:59.311888,Right,675.7928076130338,771.2737990625901,816.531258292729,732.5245954695274,617.7905840253225,603.4241654580692,721.767217192566,824.0979343150975
2025-12-12 20:47:59.315861,Right,617.4452545938548,706.1221129275509,747.7527321527596,669.7572641846491,594.587803957751,548.5857498733676,658.2610696936608,757.8113700447138
2025-12-12 20:47:59.320851,Right,641.3637514040456,734.1651981720352,775.3189373357454,695.0477894601063,613.6217449413962,570.6258818593342,685.9778195613762,789.1878648091806
2025-12-12 20:47:59.324904,Right,772.3696734554251,878.4343147707987,920.8912910760846,831.9794804297853,699.9107490015449,689.2246628612047,824.4324593819911,939.0819498109631
2025-12-12 20:47:59.328901,Right,869.8096955726505,982.1662272127578,1023.2655402054079,931.1429053571774,782.5609918876435,773.2111585232196,920.8967382379342,1045.556565233157
2025-12-12 20:47:59.331898,Right,818.3554326621233,922.3078671671683,959.2574208227452,873.8421523497673,764.1458719784277,723.0194817861775,861.3596071096836,982.3367678876966
2025-12-12 20:47:59.335924,Right,711.5980363681447,804.6272711838828,838.5881357194157,760.9749455291312,675.5742141722585,629.3618909714278,750.9745113293175,858.1873767842771
2025-12-12 20:47:59.339925,Right,729.67816334276,824.2181091372622,857.7553198337555,780.0078181570861,665.0261199306697,649.5725464447751,771.820977550582,876.1096094468376
2025-12-12 20:47:59.343956,Right,875.9606902298983,981.8945833443431,1014.9916290508118,931.8023128869245,785.2488603647798,777.3423090848955,918.4439637602773,1040.7793210528325
2025-12-12 20:47:59.349957,Right,967.4931763168424,1079.3879172538873,1110.4147679720772,1025.982616710593,891.6550294022309,852.0174595270073,1005.5477678811876,1146.4541104946984
2025-12-12 20:47:59.352959,Right,894.9907490400365,999.7893487944966,1028.2854307497619,951.0370470517082,840.4750316003338,787.9753325817874,930.7967998172389,1065.165984484367
2025-12-12 20:47:59.356974,Right,772.4425516737392,865.4956563019659,891.8010117611848,824.9978777449578,709.3789177694125,686.8059871640289,809.8008578122826,921.1291496398626
2025-12-12 20:47:59.360003,Right,775.0027968724025,864.8320243046619,888.8398591201985,827.2642967103748,696.1390067189932,690.7646519445116,811.432476568385,917.5712589098839
2025-12-12 20:47:59.364004,Right,906.7670048560249,1004.61163846415,1026.612600002205,962.2968559924047,831.443350021611,798.8945259143366,939.0491816528374,1068.122135088197
2025-12-12 20:47:59.368015,Right,1004.1546853114851,1110.566249595955,1131.1624597264454,1063.083717313013,931.7938658681232,878.6547437323024,1035.643276848481,1184.8067269398598
2025-12-12 20:47:59.372022,Right,948.0257575961296,1051.5635910573183,1069.2114058276638,1006.0174741331721,862.1883675917052,833.2578502119286,982.0212221731199,1120.370196802658
2025-12-12 20:47:59.376117,Right,812.2964002966182,903.3793860976584,914.8479714384302,864.3786036475794,723.8729738033144,718.8675813019508,843.9175456601661,956.3192277632188
2025-12-12 20:47:59.381033,Right,774.9544878981542,859.1868321518414,864.5023521024268,821.5299610502552,706.0705375353573,681.8345302400412,798.6633221498923,906.739909885684
2025-12-12 20:47:59.385052,Right,896.0136310519883,987.6784514831379,991.4969410692574,942.5478279623203,827.0120511235436,780.0955579165602,916.0035717473365,1047.0275435395306
2025-12-12 20:47:59.387998,Right,1028.5273566073738,1129.5950714775827,1134.8131975483848,1077.0153308635345,920.899906642735,894.580072147306,1051.7586692210753,1201.5411721654236
2025-12-12 20:47:59.392053,Right,993.8451099147787,1088.0390035153832,1091.0737811455037,1038.1078094962286,864.0995550190564,866.1484944568947,1017.1635270983679,1157.925037196721
2025-12-12 20:47:59.396088,Right,824.3459913759725,898.7205670699477,894.9783936819294,858.3858286417089,728.557156264782,714.7727535339072,839.6567998768296,957.9992387450766
2025-12-12 20:47:59.400084,Right,742.8339980404126,807.8941963319667,799.2695694215363,770.9895812964533,680.8247945898911,636.9777900734916,752.1054052585969,864.3174737499794
2025-12-12 20:47:59.404108,Right,865.471004833933,942.3504395231139,934.2766620749608,897.5518335885135,772.0935172684258,741.6619815245504,878.197779614944,1006.3384438192006
2025-12-12 20:47:59.409111,Right,1025.6399012093898,1116.3820955778938,1109.0620877427282,1062.7458658160176,877.3708413876593,882.0506507829996,1042.223435227177,1185.7537146337563
2025-12-12 20:47:59.412100,Right,994.846936288639,1079.3711655937368,1067.661859238171,1027.6089335208526,852.3718669158407,852.2361029664753,1005.4156002793461,1143.6042394946562
2025-12-12 20:47:59.416126,Right,809.2648954950273,874.3203607928008,856.2573065405013,832.0157724492019,718.350381303113,685.8140529480297,810.6609037332237,929.8056715340354
2025-12-12 20:47:59.420126,Right,723.3045014581876,780.7545955597889,760.5720686902059,742.6396783356322,640.9714196511777,611.8673038390698,724.6158144928049,835.3560518274317
2025-12-12 20:47:59.424148,Right,844.0094120920403,912.1915205613477,893.3303943027277,868.6326125198975,713.8375069506001,721.7000885488233,851.0888343295082,974.4385590236634
2025-12-12 20:47:59.428094,Right,981.6660562067991,1058.9878704693401,1038.9974366024835,1009.6415067986818,825.5619719247334,841.5309405769221,987.8908746649977,1126.7714411634952
2025-12-12 20:47:59.432158,Right,934.1715221320046,1003.345831438317,978.5535802148515,956.9871049240464,807.6271199896,796.26115218841,932.8714657052187,1065.8941353796981
2025-12-12 20:47:59.437175,Right,775.3788205679739,828.8918811194599,800.3538826557342,791.1578956664307,674.2283092854777,659.2790528192418,770.9780372449895,879.4200392528437
2025-12-12 20:47:59.440192,Right,728.3995097022271,777.070026280242,748.5197211543564,743.8661382074933,607.3698148321128,624.8034876578022,727.3906559760217,821.1694991260301
2025-12-12 20:47:59.444199,Right,837.8280127951875,893.7847560289083,866.3819539791439,858.2117546009831,693.6460580814164,721.6931306394981,837.61536577472,943.0085051369388
2025-12-12 20:47:59.448198,Right,926.9663283244008,988.2841395253781,960.5601380327716,950.0592126753181,795.688708024798,794.3401807219489,922.2235308291856,1045.7690493681002
2025-12-12 20:47:59.452226,Right,865.7013776721433,921.660283850506,892.6329684025841,886.4861238660524,753.4058997932589,739.4301429784391,858.4594293705886,977.9212255084421
2025-12-12 20:47:59.456272,Right,736.872052664985,782.5158059230307,752.2119485746371,753.630102562136,616.1703815953806,632.6651460200083,731.6576497302158,828.1471165416297
2025-12-12 20:47:59.460279,Right,695.0840170893352,736.092884623562,704.7544332346879,709.7127246913733,562.3072390037123,599.0130587657914,690.152984222048,775.1952605531551
2025-12-12 20:47:59.465228,Right,761.2033445034176,806.3744714045897,775.3441657533403,776.3894720242824,638.1596491646487,650.9247412704863,753.3351799210068,851.6798800544348
2025-12-12 20:47:59.468349,Right,824.5268271372188,876.0812083443161,847.6808320404962,841.5061595329316,707.484767651651,700.4469387226272,817.168513908051,931.7498147294391
2025-12-12 20:47:59.471359,Right,797.187770985649,848.4523062538356,823.0115626886254,814.3351993721444,661.5760181762744,678.5969544133404,794.5329031114234,905.0196003478486
2025-12-12 20:47:59.475365,Right,705.9433873036178,748.980551112094,723.9990355691407,719.793332796311,560.6453179952223,602.6162038911134,703.5282726008445,797.5242059885059
2025-12-12 20:47:59.480352,Right,644.8356137216324,680.6988825041335,655.0768386176787,654.5733942058869,523.556318775285,547.1660129807424,636.017439964111,724.826707808068
2025-12-12 20:47:59.484366,Right,667.2508771861903,705.6433103552554,682.5186632927507,676.9955615967046,563.8654180639423,564.0137295400491,655.2620936441235,754.4002054336015
2025-12-12 20:47:59.488312,Right,726.1047496525571,772.4884907418163,755.1192311604973,739.7102519009495,598.968880411936,619.4996873633936,718.954145348398,826.7569513854105
2025-12-12 20:47:59.492412,Right,725.679549760418,772.9357689854223,759.8674103700323,740.6499293091474,573.385640898603,625.2268270669738,721.9865795181831,825.8499731346965
2025-12-12 20:47:59.496387,Right,641.5222226131009,679.7240009322995,667.5605416070903,652.3012610354926,511.43709319480695,551.3479971819324,633.0578832991887,728.1184302624315
2025-12-12 20:47:59.499403,Right,560.6888493883889,591.7161487059202,580.9963029791834,567.1308174633887,466.71394269610755,476.983302717912,547.3543007265544,639.8698528705863
2025-12-12 20:47:59.503416,Right,567.9559925089125,602.4699488354381,596.5572744356468,575.2020094653126,463.445347307832,484.15481860144064,557.8585174621549,654.1791600231081
2025-12-12 20:47:59.508381,Right,624.24124345358,665.2670611687936,664.2830827654107,633.9278836976737,482.2369442532072,536.1411294777645,618.6586356408661,718.2457042590249
2025-12-12 20:47:59.512492,Right,621.5444423009176,660.2247834551381,660.6728210155852,629.1032271655276,480.5725662136683,530.5350042604841,612.1729233467486,710.1688233312452
2025-12-12 20:47:59.516470,Right,542.4402446290478,571.9001026089536,572.3878187534865,545.0177554349648,436.6441061658552,454.3345090644434,525.7782799857669,617.6818534061313
2025-12-12 20:47:59.520477,Right,482.48877929034643,507.27361058141105,509.98138663789723,484.0352121174801,382.8087759820046,400.2205791170709,465.3215804877691,549.9903854063014
2025-12-12 20:47:59.524506,Right,501.74777718423866,529.3048643749207,534.6511834539706,506.9700745554874,372.5631784541765,420.60059335292317,488.5723004519241,569.3794394601136
2025-12-12 20:47:59.527519,Right,539.5744419657858,569.4371816054918,573.5280921027297,547.1131974820746,404.7164322992321,454.1098232661607,525.4206179056782,606.6149868832435
2025-12-12 20:47:59.531508,Right,519.2529775761068,546.2576272297883,545.6448353007436,524.6688773434144,417.406516349758,432.9804941701004,500.3127826836426,580.2668585259235
2025-12-12 20:47:59.536514,Right,462.2623677790398,485.1698888699757,480.54916910326574,464.4268688929733,376.8278114646673,383.71296318189707,443.5819421723718,515.103130760137
2025-12-12 20:47:59.540524,Right,433.8180491019739,454.4261062941514,447.30862030980643,434.1729851968121,326.79050213249866,363.8219055805821,419.5409616488032,479.65577438508626
2025-12-12 20:47:59.544546,Right,433.97621042164974,451.41672711633146,440.77292967482936,432.3275667713024,317.7033964014845,365.0112070919713,419.2025251407176,474.17831740214024
2025-12-12 20:47:59.548556,Right,419.7224976910511,432.2444972307421,417.5206646716688,415.6356256790459,331.7475432336796,348.9464014127152,400.2249818723649,456.7216971217422
2025-12-12 20:47:59.552553,Right,392.0069543537684,401.9462611207273,386.1407244618749,388.3663205791963,322.9379563664552,326.3639214694267,373.61225385358557,429.4450276392745
2025-12-12 20:47:59.555579,Right,381.15902590123005,391.7042581811547,377.87550287588965,381.2128551341593,293.18436574505176,326.50933252309915,370.25430264195893,419.35435464733746
2025-12-12 20:47:59.559546,Right,375.79557821853086,384.61483479035087,371.8673804658465,377.74603457853664,276.03555737051647,328.7240597642958,367.6726522871759,410.18552813795395
2025-12-12 20:47:59.563616,Right,344.0995634186547,346.48025275894906,332.69116832583677,343.2439691448817,272.25402336160187,298.6056913486682,330.4285935005173,371.5321189346723
2025-12-12 20:47:59.568622,Right,305.1522723232629,302.0623771583196,287.99651471036486,300.39927509473637,257.13961318403017,260.45522406848613,286.9784016427584,328.58066005876753
2025-12-12 20:47:59.572644,Right,302.38572612788994,298.9322718306212,286.0238405148266,296.15769420191646,234.4205509602325,259.43434563546907,285.6471718826797,325.74421806389
2025-12-12 20:47:59.576603,Right,318.5967282310594,315.19090085173957,301.4624593134504,311.16401692992076,226.71367441077018,275.59818953450304,301.90259676764254,339.94761843886226
2025-12-12 20:47:59.579605,Right,295.309803010663,287.1258881026879,269.36939422867727,284.20176154212095,222.76656131475465,252.41599296079949,273.23058114934247,309.48141913011204
2025-12-12 20:47:59.583670,Right,235.18750933604315,220.99755374656525,199.73537595162634,220.55354779050685,192.68447360169375,197.67665247013792,210.4324361216277,241.75606763130054
2025-12-12 20:47:59.587616,Right,206.10116219508927,191.09738019516226,169.4219297254458,191.8412577821873,151.88231240742607,176.14332225860562,186.81178966152947,210.48717602388933
2025-12-12 20:47:59.591707,Right,230.1481268859934,218.10311620053835,196.17061987158377,218.1847272515297,146.61193991202163,200.28946660843212,216.10318232199643,236.7969415251864
2025-12-12 20:47:59.595699,Right,244.40115583431907,232.7854099876713,207.37088662816677,232.0189825441921,169.82468543737195,207.1771349697956,227.2070926866727,252.03679834550712
2025-12-12 20:47:59.600725,Right,201.20604722946882,186.57932721439283,156.12983090174384,186.07628268375993,159.20249863155186,161.33539255405776,178.45226862316485,205.1032620073529
2025-12-12 20:47:59.604748,Right,142.1925133136101,125.5258191335015,91.82476138882339,126.19750903558452,99.6127968429355,109.80835221568123,120.1054652746534,138.75536165677477
2025-12-12 20:47:59.607750,Right,130.76434172864538,114.68479157902766,79.14405027322937,116.56398720829748,59.39896899636369,105.04148646857357,111.40722084342269,119.930118265911
2025-12-12 20:47:59.611729,Right,160.3801179669681,145.18829614680726,107.43862052552868,147.6517460871255,86.19672155380249,130.66423689411022,137.756532742118,145.61649271124043
2025-12-12 20:47:59.615785,Right,175.98668971384177,160.86321210314054,121.78625153115718,163.3675491552567,127.44348436553264,139.0759377076174,147.8397844589199,161.1811063369969
2025-12-12 20:47:59.619778,Right,151.74874622566858,136.19186309172073,98.41537620732561,139.25628241698723,108.31702049437445,117.10400624398608,124.13401362934383,136.04403331817593
2025-12-12 20:47:59.624776,Right,105.69719696242828,87.77800424699672,51.950331708125304,92.88272321945988,42.42719410563586,80.80263275891775,81.66091449686792,83.65129774081288
2025-12-12 20:47:59.628786,Right,65.23590573488036,42.554231909045484,6.762000614020508,50.09560660459101,3.7064692166168243,45.23485864349641,39.44855257921154,35.328483719495125
2025-12-12 20:47:59.632814,Right,51.909799346118234,26.30509552633157,-9.591754654538818,34.23167756065959,16.97206816531252,28.492006367072463,21.73664428543998,21.545069955463987
2025-12-12 20:47:59.635794,Right,71.67287525715074,48.317192859598435,15.017611130781006,54.44473359163385,37.46109642286319,45.11685908451909,43.59190468781162,48.11915080464678
2025-12-12 20:47:59.639808,Right,92.74451061891159,71.96913096541539,41.925522155710496,77.34153537225211,27.066353043250274,69.47867445362499,71.226895636064,71.67445543495705
2025-12-12 20:47:59.643852,Right,67.58089887083042,42.874748221889604,12.653780584456399,50.73583017796045,-3.6223552820738405,50.64240185491508,46.841137532377616,38.3638736763387
2025-12-12 20:47:59.647797,Right,4.625516587228049,-27.296998290810734,-60.0595816654386,-16.166846819454804,-28.262700031598797,-8.111053763714153,-20.744628179527353,-33.45715066941921
2025-12-12 20:47:59.651805,Right,-26.543265230662655,-59.2427451441763,-92.16679026128259,-47.84643475257326,-36.929130589123815,-37.98599061882123,-51.305761623953,-62.35364630242111
2025-12-12 20:47:59.656875,Right,0.44470358919352293,-26.237316923215985,-56.51675566181075,-16.916417099593673,-34.85446285380749,-11.405881884420523,-17.234730217431206,-26.68739802087657
2025-12-12 20:47:59.659915,Right,14.914629803155549,-9.46177037927555,-38.56763871994917,-0.46253290318418294,-38.97727317796671,2.5945035713084508,0.028552902513183653,-11.628563222941011
2025-12-12 20:47:59.663893,Right,-43.11179053335218,-73.47090152016608,-103.93088714213809,-62.01629723870428,-68.79553309644689,-53.09109209073358,-62.68848274493939,-79.46790871967096
2025-12-12 20:47:59.667872,Right,-117.49959266447695,-153.44169637869345,-183.63317149234354,-140.4674135914538,-115.47382586664753,-122.03728889289778,-139.08582847903017,-161.18522220861632
2025-12-12 20:47:59.671914,Right,-116.93638455259497,-150.48906691154116,-176.93764141597785,-139.59097637413652,-136.30130440945504,-118.57937760010827,-132.91829945292557,-157.10336501002894
2025-12-12 20:47:59.675964,Right,-61.7503149297263,-90.56910286852508,-113.70468926784815,-82.85256633334211,-112.52122830560256,-67.26630582654616,-73.82651005190564,-95.24767762783449
2025-12-12 20:47:59.680956,Right,-55.69498356047552,-86.54861739941407,-109.8073637803027,-79.2204720734735,-91.7986684182979,-65.8681688104698,-72.33854319585953,-90.60366099650855
2025-12-12 20:47:59.683975,Right,-122.94424798726686,-160.70350721204886,-184.9948365027958,-151.24666537946905,-125.48891604565142,-129.89735905104317,-145.06070770788938,-166.74919824214885
2025-12-12 20:47:59.687966,Right,-173.8078325521492,-214.68474359592074,-238.11509869676956,-204.1951124567422,-182.24341142018966,-173.1894928807742,-194.60123543944792,-224.8185894965136
2025-12-12 20:47:59.692001,Right,-149.88226555247093,-188.50650012594997,-211.0277181068086,-179.68825098974048,-187.4941981235679,-148.93683377282287,-167.96850252531294,-201.62087518034969
2025-12-12 20:47:59.696010,Right,-108.02417257064371,-144.73792452304042,-168.66997053044906,-137.99482694729522,-141.41663696115575,-114.04231256338244,-128.597155183641,-157.21521852214937
2025-12-12 20:47:59.701106,Right,-120.66081128266524,-158.1530112042965,-183.84099368069292,-150.93726036223234,-124.01680292349556,-127.19418320698605,-143.07031720159284,-168.72216109272267
2025-12-12 20:47:59.704047,Right,-171.66200934555673,-209.4854820202163,-234.36783597785688,-198.93217376852408,-171.44916668864198,-166.16207713933545,-188.01024506201065,-221.04121508872777
2025-12-12 20:47:59.706992,Right,-202.052838603282,-238.24436357101513,-260.89291493170094,-223.71404969957075,-221.32134339178265,-184.07369167100114,-210.54788717188785,-252.89447453362664
2025-12-12 20:47:59.712095,Right,-200.58069919696572,-234.9442239121381,-256.3729139429779,-218.39095414553958,-213.56004058599137,-181.74399058923154,-209.04106887800663,-250.03824592906312
2025-12-12 20:47:59.716095,Right,-196.57422610329377,-229.27466025791182,-249.39532877391684,-213.58348081460463,-180.50914552261384,-182.98242040838522,-209.3131999614634,-241.5469276227759
2025-12-12 20:47:59.720060,Right,-203.58769400047095,-233.92389336416272,-250.54864683980486,-220.55238234513672,-186.2545764113529,-188.8497442144144,-215.56065340229543,-245.40668630729397
2025-12-12 20:47:59.724105,Right,-216.8744836306971,-246.05306867530817,-258.80336470993643,-234.09371537383777,-225.6723507902061,-194.64333209344477,-225.08620990385316,-261.6001284266531
2025-12-12 20:47:59.727079,Right,-236.79664088013124,-268.1571332495514,-279.69816564086796,-256.0111511005962,-244.7486724211194,-210.36911994645925,-246.72607124850038,-287.9589466507023
2025-12-12 20:47:59.731142,Right,-256.2665577687985,-290.03598269551003,-301.79488710686564,-277.7193551121163,-230.49480428417155,-231.37381898937747,-271.23874880298536,-309.38182746655366
2025-12-12 20:47:59.735157,Right,-253.75576067607471,-285.78809286109754,-296.0013311389048,-274.53964059807186,-218.69829955529713,-229.87686868083983,-268.1659519160894,-302.76202213611396
2025-12-12 20:47:59.740175,Right,-232.2857383166338,-261.2364951950876,-269.10886911877606,-250.80743789485132,-227.40244958102994,-206.32723096001428,-242.28164013395144,-279.7012756855838
2025-12-12 20:47:59.744169,Right,-231.99822465522448,-263.0845510647341,-271.23838941942086,-251.16984749758558,-239.3387354419683,-204.4634664368059,-243.5094466756418,-286.0915146809857
2025-12-12 20:47:59.748147,Right,-268.51277146177017,-305.693510341458,-315.8904302448791,-291.01653471414465,-244.8689568741829,-240.85913283047557,-286.4787515911012,-330.1609606911079
2025-12-12 20:47:59.752209,Right,-296.4082070781733,-335.18208751946804,-344.9030210908677,-319.4087563989742,-252.30460205234704,-266.77548932284117,-314.05843033469864,-355.83760166494176
2025-12-12 20:47:59.755197,Right,-278.9684471041983,-312.71160359622445,-319.21913134356146,-297.84359764517285,-258.367008142086,-245.21136103061144,-287.31436638717423,-328.2004417645803
2025-12-12 20:47:59.759248,Right,-256.110430220695,-286.22512757760705,-291.2424172220635,-271.74174142538686,-253.84439220608328,-219.473007556604,-257.90186092519434,-298.6831713873253
2025-12-12 20:47:59.763237,Right,-282.9290781272284,-316.0131331413286,-322.77650533252745,-300.4887512345449,-253.6182068217313,-244.70688739381148,-287.0842020113196,-327.3654189671797
2025-12-12 20:47:59.767255,Right,-333.0268341631163,-370.12750307950773,-378.21236271978705,-354.29583392007044,-276.13780603997293,-291.544542340067,-340.2545152049861,-381.76982751023024
2025-12-12 20:47:59.772268,Right,-337.74005477907485,-373.8019304657646,-380.7619186208758,-359.6660453939112,-300.94203803504934,-292.92833705904195,-342.71384937447147,-387.7071884510806
2025-12-12 20:47:59.776357,Right,-300.8392493312713,-334.06353034079075,-340.19551202023285,-321.72305798588786,-294.5956960201729,-257.4125303136534,-304.7987236259214,-350.98752654966665
2025-12-12 20:47:59.780374,Right,-290.17053829864017,-324.2108908391383,-331.5591073714895,-311.9443057400931,-270.9360256041109,-250.89829822219326,-299.20867887706845,-342.18754904641537
2025-12-12 20:47:59.783337,Right,-322.3364523432683,-358.5019550920115,-366.4738146038726,-345.6897469278774,-273.69905890044174,-282.3199304791633,-335.06097224060795,-375.7282639343175
2025-12-12 20:47:59.787329,Right,-342.3748282996239,-377.09072931075934,-383.20341668254696,-364.82635613292223,-302.95500369521324,-296.3679995483253,-351.5781035984983,-394.82390344090527
2025-12-12 20:47:59.791286,Right,-324.7542348979914,-356.5508746242267,-360.8970281936927,-345.3685674305889,-313.82055259880144,-276.57182723350707,-331.04157812474295,-376.73501704714727
2025-12-12 20:47:59.795339,Right,-311.0561838441645,-343.33309104613727,-348.34942580136703,-332.4288895970094,-293.14721368672326,-268.4890551835706,-322.75867574539734,-365.24630305275787
2025-12-12 20:47:59.800370,Right,-327.09534996782895,-361.5924699566094,-367.5896859797649,-350.598239512532,-280.9011775072431,-290.1591043959197,-345.78348692075815,-383.77243312250357
2025-12-12 20:47:59.804363,Right,-338.8814843338914,-372.5214668244589,-377.38653170643374,-362.15224890212994,-299.29620652552694,-300.89965230907546,-356.7858277290361,-396.2225143116666
2025-12-12 20:47:59.808340,Right,-321.4580614405568,-352.39643061038805,-355.94902066187933,-342.92346990521764,-315.1572216642089,-280.2200301128905,-335.2469826324377,-379.65593439759687
2025-12-12 20:47:59.811340,Right,-304.74565315886866,-335.85836505377665,-340.4787423154921,-326.7422129844781,-300.14979738922557,-264.28500545490533,-320.25470533629414,-365.27637260616757
2025-12-12 20:47:59.815401,Right,-314.38283818913624,-347.45271428261185,-353.6437459765002,-338.89868979452876,-279.8305044166045,-275.8228636220447,-334.25470956176287,-375.50052759813843
2025-12-12 20:47:59.819414,Right,-324.7317097718478,-356.38341778249014,-361.7127698712866,-349.5103984143352,-286.07936259225244,-283.8751124406117,-342.6132604869199,-382.55427866009995
2025-12-12 20:47:59.823429,Right,-312.855355561187,-340.24319879413815,-343.9684349777526,-335.16439085791353,-303.04386416624766,-268.2900486854487,-325.09525836916873,-367.43535840092227
2025-12-12 20:47:59.828392,Right,-307.0816838063183,-333.0601813903195,-337.90458247612696,-328.36054068629164,-302.84241581259994,-262.7255845189793,-319.8427159395651,-362.69491885544267
2025-12-12 20:47:59.832401,Right,-332.4431453071884,-360.6718205352081,-368.23100805218564,-355.58967487874907,-297.7784760661307,-289.89099510299275,-350.7304997741012,-391.0324017430539
2025-12-12 20:47:59.836489,Right,-355.25934525806224,-384.2636568218586,-392.3187610231107,-380.0334804094746,-310.7232091286569,-311.1902880069101,-374.4418687733705,-414.406998341321
2025-12-12 20:47:59.839471,Right,-337.33253286837135,-364.33835748862475,-370.8266076775035,-362.2579273744486,-324.62195687158965,-291.2844102176605,-352.9903048459091,-395.98360392748145
2025-12-12 20:47:59.843481,Right,-305.30282444582554,-332.3618575280998,-338.4994158790796,-331.6048380249413,-311.7022765382426,-262.5291115141008,-322.56405912869377,-366.3558359887684
2025-12-12 20:47:59.847478,Right,-307.7965629633982,-338.4432169824722,-345.3531905284617,-337.04037149768556,-289.95104928070214,-270.37585986498743,-332.02433960232884,-372.50718924420653
2025-12-12 20:47:59.851507,Right,-334.6104533773614,-367.02619187999517,-372.4669600945781,-364.20026352250716,-296.80246738536516,-296.55498402775265,-360.3655475623673,-398.9429375354084
2025-12-12 20:47:59.855523,Right,-339.42140672606183,-368.8202284532599,-370.39606612478383,-365.1396192773245,-321.83617424056865,-295.62856106983963,-358.4530790298595,-399.0573654952459
2025-12-12 20:47:59.860531,Right,-321.1525031332858,-347.2443218793487,-346.36884490342345,-343.20663756749127,-322.52698225551285,-275.0451725748135,-335.2100701959571,-376.30338112596655
2025-12-12 20:47:59.864552,Right,-318.411382160848,-344.65212303958833,-344.0253029007581,-340.47877908940427,-298.87230984622147,-274.91608086944325,-333.90363722713664,-370.88562673528213
2025-12-12 20:47:59.867564,Right,-334.7870943497401,-361.45113366440637,-360.69158100604545,-357.73418352822773,-292.858255012834,-291.30001094023464,-349.89228764467407,-384.3695053922711
2025-12-12 20:47:59.871578,Right,-336.0435309968889,-360.18756959051825,-357.4575114182662,-357.19231549621327,-313.80922438792186,-287.1655114921741,-344.3607021228527,-383.08708583394764
2025-12-12 20:47:59.875616,Right,-318.2138258268824,-340.00355252804,-336.0651603558217,-336.6306869260734,-323.67631140584126,-265.2736397894332,-321.7529702098691,-365.9966575191356
2025-12-12 20:47:59.879575,Right,-312.9731675131479,-335.7308635590598,-332.44859087618534,-330.69405244558584,-305.30557247274555,-261.6619852432632,-319.7345401318744,-363.4437494018348
2025-12-12 20:47:59.883609,Right,-323.7829399522743,-347.5611206452595,-343.79746371443616,-341.29103606333956,-289.6494140911964,-275.15699019818567,-334.13752828299766,-374.0212434885325
2025-12-12 20:47:59.887643,Right,-320.44588746497175,-341.8147498620674,-335.00568682007724,-335.63892641541315,-298.19392422778765,-271.51714370877016,-327.5958027013694,-367.4596558059566
2025-12-12 20:47:59.892673,Right,-302.3812618787051,-321.30573580187047,-312.30003737763036,-315.095802253054,-308.5590815896867,-253.68164201977197,-305.69577689573634,-348.42305792181287
2025-12-12 20:47:59.895664,Right,-303.7566666348721,-324.33761799987406,-316.44102209154516,-316.7942902641371,-300.09961524262326,-258.680658857862,-309.7184193402645,-352.14417752518784
2025-12-12 20:47:59.899643,Right,-324.639103468915,-347.56390201859176,-341.01060377946123,-338.75270405743504,-288.4461044638301,-282.11457805050304,-333.81572544312803,-372.92166151385754
2025-12-12 20:47:59.903682,Right,-322.4817389136879,-343.0510967182927,-334.6408463532571,-334.70127071114257,-288.9972970687086,-277.6895945716533,-327.5527377098333,-365.50391928933095
2025-12-12 20:47:59.909740,Right,-291.01613905542763,-306.94137730187504,-295.502463619865,-299.887577738089,-287.4591426118859,-243.1368854296743,-290.0511200428009,-329.369930480374
2025-12-12 20:47:59.912784,Right,-279.9369467770448,-294.956752840837,-282.9854793517152,-288.0953038420994,-273.743072821002,-232.23417014052393,-280.03432382061146,-319.15020616014954
2025-12-12 20:47:59.915709,Right,-308.2774482706445,-324.8877807689132,-313.85949884570437,-317.36769447562983,-266.85992903256556,-260.6997688941192,-312.31253693893086,-349.6080629180651
2025-12-12 20:47:59.920717,Right,-325.70952197897714,-340.1317995614372,-328.44218629359966,-332.93291017680895,-277.2464682866703,-274.6335004636203,-326.5504010906443,-363.9561493283836
2025-12-12 20:47:59.923677,Right,-297.96473077702103,-306.6398438431788,-293.9088016159949,-300.9512023416464,-280.41099353466416,-243.91586120805005,-291.17425391986035,-329.89552354975604
2025-12-12 20:47:59.927796,Right,-267.2162686516531,-273.3304321966134,-262.64284929045243,-268.8459554799483,-260.202284137893,-215.658565520891,-259.3970974019612,-296.646846049116
2025-12-12 20:47:59.931757,Right,-279.41615958389593,-287.8970234688604,-281.29024598846445,-283.93402503203833,-244.2458465313539,-232.34147416427732,-277.29709247441497,-311.434180547134
2025-12-12 20:47:59.935754,Right,-306.3651934223599,-316.3743864163989,-311.6010275929002,-313.32097466191044,-258.2216933828313,-260.131133608229,-306.62177416629856,-341.0867228280986
2025-12-12 20:47:59.939778,Right,-296.4216998456395,-304.24231955979485,-298.61369939817814,-302.46708138275426,-275.23633463244187,-249.98395303206053,-293.88206805911614,-331.3026858739322
2025-12-12 20:47:59.943802,Right,-262.08244752290193,-268.39753658673726,-262.61718373320764,-266.77487626543734,-257.89807285601273,-219.7926096241572,-259.889196654025,-296.50975101289805
2025-12-12 20:47:59.947767,Right,-254.65804848476546,-263.23189490044024,-258.61058616585797,-260.2822136427276,-226.39140589954332,-217.44516477489378,-257.46405259071616,-289.1267816994805
2025-12-12 20:47:59.950824,Right,-276.35668996936874,-287.38032323808875,-282.31840847071726,-283.23673122376204,-227.99634552496718,-237.56177727528848,-280.15146741381614,-310.1749827398453
2025-12-12 20:47:59.954798,Right,-283.28324327612063,-293.6442057566019,-286.26037833851296,-289.56642379640834,-255.41655963438097,-238.27796973177465,-281.7574984691455,-316.03041223529726
2025-12-12 20:47:59.959834,Right,-264.30682094342774,-273.38943105586804,-265.2145532518625,-269.9618982737884,-258.14831427577883,-217.90836049680365,-260.09950135590043,-297.0112838743953
2025-12-12 20:47:59.963852,Right,-251.3697499645641,-261.1542857699096,-254.62604324164568,-258.24135184299666,-228.21443769079633,-209.8837859708583,-250.84113993227948,-283.8608902625274
2025-12-12 20:47:59.967901,Right,-254.4104160675197,-264.5476367844967,-258.67112092045136,-262.2809749892913,-210.4650674763252,-215.83053269371158,-255.57505228323862,-284.39504204667173
2025-12-12 20:47:59.971888,Right,-249.84308508399408,-258.20009242906235,-250.33347199764103,-256.5290748986881,-224.11566540051717,-208.64970085932873,-246.2579488782212,-276.97598701994866
2025-12-12 20:47:59.974871,Right,-236.65342143073212,-244.37926108943066,-234.78017182584153,-242.18538333749166,-236.08199995593168,-193.70323510619346,-229.89163510274375,-264.0383337853709
2025-12-12 20:47:59.978914,Right,-241.7307079434977,-251.97929899365408,-242.63298751687398,-248.1795249498682,-225.22885738493642,-201.682806539,-238.48789782729,-270.4435056402581
2025-12-12 20:47:59.982926,Right,-261.25554519018624,-272.7455910239951,-262.92288294807076,-268.04155446309596,-215.1706432310748,-223.53126241866266,-260.2227873845259,-287.2881987608271
2025-12-12 20:47:59.987938,Right,-257.3825538146193,-265.1970498440205,-252.5237977533252,-261.3702733311802,-222.2860599826672,-217.76585853577126,-250.94539382134099,-277.94423117663246
2025-12-12 20:47:59.991942,Right,-226.02886646712432,-229.60529343318194,-214.88972048950382,-227.30797335959505,-223.60312471492216,-185.15102395805297,-214.33728214295115,-245.2000482144067
2025-12-12 20:47:59.995947,Right,-207.90816947928397,-212.2738003055565,-198.8307990070898,-210.84699202299817,-203.0621498687542,-170.38612067553913,-199.3376592650311,-231.17881370789837
2025-12-12 20:47:59.999981,Right,-215.92833497351967,-223.48530024389038,-211.73987113218755,-222.60174960945733,-183.85246285249013,-182.20527572801802,-212.6541406592587,-241.80884133081418
2025-12-12 20:48:00.003014,Right,-213.4888529201271,-220.48892165673897,-207.6460670073866,-220.2142396075069,-185.4353717691847,-179.6701134632458,-208.13598834356526,-235.83924073923845
2025-12-12 20:48:00.007004,Right,-186.12104726448888,-189.74299788085045,-175.24779312196188,-188.89812781324144,-188.5302849819418,-151.4039711569785,-175.140297541162,-203.20394035661593
2025-12-12 20:48:00.011028,Right,-172.095060175634,-175.22887619986432,-162.16387197043514,-171.66253255942138,-174.0691004290129,-139.39511146803852,-161.27975140121998,-187.6711489027948
2025-12-12 20:48:00.015036,Right,-191.56647785846144,-196.9347393856733,-186.92931702005444,-190.22822040127357,-160.27384949708357,-160.54363821988227,-184.2596098887734,-207.4936075246078
2025-12-12 20:48:00.020050,Right,-204.55785441456828,-209.43031671689823,-200.36687213933328,-201.75321531348163,-166.14336093876045,-171.1971954520559,-195.1755561507307,-218.35194729070645
2025-12-12 20:48:00.024061,Right,-180.4165246525663,-181.88675375567982,-172.22513654641807,-175.15543658140814,-172.40757989272242,-144.64741463010432,-165.41187928779982,-191.0920425906079
2025-12-12 20:48:00.028096,Right,-155.40500864654314,-156.35159702732926,-147.7398406729917,-149.90125638910104,-158.14689696294954,-121.82235263846815,-140.60160202346742,-165.9016252286965
2025-12-12 20:48:00.031089,Right,-170.2545560618746,-174.62000342801912,-168.09934054937912,-166.81063638266642,-144.38557047286304,-139.46019948564935,-160.23115486331517,-182.06965416291496
2025-12-12 20:48:00.035102,Right,-197.0956532600103,-202.87446945731062,-196.1403703147662,-193.70478529308457,-156.97738288342953,-163.82019132125424,-186.4436093821423,-207.65165132365655
2025-12-12 20:48:00.039113,Right,-187.2819647579454,-190.00150455441326,-181.14075097208843,-180.71375289885327,-174.16275980311912,-149.94270517874975,-170.53414377692388,-195.01610068010632
2025-12-12 20:48:00.043113,Right,-154.2842065243749,-154.68134830263443,-145.67591497313697,-145.79412945680087,-160.469914850255,-119.0605988719035,-136.35630728001706,-161.7181154357968
2025-12-12 20:48:00.047135,Right,-145.48077989870217,-147.6826044950867,-141.36683018802432,-139.00099577312358,-130.89759594696807,-116.7727729959879,-133.0954057733179,-154.48768035136163
2025-12-12 20:48:00.052152,Right,-158.7083364709979,-162.81542131130118,-158.96938179968856,-154.68404023745097,-127.57434339041356,-132.39416696957778,-148.51688853744417,-167.061472024885
2025-12-12 20:48:00.056147,Right,-153.2008087108261,-155.95546412077965,-153.41279526258586,-148.88746235438157,-146.92441707651597,-124.59679067140678,-138.56356678856537,-159.12394486553967
2025-12-12 20:48:00.059194,Right,-127.65577746985946,-129.14875652763294,-129.18134256999474,-122.61676317022648,-147.42946209170623,-99.71919415419688,-111.38976148434449,-133.73167436837684
2025-12-12 20:48:00.063180,Right,-119.2285127522191,-122.42640494130319,-126.24907133856323,-115.43220609711716,-123.3355511011323,-96.3486984493793,-108.4576972933719,-127.8778226627619
2025-12-12 20:48:00.067142,Right,-129.81264179665595,-133.99366764776642,-138.69934250722872,-126.48404309421312,-110.82827357848873,-109.05185610341141,-122.4370086475974,-138.57648492383305
2025-12-12 20:48:00.071211,Right,-122.79282526252791,-124.06032736372435,-125.02768089494202,-116.50129657884827,-119.79435237665894,-98.83110300835688,-111.02104054385563,-128.4382054010639
2025-12-12 20:48:00.077221,Right,-96.52027997979894,-95.04938961268635,-91.32984295557253,-87.02677056391258,-119.18937546282541,-71.06436550396029,-81.19916714727879,-100.62505600025179
2025-12-12 20:48:00.080177,Right,-90.78916295734234,-91.13557141966885,-84.74938613269478,-81.80913380812854,-98.43000840907916,-69.34627957927296,-79.9923246515682,-96.67632417066488
2025-12-12 20:48:00.084250,Right,-110.79899476846913,-114.19017915276345,-105.18685379438102,-103.91796023282222,-86.44977286836365,-93.33265626046341,-105.4140158466762,-117.6055506670964
2025-12-12 20:48:00.087205,Right,-113.78425161889754,-116.2864942814922,-102.64185438363347,-106.35811148420908,-94.69440898002358,-96.36892064509448,-106.661198085465,-118.39138496568194
2025-12-12 20:48:00.091335,Right,-86.09120475343661,-85.65582756785443,-67.51139421813423,-76.41589468414895,-93.5701952544041,-69.4378953295527,-75.42166639462812,-88.82092839683173
2025-12-12 20:48:00.095326,Right,-67.605866077065,-66.7119832825847,-46.3628407723736,-57.339565137575846,-67.48681986477459,-55.773006489442196,-58.931059689843096,-70.77525779447751
2025-12-12 20:48:00.099344,Right,-78.34170594526222,-77.75589204579592,-55.076869168609846,-68.06636520143365,-45.480795948184095,-70.13783160038292,-71.89481356518809,-80.53788955044001
2025-12-12 20:48:00.103355,Right,-82.9640065485728,-79.02881828666432,-50.955026216688566,-70.05248097935691,-48.614137806609506,-72.70097261632327,-71.03746180882445,-80.15582649124553
2025-12-12 20:48:00.107335,Right,-58.56939063093159,-49.596722414135,-15.079289922956377,-41.90602631174261,-51.492847868968965,-45.259057467686944,-38.65789156896062,-50.35447803448187
2025-12-12 20:48:00.112349,Right,-39.76866419566795,-29.742152917198837,8.517001340806019,-22.581977645633742,-30.910328857135028,-27.977785900991876,-19.31722758640535,-29.54716880887281
2025-12-12 20:48:00.115359,Right,-55.7586869035149,-48.1563693897333,-8.271950669761281,-40.93939552176744,-10.881558935769135,-46.933993372134864,-39.43069291347638,-44.9314949970576
2025-12-12 20:48:00.119394,Right,-75.1161226760596,-67.66698919876944,-25.431786448258208,-61.044973237847444,-18.328144239610992,-65.65017120516859,-57.58433042548131,-61.972748649830464
2025-12-12 20:48:00.123387,Right,-61.3453863588511,-50.77047873655101,-6.147751350392355,-45.30023677193094,-31.180291676981142,-50.49427298625233,-38.20657375379233,-45.83703444444109
2025-12-12 20:48:00.127502,Right,-36.355876942165196,-23.99239230126841,20.54267752720625,-18.86199118057266,-16.159144459466916,-28.407377110270318,-12.258751064015087,-20.69390501047019
2025-12-12 20:48:00.131361,Right,-36.32998079393292,-24.500670486537274,18.845051482727285,-18.663307834416628,12.313021698530065,-32.22927286493359,-15.238653357606381,-19.718360691156704
2025-12-12 20:48:00.135418,Right,-46.75011133623775,-33.4567727597896,11.166383991017938,-27.103069660253823,18.64249715351616,-40.65146445063874,-23.354844403162133,-24.760552871972322
2025-12-12 20:48:00.140447,Right,-37.06626810092712,-19.63536457461305,28.041910844360245,-13.40093630150659,7.645971611345885,-24.967231558111962,-6.345740830409341,-8.339557292987593
2025-12-12 20:48:00.143496,Right,-23.012280922790524,-3.944765207997989,44.509251794195734,2.4631893284094986,10.56606654135976,-8.572825982235372,9.512363624555292,8.050678471394349
2025-12-12 20:48:00.146488,Right,-35.00399098062189,-18.601076666847803,28.072382504382404,-11.53333915938856,26.458211007382488,-22.63309126457898,-8.334851295338012,-5.479803938884288
2025-12-12 20:48:00.151433,Right,-53.23259091380169,-38.81160902878037,7.608790395432152,-31.688414050993742,28.7489791654516,-41.297688862046925,-30.25232975182007,-24.19177144105197
2025-12-12 20:48:00.155450,Right,-37.20213225999032,-21.444150314113358,27.61040239853901,-14.945690834341804,20.525643459375715,-22.93209424102679,-11.992386237892788,-7.27470066776732
2025-12-12 20:48:00.159527,Right,-0.7230390304757748,15.113788409740664,66.23944840076729,21.881650807830738,30.327544942323584,13.587557763559744,24.184218453912763,27.462635013012914
2025-12-12 20:48:00.163529,Right,8.408054162398912,19.89821849379223,70.62474681835738,28.446409393742215,55.996546563124866,19.824095578253036,26.73721016541822,32.516927223594394
2025-12-12 20:48:00.167547,Right,-8.197948089247802,-0.8864522054209374,49.603144383378094,9.50753932481166,65.2717629428953,2.7723156666907016,6.226783094170969,14.656064134673215
2025-12-12 20:48:00.170544,Right,-4.289759782550391,3.702086686360417,55.73438556626206,14.929704569687601,55.126549026870634,9.411140145093668,14.443423731107032,21.450301546690753
2025-12-12 20:48:00.174577,Right,26.772296539274976,37.24097793371766,89.78386296296958,49.15725522572757,58.654852306091925,40.27981877682032,49.92026969452854,55.06368096105871
2025-12-12 20:48:00.179597,Right,40.979357696603984,50.84062955173431,100.78150037743035,64.2126816897362,83.45016660066904,49.697664105013246,61.50922586294473,69.3727568773902
2025-12-12 20:48:00.183605,Right,24.17579022984137,32.318069213302806,79.18299082187878,47.017430958745535,95.50064985187782,29.944752276031068,41.30114256456727,53.614772781176725
2025-12-12 20:48:00.187618,Right,16.266641943278955,26.080873396073002,72.07036274920392,40.76028001218219,81.11621597626072,23.994428331585368,36.36369392470806,49.36166951121413
2025-12-12 20:48:00.191657,Right,36.22644022028544,49.123848743067356,94.58298619906418,63.03936525594327,72.64684618833417,44.77920617102063,59.855050873651635,71.630495998892
2025-12-12 20:48:00.194648,Right,48.363510730385315,60.60989370624884,103.48248232598417,74.38783610620885,89.30625782691641,52.48257584456587,68.02767037504236,81.80153607626562
2025-12-12 20:48:00.198647,Right,31.987409758003196,40.97770868198131,81.07882873479684,55.10312050807988,102.89425847745588,31.874805137427757,45.22694526944542,62.10369124021963
2025-12-12 20:48:00.202671,Right,22.531622992741177,30.85773387082736,70.63736193535442,44.73050948992022,91.93761124908633,23.317650707787834,35.877852179983165,50.972267613658914
2025-12-12 20:48:00.207677,Right,46.66973438009154,56.72882353988825,96.93007854795724,69.80506636822247,83.0594437623804,48.65509342189762,62.94464008200157,73.10907696562936
2025-12-12 20:48:00.211691,Right,73.09751628516824,82.81688213261077,121.26839394855779,95.41898310060787,102.32961525266728,70.91470599225431,86.02886356682575,95.46735780677409
2025-12-12 20:48:00.215700,Right,69.6897301923018,77.43915073304379,113.46240850647882,89.63919583731331,126.30942780550686,62.01585500918736,76.10808038328832,89.32815940403088
2025-12-12 20:48:00.219713,Right,59.07883925549686,68.24219320568955,104.4884807014314,78.99937783696805,123.17301966479135,51.05490201621433,65.837017652957,80.43482865774422
2025-12-12 20:48:00.222730,Right,71.51777194223541,85.56302082526963,123.57995310306433,93.81089651466755,108.47464907592803,65.51308002811857,83.93770093892817,95.94116960006068
2025-12-12 20:48:00.226737,Right,86.97438958899875,103.52818822007976,140.99954055329,109.25286252373189,114.08174955000504,78.44749675581988,99.77752312850498,111.3859312676359
2025-12-12 20:48:00.230749,Right,75.46647531115741,90.18185570233618,124.925193792762,93.72380518534919,129.60992106156937,61.00709762975748,82.63095634194906,98.17788724963611
2025-12-12 20:48:00.234702,Right,58.14737254141073,71.48303011224198,104.9593782403972,72.77633099371451,125.05446574305006,40.792519832146354,63.49170424565091,81.32068380049895
2025-12-12 20:48:00.239770,Right,71.17502362646337,86.14046937912644,120.39227703358483,85.6277702186926,110.12860394678137,53.93111228966154,80.55795937484072,95.91951540224545
2025-12-12 20:48:00.243792,Right,97.65103853905748,113.57946653828549,147.74199136879906,112.97290285368217,117.42985513605163,78.18979854584904,108.11827851903217,121.6021486044483
2025-12-12 20:48:00.247733,Right,96.82653585572552,111.25504985032603,144.07323541926962,112.12229534822109,140.98450004727783,73.41614980473241,103.3876182791937,119.28345648914546
2025-12-12 20:48:00.250830,Right,78.1843194203393,92.79367014726449,125.96294067835879,94.9994657087882,145.76502537946726,55.06925040956412,85.08009772588412,103.09332042824099
2025-12-12 20:48:00.254762,Right,81.88132624562422,100.3443796049396,135.94132400966987,102.97676704122568,130.4382545342305,63.07338786100445,96.29833554439392,112.18342452561046
2025-12-12 20:48:00.258840,Right,102.81572738676914,123.98362948383874,160.51253936423564,127.0889512657377,127.27977053305221,85.38235421525314,122.08595499440707,135.66494420034724
2025-12-12 20:48:00.262841,Right,101.57446711644297,120.87867677640315,155.48260524536636,125.02907062308077,141.8656162101688,81.04495253659115,117.68700548309789,133.04175576073612
2025-12-12 20:48:00.267783,Right,81.09570323723892,98.16464779474336,131.3221080647818,102.87186943061897,145.80685625610204,59.19098210529046,94.59882792581266,112.27458987053251
2025-12-12 20:48:00.271846,Right,82.8892784398995,101.77377369793976,136.0252937684163,105.79273032470155,133.10665040115418,63.69241803007026,101.02670825374662,117.11379709969333
2025-12-12 20:48:00.275881,Right,107.41084871256317,129.14297573271688,164.27594671216139,132.16388583921253,131.00500256013765,89.86206727210083,130.54679353559368,144.31759914828945
2025-12-12 20:48:00.278876,Right,108.85215562790836,129.93815500158234,163.49672864320746,132.57622085282674,145.06015365183703,89.68671832198743,130.44192316779117,145.81245999828934
2025-12-12 20:48:00.282884,Right,78.95110451836081,98.30402817247796,130.1992937804971,100.49231677927855,145.57287023132085,59.784560893589514,98.35612131298183,116.09224270966456
2025-12-12 20:48:00.286928,Right,65.99750693902752,87.27821476991926,119.55096996607608,88.10286406935984,124.69809097335383,50.3394705415667,89.3265998852603,104.8977587800373
2025-12-12 20:48:00.290928,Right,91.00227554617231,116.07592735812887,148.17383577889268,115.33064048650431,116.5499937311688,76.41997631657978,118.23406523928315,129.9964831406487
2025-12-12 20:48:00.294873,Right,112.4421678862218,138.0814821383301,166.86217731314537,136.62222584633855,137.9373900287901,93.09868887041921,135.4903436548284,148.17789469944546
2025-12-12 20:48:00.299946,Right,101.8772562718541,125.42765759528993,150.5583043412189,123.69099783989077,156.4405320695805,77.84204722033246,117.83346580916623,134.6648621422064
2025-12-12 20:48:00.303974,Right,90.27395470973488,113.36945503647439,138.62545574543765,110.85453678727936,145.73700814058247,67.01760819600872,105.47542831595638,123.24123949329078
2025-12-12 20:48:00.307990,Right,104.03366988372909,127.76775907750198,155.85278314761672,124.35363955188222,129.11572134698508,83.03240837019712,121.70100312115392,137.52226982379216
2025-12-12 20:48:00.310975,Right,114.83110787710939,136.36144178939867,166.20744788003503,132.7971430585967,134.2050491222326,92.35844864002229,129.64678819085384,146.5079729252684
2025-12-12 20:48:00.314982,Right,96.0558744427617,113.74680089966569,144.2690473057737,110.3003306656392,143.85681434400612,71.84641775349155,105.72872364827344,126.49868664694804
2025-12-12 20:48:00.319034,Right,76.64426756736066,93.95999722662964,126.44895299899508,89.78920947827282,132.12538062829117,55.562998526511365,88.13558454041049,109.39600030300062
2025-12-12 20:48:00.323019,Right,89.77480520541212,109.79034720145864,144.236386704928,104.27502298021864,115.7906963234127,72.79328782946322,107.48008570690581,124.94188208678679
2025-12-12 20:48:00.328037,Right,112.53331430661638,132.51480940719193,165.135875466367,126.08425082316535,124.56701063545188,93.70263582887856,129.69438894172345,145.43214077471202
2025-12-12 20:48:00.332024,Right,109.26558208109054,125.27573386588483,152.66454935094225,118.20210811970901,145.5309640121268,84.93467563189915,118.79024853098963,136.96632721153583
2025-12-12 20:48:00.335049,Right,96.15110845460003,109.6992549244751,132.65865450771526,101.29607634203421,145.22195556538645,70.7017082648199,102.03874088726297,121.08665394649142
2025-12-12 20:48:00.339055,Right,105.9483070039496,121.13883874367457,141.71808162820525,111.24106567189301,128.3867017995508,84.79973385556514,115.84162431101868,131.64035605126992
2025-12-12 20:48:00.343065,Right,121.66584974685247,138.64437696123787,156.14029876561835,128.702841565595,125.51049719289585,104.62025476059353,135.0684253998479,149.0514848305029
2025-12-12 20:48:00.347081,Right,106.91053560013825,123.54664446003153,136.45170251576928,114.80615166461212,135.00034338672413,92.35896382760257,119.63063931274519,136.48332219851727
2025-12-12 20:48:00.351104,Right,77.69170218056388,95.25033240159974,104.71521144527651,86.82456486643059,129.16394106541702,67.15916102705523,91.71481194400985,110.74349942176195
2025-12-12 20:48:00.355048,Right,79.57043817848171,100.57077245414257,108.46732881989738,90.86367474449798,111.21654526953353,72.61730578001152,98.19591916968056,114.36726571682084
2025-12-12 20:48:00.359112,Right,108.1300766262575,130.01193095023336,135.3916857393342,119.20148093139869,112.98181232390925,98.05886322641163,125.82327349728439,138.59798387509363
2025-12-12 20:48:00.362127,Right,117.63632742405753,134.81251152502955,135.94493264795165,124.28484935546294,134.86965416016756,98.90545972438849,125.96386795584112,139.67427093668084
2025-12-12 20:48:00.367155,Right,102.61793930598651,114.53760516163311,113.03345539773,104.47552618785994,141.6472430197755,78.8504597853971,103.77712797380809,119.25295617479424
2025-12-12 20:48:00.371150,Right,103.4809532911022,114.85953846097982,113.82963625666162,104.22693714372872,125.16278358237469,81.912248010849,107.00877766034682,120.38112749540596
2025-12-12 20:48:00.375112,Right,127.92193766504352,140.85173754043353,139.87075766338967,129.5565735369746,118.30913832830265,109.44044946201029,135.70731771083956,146.45222027150157
2025-12-12 20:48:00.379187,Right,135.602520187982,147.44849319348577,143.33845557722088,136.67785840343277,133.83523887203773,116.78205879805319,141.3955807621678,154.1667777038674
2025-12-12 20:48:00.383204,Right,114.0515854767873,123.97991091218137,116.17386960682052,114.37583143681695,141.3607769163209,95.68190242552373,116.9448251020367,133.50012243067613
2025-12-12 20:48:00.387210,Right,102.2095382061525,113.47744324004452,104.62301722049597,104.75080897012958,124.17707996087847,88.10043532840791,108.43747331004124,124.660920731636
2025-12-12 20:48:00.390224,Right,117.65885073199752,131.3885440959275,122.55980273787281,123.72533150430536,109.62404759452329,106.54222167850821,127.74620281532407,141.3160898143833
2025-12-12 20:48:00.395163,Right,125.82899042093777,138.40097697719466,127.72579499082349,132.21577950760548,118.31830533084576,112.09896843291062,131.77997780572332,146.1964679165976
2025-12-12 20:48:00.399239,Right,108.89572216568922,118.40146719332552,105.05727670998021,112.40069252326794,128.2436106481182,91.38290421171405,107.32484624518838,124.86194437608356
2025-12-12 20:48:00.403250,Right,102.05921243120974,111.93675221958256,97.44942013059335,103.5289327976061,118.69898697827011,84.95840205036802,99.282826492592,116.13646195748879
2025-12-12 20:48:00.407249,Right,126.79252395492222,139.6124763450498,123.95397021209646,127.8724444260879,109.30265337991295,111.06059464211285,126.60680465618498,139.41597418559832
2025-12-12 20:48:00.411329,Right,146.6544664420653,159.35839194718574,139.79872740029532,145.87067616528657,120.89486064491211,127.8721927239094,143.6019885965943,155.3202621757373
2025-12-12 20:48:00.414325,Right,130.2785883084871,139.60377068110392,115.36061258829432,125.95886180257367,132.8657387154235,107.17492236438557,120.87594396606437,135.17008894658647
2025-12-12 20:48:00.418321,Right,107.12263470758626,115.12264275969937,89.41328972333577,101.23356193528161,119.24276028128224,84.72482476459118,97.6412032412918,112.22958033438772
2025-12-12 20:48:00.422326,Right,114.04134828395036,123.57410879575764,98.78993751162488,108.99082607522723,97.86369812133489,95.04582877368375,109.68896605537157,120.85226029119804
2025-12-12 20:48:00.427325,Right,129.86084119902807,138.68030099591124,113.04155122653174,123.98358874366386,99.06177005451173,110.1100421812589,125.41603379693697,135.11167294924962
2025-12-12 20:48:00.431331,Right,116.95530452126695,121.706540510786,93.21760752380942,107.51466338094906,110.18390042398823,93.52947702928213,106.60448544108658,118.9263193224615
2025-12-12 20:48:00.435341,Right,91.90703523150296,94.72342206217581,65.04225825390313,80.41821075046028,99.65866532502696,68.81377307912044,80.1629629843519,93.86377640636056
2025-12-12 20:48:00.439321,Right,94.03773654981342,99.23529693539604,70.60073545755586,84.05038175622758,76.2330148909241,75.0650826501369,87.53778150721337,98.58330322048278
2025-12-12 20:48:00.442390,Right,111.63951473266934,118.34008746725158,89.6607353156869,103.04960033716634,73.05531193863135,93.92150025386945,107.3220848491037,116.52648638340179
2025-12-12 20:48:00.446341,Right,104.53574319431209,108.73210036795354,78.17752191660111,94.87359225862019,86.68032391968882,84.75612937111873,96.22938044386683,107.50174194743158
2025-12-12 20:48:00.450423,Right,80.8990013730945,83.02303938241675,52.07043109742517,70.88541094874381,85.00074591877637,61.990442402573535,71.53120968253643,84.08133784326492
2025-12-12 20:48:00.454417,Right,83.724165907508,87.80378774023848,58.96987521220581,76.48078484859434,68.50832731748233,69.05416079383576,79.81259281661187,89.2695258242602
2025-12-12 20:48:00.459384,Right,110.09032484647469,116.389749688562,88.77328149987443,105.3766469398688,68.75547623896273,96.19250587960414,108.70615051507775,115.43806853031856
2025-12-12 20:48:00.463449,Right,114.11105814529583,119.05144572845893,90.03523621149361,108.29919552130741,86.72607559492462,96.11347679261235,107.01815898812492,116.03753555787262
2025-12-12 20:48:00.467467,Right,90.4718398018158,93.6825604190235,63.71664929254621,82.41802055708831,88.51834130325005,70.61112175229937,78.40500624186825,90.46519747958519
2025-12-12 20:48:00.470487,Right,83.00638377518044,87.94459747517249,59.608286444025,75.33299554983387,67.79670449940022,66.78810372151202,74.17135422216961,84.28757925596437
2025-12-12 20:48:00.474503,Right,101.84665769917774,108.75072535590152,81.88883245139732,95.81178446495323,57.88256346908747,88.93936481632409,97.63900949375238,103.96577021756093
2025-12-12 20:48:00.480521,Right,105.12463516552816,109.80712728385697,81.67626761952124,98.76450580378878,70.66205062388326,91.04623330880713,99.07482633911422,105.92220241163159
2025-12-12 20:48:00.483516,Right,79.35579023155151,80.57405821970315,50.684469591928064,71.98049138239003,75.9851094733458,63.88778414284752,70.27981023702887,79.98057111963863
2025-12-12 20:48:00.487538,Right,66.35720372875221,68.30147931131069,39.11025166425679,60.426265841932036,58.798286751436535,52.921647275667056,60.56442939880071,69.57636408272083
2025-12-12 20:48:00.492575,Right,86.40141196048353,91.52364254748682,63.79002451640554,82.7805877167848,47.36145725901588,74.09817100707733,84.87071615055902,91.05937768163858
2025-12-12 20:48:00.495588,Right,101.77827640672331,106.76050869154278,78.10705961906933,97.17903188752825,60.81051112062414,85.67149461929512,96.69341667208937,103.56953723810147
2025-12-12 20:48:00.499538,Right,87.063540567382,88.91717629026971,58.02299771839171,78.99109232379124,73.6184234333341,66.83684115792857,74.74602883850457,84.55859160912223
2025-12-12 20:48:00.502565,Right,74.39542835392058,75.3902944024303,43.84164114430314,65.20329054849572,63.060859451361466,55.44221151364036,61.1351195575553,69.95184621209046
2025-12-12 20:48:00.506558,Right,91.4279973146331,94.1843905908172,62.86801360914251,84.37903031377937,51.57159487949684,76.10943892349314,81.88362573622726,86.11520860204473
2025-12-12 20:48:00.510672,Right,108.97302233154187,111.29464650072623,78.74943173456995,103.36713252021582,64.50555638066726,93.83856448455481,98.81665064724803,101.38052391685778
2025-12-12 20:48:00.514638,Right,95.81184443397797,94.88432723382721,60.974243671487784,89.43776760838227,81.81880664607161,79.12908784521278,81.6226958775078,86.59743563702796
2025-12-12 20:48:00.519594,Right,77.53452097025001,75.2568643236591,42.80156007275218,71.00100847010617,74.31033091704012,62.26911282012588,64.26924079752644,70.02100778234308
2025-12-12 20:48:00.523661,Right,88.23520955085405,87.4044753657945,57.817827945313184,82.86163396123447,56.8354788463912,75.05712738627335,79.52311129281588,82.82250672901864
2025-12-12 20:48:00.526782,Right,105.05883109412389,103.63938268195488,74.1864539416274,98.96608520069276,59.2642677204567,89.65434209784144,94.87107587199716,97.85781984697678
2025-12-12 20:48:00.530734,Right,89.78238749547745,84.40313745080493,52.43630467502226,80.51937836944126,70.50593228719663,70.70688964992587,72.33730252552778,78.89951418625424
2025-12-12 20:48:00.534716,Right,61.69420370462467,54.19462349679088,21.122027304329094,51.001315933972364,61.13767142900906,44.33911445416743,42.18212120307726,50.42650862238952
2025-12-12 20:48:00.538740,Right,64.77590194990626,59.45093114962219,27.58931575906172,56.33226739455131,41.43461831955938,53.278488687152276,51.074980888093705,56.24972570268437
2025-12-12 20:48:00.542758,Right,87.57729176056455,83.83400389226153,52.15723039818113,81.30570869604708,43.88598786811053,78.73701208726561,77.79205614511739,80.4530228638323
2025-12-12 20:48:00.547725,Right,83.66732100478839,77.58727412010194,43.97055702494981,76.78387173877854,61.53167032569763,73.73845419261488,71.79163417233212,76.05500859458698
2025-12-12 20:48:00.551685,Right,55.41665713896509,47.38491809129482,12.809360733779613,48.22558902887977,58.49139300578099,47.25429644374526,43.76540671371913,49.13332456597709
2025-12-12 20:48:00.554690,Right,47.55748840322485,41.86906621797243,8.746772753278492,43.216696101851994,35.337573108350625,45.00972000708862,42.361233118281234,44.62062337617681
2025-12-12 20:48:00.558791,Right,65.3265228093951,62.598321597324684,30.556226034386782,63.826565682000364,28.954837888290058,65.32968174607959,63.80962040992745,63.330042850531754
2025-12-12 20:48:00.562784,Right,68.89898377089412,65.22404379946238,32.367356720540556,66.19831558935402,46.225078190953354,66.04885663388995,62.54372332476487,64.28856291106786
2025-12-12 20:48:00.566786,Right,49.519368751498405,43.470788384991465,10.579508485694532,43.43809858104214,52.1238317481766,44.861766588670434,38.112915864388924,42.97402971383417
2025-12-12 20:48:00.572832,Right,43.18146035177051,37.51506860104564,6.867196636056178,35.54312872988521,33.25674809177872,41.11907416758186,33.83334574435139,37.08287745976122
2025-12-12 20:48:00.575831,Right,59.84225968064857,55.225426491262624,25.98866704943066,51.67757859447738,20.487439482327318,59.14890473302512,52.96787851784029,52.67228531152068
2025-12-12 20:48:00.578855,Right,64.3292258233705,57.475947637227364,26.490570723210112,53.72022427507909,31.066256229722057,60.14493499606033,52.78496732129133,52.828125833242666
2025-12-12 20:48:00.582889,Right,44.58966451928427,34.607266040940885,1.6106277871876955,31.09140039634076,38.55011287955858,37.43692231296154,27.328310594559298,29.88824602117529
2025-12-12 20:48:00.586874,Right,36.261077124931035,27.081104964003316,-4.978642254325678,22.926824816604494,24.321405002163374,31.03972086965223,20.776206181399175,22.52206020244921
2025-12-12 20:48:00.590891,Right,54.724583843315486,48.5838036894711,18.44042557630746,43.36555821534421,12.042180312782875,51.85735041764565,44.01271509900107,42.84082239943382
2025-12-12 20:48:00.594845,Right,62.63513052689086,56.52205094235251,26.041447008574323,51.146184825498494,20.835370550921652,58.161953906703275,51.379282715992304,50.61385853905813
2025-12-12 20:48:00.598912,Right,37.50442344851035,29.13023484495352,-2.501173110642412,24.394938492463552,27.34924332369701,31.616993927542353,24.090778661338845,26.062483577348758
2025-12-12 20:48:00.602960,Right,15.296060521824984,7.323053718690062,-23.252224710289738,2.7838551672321046,9.679708324300009,12.713338725065114,5.956193513935432,7.10752706869971
2025-12-12 20:48:00.606966,Right,27.57869381456112,22.164479145169025,-6.61321262774436,17.167212621396175,-9.233974611983285,28.514211573899956,24.005814772477606,21.065098531995318
2025-12-12 20:48:00.609935,Right,46.753822830083664,40.87550869853294,11.316661760720308,35.628917840716895,-1.5204715774889337,45.384179449261865,40.666017153518624,36.74134355028218
2025-12-12 20:48:00.614900,Right,38.40306271708687,29.156932416080963,-2.451248467405094,23.90982464782428,14.93394119165896,32.50925342424307,24.6827933552413,23.967898709350266
2025-12-12 20:48:00.618966,Right,22.79659423349949,13.105939703556942,-17.812313028567587,7.3947578872030135,9.130022287397878,17.503787551657297,8.267865950751002,8.921791601474979
2025-12-12 20:48:00.622980,Right,32.93668003665516,26.91489312716294,-0.87657261442655,20.80574257907574,-7.235380108017125,31.847456802308443,24.84894981380785,23.017955754345166
2025-12-12 20:48:00.626988,Right,49.18319314108521,45.162252882902976,18.947584398978506,40.19853429913928,-4.469939764647279,48.8093848208955,43.64239059026295,41.03138597031648
2025-12-12 20:48:00.630999,Right,35.342437550541945,28.887122085056035,1.8829158478692989,26.333148012068705,7.937585648425738,32.05192619859008,25.4431036835158,26.212230704986723
2025-12-12 20:48:00.634019,Right,9.40830241990625,0.6802460469334619,-26.552463232037553,-0.3591238999943016,0.1806766244553728,5.341950440692017,-2.7369203257694608,0.03839341539423913
2025-12-12 20:48:00.638003,Right,12.679212360220845,5.137502236524597,-21.26506089754548,3.883323465124704,-19.973474969898234,10.361469427472912,3.959377146195038,4.0670052822097205
2025-12-12 20:48:00.641953,Right,33.283860409326735,26.973784012254328,-0.4900742830650415,25.213806748666684,-20.325871543609537,30.363344357174356,26.071898951937328,23.89584503749211
2025-12-12 20:48:00.647018,Right,28.340456286168774,20.48217824965832,-10.35040192573797,18.749122735694982,-3.9245805874015787,22.849942113331053,17.631718151460518,17.496315367432544
2025-12-12 20:48:00.651028,Right,3.450329843602958,-5.4172058116673725,-38.34381238235801,-7.6227000107755885,-3.8403523183515063,-0.9302562154625775,-8.158186826622114,-6.321455128461821
2025-12-12 20:48:00.654992,Right,1.9148351223266218,-4.785127073264448,-37.0227297864767,-8.347591420722893,-22.138512715122488,2.182594421421527,-4.959633655671496,-5.47675902346964
2025-12-12 20:48:00.659060,Right,24.854187397635542,19.574751891530468,-11.991452240246872,15.340708793344675,-26.008903558795282,26.463499207558925,19.72491728651221,16.527596398664173
2025-12-12 20:48:00.661996,Right,30.194108104915358,21.952797334219213,-10.300594847682078,18.836690600088332,-8.49693804475828,28.27711363241542,19.185272513510427,17.78583146474557
2025-12-12 20:48:00.666071,Right,11.001790135123883,-1.053906593544525,-32.51281345575262,-2.39138106633618,-1.2765480890520848,7.2879487702739425,-4.898449470259948,-3.432976770447567
2025-12-12 20:48:00.670088,Right,6.793861947313417,-5.566397568647517,-33.30058689951329,-5.808439439264475,-16.17498498709756,5.701287899457384,-6.449104106708546,-6.286222775830538
2025-12-12 20:48:00.674094,Right,27.326860429224325,15.579839058467769,-8.875681421242916,16.182298955289298,-24.604153070482425,27.24358008299896,16.85837833567348,14.428304864180973
2025-12-12 20:48:00.679096,Right,32.582845322351204,18.155099405208603,-6.275082157499128,20.049401042284444,-12.440926291717915,28.545775858365232,17.377033483920968,16.849393134878483
2025-12-12 20:48:00.683113,Right,8.119722407194786,-9.75511515600374,-34.824221080703865,-6.948623628268251,-6.245308326564555,0.9016197946330067,-12.916809273010585,-9.169014631974278
2025-12-12 20:48:00.687130,Right,-5.291148089876515,-22.48944966791896,-45.213473027031796,-20.003018371811777,-21.386831060954137,-10.481305173962028,-24.45149925622536,-20.330262898445653
2025-12-12 20:48:00.690142,Right,14.30665236619825,0.034218892324133776,-18.427773913908823,2.1373831725286436,-31.00171236071037,11.662092859798577,-0.05348445657728007,1.532464576230268
2025-12-12 20:48:00.694144,Right,28.73634106523241,14.055580712847586,-1.2038553385573323,17.44517389561952,-16.017504175382783,24.47116788108542,12.934072525968077,15.19456107786391
2025-12-12 20:48:00.698147,Right,7.942011837454629,-10.002012135082623,-22.550355271960143,-4.180981428682571,-3.3496859669903642,2.0371019780286588,-12.15433582629339,-6.356430582411122
2025-12-12 20:48:00.702216,Right,-17.4286090425594,-36.186255362707016,-44.67479936705513,-28.860865569084126,-19.106498876695696,-20.09413787764788,-35.46499689067423,-29.507920947384264
2025-12-12 20:48:00.707165,Right,-13.235722852536128,-29.832434834293963,-34.97174649369663,-22.422067329600395,-40.836521164528676,-11.838021864234179,-25.23400884631701,-23.191415626373782
2025-12-12 20:48:00.711233,Right,-1.1195487582299393,-16.99549253936857,-22.91101581530802,-9.622443768945232,-36.781567031266604,-0.681663691662834,-12.504895662634226,-12.691647332641878
2025-12-12 20:48:00.715227,Right,-12.626231203772477,-29.582299133347988,-39.027842081724884,-21.90803801286529,-20.91642145046353,-14.950121925081476,-27.465308076636575,-27.015991579872207
2025-12-12 20:48:00.718231,Right,-27.467356964451028,-42.948982489418995,-54.33665689839859,-35.45518842343881,-23.699490924824204,-27.89177942119568,-40.281668047231506,-41.752651810289535
2025-12-12 20:48:00.722232,Right,-12.438822056021309,-23.810772066899517,-35.25568402480644,-17.01055908278795,-34.9006208523424,-8.520222217564879,-18.428799554261786,-25.55884374940797
2025-12-12 20:48:00.726263,Right,12.691374118490785,2.4879413584421854,-10.57743508556905,8.999848567080335,-25.64769420835364,16.51941918412922,7.693406939499255,-2.5925178635079646
2025-12-12 20:48:00.730314,Right,8.010740262870968,-5.740497015067376,-22.26667409889069,0.7006877244493808,-6.7840077297332755,8.300091271965357,-3.486442514920782,-11.524472669596435
2025-12-12 20:48:00.735317,Right,-14.459606115568022,-31.207563194519025,-49.295767414825605,-26.00085280424537,-11.922711393979625,-14.273958285470144,-29.87556012847199,-35.54519149472617
2025-12-12 20:48:00.739341,Right,-14.05239762418205,-29.961383245048637,-46.42986021600154,-27.26940458343597,-35.59338223798295,-10.358467367470439,-27.343536450393003,-33.96206291756971
2025-12-12 20:48:00.743353,Right,3.4923238700139336,-11.499952328311338,-25.96058931700827,-10.694828681233048,-42.07913645149529,7.7884327579668025,-10.167460713408218,-16.47480597574031
2025-12-12 20:48:00.746333,Right,-0.8705460322817089,-17.85791581515514,-30.94805456242466,-16.828492741493392,-29.229368489097396,0.4219173140008934,-20.63636156623761,-21.98271188792569
2025-12-12 20:48:00.750320,Right,-24.158505266241264,-42.379650899543776,-52.158769479696275,-39.7022614635207,-29.44185614538401,-22.61120724657667,-46.4440581149247,-43.27158173132557
2025-12-12 20:48:00.754276,Right,-25.507137873617467,-40.995476118900115,-45.122942889072874,-36.560319589309074,-47.182817407080165,-18.625653317954857,-41.821933162183996,-39.638508792173525
2025-12-12 20:48:00.758338,Right,-2.29707660531858,-15.097160539291508,-15.278076258842702,-8.877927456189354,-50.34826089661237,7.870303268980933,-13.545738648652332,-14.131402139882994
2025-12-12 20:48:00.762361,Right,4.106085389415966,-10.547266838668293,-10.865732581953125,-2.2568379966032808,-31.343510899331307,11.660983589099487,-10.456035776303906,-10.216075416941749
2025-12-12 20:48:00.767408,Right,-15.511224326284719,-33.4648936288977,-35.13809587861397,-23.603305085482134,-22.58053595360525,-10.812046965860645,-34.37818710628562,-32.44530647742795
2025-12-12 20:48:00.770379,Right,-22.868237404996762,-40.524610116000986,-42.16576029552016,-30.278916958675836,-37.34806708531187,-16.89788215094086,-38.73014455907105,-39.36430236931483
2025-12-12 20:48:00.774425,Right,-6.6172401565054315,-22.326414286631916,-24.583706088251347,-12.035821066165227,-47.280386227776944,0.34617897461066605,-17.777786569293312,-22.531536399363176
2025-12-12 20:48:00.778361,Right,-4.169586026815523,-20.915988478631334,-26.40156290412051,-10.038764089520555,-36.716017907774585,-0.43393037415808067,-17.18821458902312,-21.6810266051707
2025-12-12 20:48:00.784453,Right,-27.473563697632926,-46.33251216095596,-54.9843323505047,-35.29057989998182,-29.910995694077428,-26.974727527336654,-44.3520772293723,-45.836826004233444
2025-12-12 20:48:00.787491,Right,-34.46745297153393,-51.43220956793448,-60.2178071719718,-41.933474970555835,-41.40508414006763,-33.235716697727185,-49.06190746844004,-50.680217833179995
2025-12-12 20:48:00.790457,Right,-5.420437790522556,-17.935491552700114,-25.624197324104898,-10.891508731137947,-46.31607280788012,-3.4911362852762977,-15.623791453244849,-19.552101452185525
2025-12-12 20:48:00.795419,Right,16.068380779706786,4.854826072541982,-3.480950429213408,10.291683672425279,-28.701912768117836,14.649291315301525,3.9078713131038967,1.2723706013466654
2025-12-12 20:48:00.798422,Right,-2.9028131036939158,-15.750284935220407,-25.163337984664395,-10.985831793270336,-16.222390955283117,-7.4120738012607035,-19.76439234618465,-18.216480737285565
2025-12-12 20:48:00.802481,Right,-28.878597979775805,-40.91102653789494,-48.915788393216644,-36.92806439598462,-32.82150149314111,-31.016371448415157,-43.703779758579,-41.40096888516382
2025-12-12 20:48:00.806492,Right,-24.45862161610785,-32.77457094964484,-38.02889246328414,-29.44237843839437,-54.57365659637799,-22.377048213656963,-32.69770060098426,-33.3949408135652
2025-12-12 20:48:00.810519,Right,-11.831393437718361,-18.758845210031723,-23.200641636914952,-14.740539449863718,-50.495089343661675,-10.106421417236561,-18.935697194505337,-20.07666142415215
2025-12-12 20:48:00.814529,Right,-24.193635537198134,-33.15325579061937,-38.25035093082988,-27.440532970636923,-35.3669714393327,-25.465946235057345,-35.174087347474156,-32.888764218295364
2025-12-12 20:48:00.818482,Right,-40.68319836379669,-49.90801579115123,-54.05386353256836,-43.44312808722225,-39.27935483392503,-41.23008894709528,-50.762043044538586,-47.32251017042063
2025-12-12 20:48:00.824541,Right,-27.097064963691082,-32.733227283911674,-34.61632823025866,-27.246874184022545,-51.6373618603393,-24.04773104114429,-30.554263904032723,-30.458327233373893
2025-12-12 20:48:00.827588,Right,-4.5863014459755505,-7.213777135420514,-8.699622638891015,-3.1151525593481892,-43.64104018915896,-0.920937150829559,-5.0369818625395055,-6.848388424913537
2025-12-12 20:48:00.830577,Right,-14.304030453742598,-16.90070221836686,-19.78502150276472,-13.635816469683618,-25.33253555133342,-12.564649053419998,-17.41462650938047,-16.46550014713921
2025-12-12 20:48:00.834580,Right,-40.85693809739678,-42.588110920692884,-45.10085400466778,-40.32887608504643,-28.269309821160277,-38.267383210397384,-43.63412554778279,-40.57594246085682
2025-12-12 20:48:00.838612,Right,-37.8115226125974,-35.76335586228561,-35.44050772751507,-35.06674662084606,-45.585190479225275,-32.60800467985882,-34.85140769831469,-34.24792993077244
2025-12-12 20:48:00.842613,Right,-11.084795668285551,-6.78585387801013,-4.644851128599839,-7.036921698567767,-43.19289885313265,-7.953019435558417,-6.056624965129231,-7.870142076697448
2025-12-12 20:48:00.846564,Right,-7.4567081384784615,-5.499581624593702,-3.9148560429239296,-5.363706207118412,-22.915712938385695,-10.868783337316927,-7.791736812261661,-7.70753076539404
2025-12-12 20:48:00.850643,Right,-29.388354055712625,-30.056556728912255,-28.291310440545203,-29.25945802089518,-19.43280706558653,-36.2490570586142,-33.42218474033143,-31.26865315602663
2025-12-12 20:48:00.853661,Right,-33.54199456232345,-32.99340248885983,-28.625288163013465,-32.05405822239936,-36.3094928141727,-38.564281265968475,-33.93991150056718,-34.28773719450692
2025-12-12 20:48:00.857659,Right,-14.440043086622609,-12.216132788309551,-5.671515999594703,-10.608060642003693,-40.812051928427536,-18.556190622701592,-11.621786417445037,-15.296643163404951
2025-12-12 20:48:00.861685,Right,-15.643297334893763,-15.487984521219914,-9.202833609946538,-11.940830896681291,-26.679884137483896,-22.313509054956057,-16.193695899797603,-18.640674808208132
2025-12-12 20:48:00.866626,Right,-46.72365601812703,-49.00923507489097,-42.99687131322571,-43.80088820412857,-26.114061570457125,-53.62128498040693,-49.90570074671268,-49.647856380892335
2025-12-12 20:48:00.870701,Right,-61.755906287423386,-61.58987555524436,-53.99616693092685,-56.72045285702916,-47.707441369137086,-63.83282006406898,-59.72382945736172,-61.17879232422638
2025-12-12 20:48:00.874709,Right,-40.275529416530844,-35.08537709855409,-26.715800346893957,-31.803234748065734,-56.50278264959343,-38.69048055834173,-31.930073952520615,-37.40961120439897
2025-12-12 20:48:00.878721,Right,-21.154953154481518,-14.164505085191195,-8.1894547523043,-11.94917935574449,-35.07011263372988,-21.23786430336986,-13.843189993142005,-19.707990498412983
2025-12-12 20:48:00.881725,Right,-30.319688252636297,-24.076785652694525,-21.002994245391164,-22.460545558169542,-15.099999535043025,-31.948609924688753,-26.31148490482883,-30.177712069951667
2025-12-12 20:48:00.885723,Right,-37.970206482012145,-30.161805829471632,-27.044668692309642,-29.906905871106574,-21.904001171955315,-35.94283289718442,-30.93307911046577,-36.07999499140351
2025-12-12 20:48:00.889752,Right,-20.03653398831557,-8.873928672164766,-4.138397178277955,-10.629453322075278,-32.25373633477284,-13.67668190976292,-7.81859023294237,-16.375233147118706
2025-12-12 20:48:00.894758,Right,-5.8189307815791835,5.699375539559696,10.497883981122868,2.520136745100899,-21.285916790628107,-0.04171185754967155,4.42830110948853,-3.315631408524496
2025-12-12 20:48:00.898759,Right,-23.29997861710217,-14.140143612548854,-9.849591851132573,-17.953901293094532,-10.025099445847445,-19.32709287988473,-19.30339235496649,-22.264085643273575
2025-12-12 20:48:00.902796,Right,-45.408636349906374,-36.33251192139505,-30.18806046388636,-40.67130751386139,-24.778634514164878,-38.77567140182873,-42.110010328709905,-43.27926835369726
2025-12-12 20:48:00.906802,Right,-39.21956019823665,-27.82462962137288,-18.532304600179486,-32.272526682972966,-45.78941636424133,-29.123898022413414,-32.39522868742279,-36.25874871854103
2025-12-12 20:48:00.909831,Right,-26.59172148306061,-15.723024158975022,-5.4408806473365985,-19.06035364163472,-42.60222247601632,-19.02548841222051,-21.69312855379394,-26.474480919692724
2025-12-12 20:48:00.913813,Right,-41.4370690917749,-34.6107307847451,-25.120768491025956,-36.37218278380533,-29.59682274347142,-39.60708025637905,-43.22926921128965,-44.75853306335921
2025-12-12 20:48:00.917801,Right,-63.52928494846128,-58.5190830285901,-48.29753467448609,-59.85989993060139,-37.45412342299824,-62.49972816924128,-66.12276147952434,-65.68849439855694
2025-12-12 20:48:00.922879,Right,-54.81955617584026,-47.20584298320318,-34.88532030212082,-49.20377995673698,-54.73324377825338,-49.652800513802504,-50.77446284405596,-52.443572894444515
2025-12-12 20:48:00.926865,Right,-30.781545251637,-20.937558353365603,-8.640163243733696,-23.226557895966835,-48.91862599164597,-23.331608779255475,-22.800880101563962,-25.847990257490892
2025-12-12 20:48:00.930862,Right,-31.89561312677688,-22.823907411129767,-12.867782270033786,-24.899226391014963,-26.885131563532923,-25.085932030207914,-26.22482694165228,-27.144845450515277
2025-12-12 20:48:00.934902,Right,-48.67607226898326,-39.47567807223459,-30.3010118323582,-42.0286981133213,-22.2087093703376,-40.3726568449747,-43.40896856557083,-43.37199636470905
2025-12-12 20:48:00.937896,Right,-40.656750031204865,-28.371467193177523,-17.30413831117039,-32.036060541697225,-33.67624309346138,-28.856973147849203,-30.854306737059233,-34.078197138798714
2025-12-12 20:48:00.941939,Right,-13.300401214863086,0.33087910254471353,12.341240679976181,-3.386447158874944,-29.552152440621285,-1.9775837760789727,-2.392866474339826,-8.204934261273593
2025-12-12 20:48:00.945863,Right,-9.45114128651403,0.6516302088966768,10.759352226661576,-1.377946493037598,-9.255495881268871,-2.581158688321011,-4.223599064545851,-7.9321584883582545
2025-12-12 20:48:00.949861,Right,-30.730617458211782,-24.321511817481223,-16.189834171345865,-24.489343419350917,-6.04306264231127,-24.830957232024957,-28.492370291845873,-30.04515864916175
2025-12-12 20:48:00.954938,Right,-35.373764414220204,-28.048258400594932,-20.12754921802116,-27.68583765704534,-24.834424411492364,-24.976288419413322,-27.740680481707386,-32.144520085646946
2025-12-12 20:48:00.958944,Right,-17.264158213158225,-7.584190563829907,-0.49319673723948654,-7.48604070258807,-32.29515965977771,-4.243937672486936,-4.760384459215857,-13.08635065688577
2025-12-12 20:48:00.961945,Right,-17.176907898116042,-8.663622028474492,-4.578959845923237,-8.683690591693448,-18.167860891699092,-7.48543640974458,-8.447469551414542,-15.837072444344813
2025-12-12 20:48:00.965946,Right,-43.8755031368637,-37.9835482484159,-36.238182980210695,-38.555100477642554,-12.838122693246987,-37.82176897059253,-40.91083487246215,-45.089727085476625
2025-12-12 20:48:00.969965,Right,-54.12154785927123,-47.65912091933933,-45.27608506526303,-49.786743220211065,-28.793741218156356,-47.23518370342572,-49.87542081474385,-54.42311098072241
2025-12-12 20:48:00.973923,Right,-31.808800596107176,-23.220376121003937,-19.80687008847599,-26.588888407794002,-36.837121545795526,-23.241068495524814,-23.344711076890235,-30.136799833999248
2025-12-12 20:48:00.977995,Right,-18.92510517777555,-11.236417252701358,-9.35046456973214,-14.08515975708724,-21.7374881747819,-11.206489893891558,-11.18945811726735,-16.57584692225646
2025-12-12 20:48:00.983014,Right,-38.707153326529806,-33.582483704405604,-33.88155597198056,-35.04680623226159,-11.784475875312637,-30.370185079878866,-32.9047355448638,-34.93252452812885
2025-12-12 20:48:00.987026,Right,-53.433952098694135,-47.8967348508595,-47.92342630882922,-48.974006689510134,-26.218324890069198,-40.19321172026321,-43.43974276572408,-46.48984281622688
2025-12-12 20:48:00.991029,Right,-34.605080433288094,-26.931494843156543,-25.551301823223184,-28.61404163374391,-38.50398521596071,-18.10772069363884,-19.028190372038807,-26.836563482909696
2025-12-12 20:48:00.994044,Right,-14.07423380909313,-7.703348134789849,-6.838527603838884,-9.73853237030562,-24.11960986370832,-1.4552590372077248,-0.9822350201866357,-10.68715665491618
2025-12-12 20:48:00.998050,Right,-23.49855873543129,-21.13244500818837,-21.76015309603099,-23.35829015474883,-5.4938783065081225,-17.026577107870253,-17.846736210871313,-25.786108627660724
2025-12-12 20:48:01.002009,Right,-37.3174995035406,-35.75430935963959,-35.8349945489972,-39.009102035117394,-11.514942940608307,-31.983641405702656,-33.42200325617887,-41.49672670310247
2025-12-12 20:48:01.006076,Right,-24.667193615954602,-20.010777891300677,-18.168271332127915,-24.533474268195278,-26.5686971471805,-17.579338301475218,-17.233148367995454,-27.92658449566079
2025-12-12 20:48:01.010096,Right,-10.237438614050916,-4.215049470316444,-2.1940065731905634,-8.534545162176073,-22.527818395399663,-4.714745276643953,-3.612161084158288,-13.617298963625217
2025-12-12 20:48:01.015068,Right,-26.377777323716145,-22.402178691925656,-21.625200819697056,-25.15607942824863,-10.782265251749777,-24.156253989491233,-25.165750342850515,-30.527087064037914
2025-12-12 20:48:01.018142,Right,-46.389317413646495,-42.81276066475402,-41.44079773408157,-44.61524070599262,-16.39925745459186,-43.19743221417957,-45.23463397871819,-48.85047640551056
2025-12-12 20:48:01.022102,Right,-29.420828314228856,-22.468706029125315,-18.614766093545768,-24.773197466376587,-26.84749605050456,-22.250092617228802,-21.500486937766254,-28.555457390466472
2025-12-12 20:48:01.026157,Right,2.647732423778507,11.788433317269664,16.568989834464446,8.7606864760819,-15.098391409323085,10.30870356790183,13.80506876155414,4.758664306260471
2025-12-12 20:48:01.030152,Right,0.0973963950164034,7.211247316219669,10.69749277318624,4.162032723535958,5.671929226235079,4.824932745770639,7.327904836798552,1.5975559416110627
2025-12-12 20:48:01.034178,Right,-28.76520967243414,-23.599370293748507,-20.39031139695726,-26.630954081563686,1.1187643878511153,-24.56340629137776,-23.592544491308217,-26.139261001255363
2025-12-12 20:48:01.038169,Right,-35.5260074016478,-28.735394985931634,-23.68941899749916,-32.1380561789847,-22.666086028584687,-29.46547133304557,-26.233824216898938,-30.25020251866954
2025-12-12 20:48:01.043207,Right,-18.161030262308486,-9.811689247049799,-3.759934693473042,-13.072761509625707,-28.34935294326715,-13.676837001661625,-6.794230078958208,-12.68389001453761
2025-12-12 20:48:01.046192,Right,-18.154310132282262,-11.992108835809631,-7.122074911749223,-14.232181932362437,-12.501326266305114,-18.505364941072912,-11.369732008191932,-15.099902746427688
2025-12-12 20:48:01.050195,Right,-39.707704458043736,-36.16909439992014,-31.89964770221559,-37.78476590034552,-9.176075684699754,-41.072255223687534,-35.887204892111185,-37.18280463885458
2025-12-12 20:48:01.055225,Right,-44.031808387706405,-39.31819242564234,-33.451362721847545,-41.58417233917862,-26.98260013195977,-41.07876884871803,-35.60030323424144,-38.66330468606611
2025-12-12 20:48:01.058213,Right,-25.795214281439257,-18.680478191250586,-11.708550141032902,-21.950968837729306,-35.393850582811865,-20.42466468632847,-12.86559071562806,-18.15968792347121
2025-12-12 20:48:01.062232,Right,-24.941582969549927,-18.61804942748131,-13.009183478934574,-22.442728726666246,-23.413542103437067,-22.700786993973452,-15.228921568224905,-17.929147305978404
2025-12-12 20:48:01.066257,Right,-50.17646439150121,-45.81052793523122,-41.37535430033313,-50.475633262736665,-19.30762953098747,-50.706089771487314,-45.32746482771472,-43.727318916535296
2025-12-12 20:48:01.070309,Right,-58.536198314861394,-52.84457651634875,-46.739743215744966,-58.991680238585104,-34.77238489140291,-56.79094523827007,-51.88388849552575,-50.38681433635065
2025-12-12 20:48:01.074320,Right,-32.91320855740196,-24.497978537074232,-16.012334395913058,-31.307715696450032,-40.53775521218631,-28.130835847834533,-22.251462211635953,-23.52576608484378
2025-12-12 20:48:01.077313,Right,-14.870515913054987,-7.35176392737776,1.1956133806961589,-12.88407285874564,-21.236813873088977,-10.711716182988312,-6.173187383297773,-7.023320712869463
2025-12-12 20:48:01.082306,Right,-30.540333300989005,-26.35305876073835,-18.630331576117896,-29.950716037550592,-6.7138586032015155,-27.201106503256597,-26.254577282059472,-24.48585031352559
2025-12-12 20:48:01.086313,Right,-45.14265611321753,-41.383450130495476,-32.51816095501272,-44.268242329824716,-19.14391918633919,-39.26777959527317,-39.878765851215576,-38.89080650843971
2025-12-12 20:48:01.090327,Right,-28.061891406694485,-22.025796555120905,-11.340230187874113,-25.247570369494497,-32.44047460689035,-20.666772638680413,-19.95764488943678,-22.39968528594909
2025-12-12 20:48:01.094350,Right,-7.044161860139866,-1.1137421553285094,9.071942716029298,-4.4378783583888435,-19.44879203416349,-3.628488686925266,-2.7421624318449176,-5.242437330278335
2025-12-12 20:48:01.098425,Right,-13.551322144863661,-10.524355287976505,-2.1356983886798844,-13.68408310898667,-0.6340729047078639,-15.002048002636002,-16.33301358292374,-15.430121959216194
2025-12-12 20:48:01.102369,Right,-24.083601139900566,-21.994070640466816,-13.525001699585118,-25.268955596373416,-5.144728499246412,-24.81203793487657,-26.807276434832602,-25.304524458835658
2025-12-12 20:48:01.105340,Right,-7.74453501230164,-4.015200177636871,5.873215191575582,-6.78431161831395,-17.872429303039098,-4.912338254533097,-4.381608658608457,-6.206309905886883
2025-12-12 20:48:01.110396,Right,10.924729315116565,13.9690118753133,23.600855666845746,13.689745250907436,-10.761480154025776,13.4063684995308,15.505881165139726,12.660341707894986
2025-12-12 20:48:01.114455,Right,-4.50352543873305,-5.439718852365331,2.7104721715149935,-1.9988489246970857,2.7342411624194938,-4.927048368936084,-4.9543569036904955,-4.370254387111345
2025-12-12 20:48:01.118485,Right,-31.245019721245626,-33.98439160763519,-25.27151297758246,-27.956240004314168,-5.91248550068849,-30.63639552949826,-33.16916301825404,-30.682609526273154
2025-12-12 20:48:01.122453,Right,-23.26840981341229,-23.229552597353177,-12.057304922374897,-16.61797298586316,-22.859517600889376,-18.3004434242539,-20.59746005471243,-20.898379937338177
2025-12-12 20:48:01.126431,Right,7.816689119299554,10.316835675854236,22.096262814731745,16.862400979378435,-14.009966143050406,13.993012780461868,12.246000077160716,9.792934205346683
2025-12-12 20:48:01.129476,Right,13.410229896046076,14.589628530484333,24.292697110598965,21.370510309650854,11.056604846999107,17.37557618032224,13.712936499807256,13.622064046896412
2025-12-12 20:48:01.133436,Right,-8.537624720433087,-8.869653166955686,-0.4404767130945402,-2.3424926346197026,12.189037177799037,-4.110297071001696,-9.725727594614,-7.392856090555142
2025-12-12 20:48:01.138522,Right,-17.46996201643924,-16.315043421971495,-6.792451566252566,-11.037500248086872,-12.07653864396707,-9.397313283057883,-13.832129723148682,-13.125658521246805
2025-12-12 20:48:01.143643,Right,-7.008284980067401,-4.6424890186754055,5.543962557723717,-0.5254547778677079,-23.374006929967436,1.537068990910484,-0.5468659484176897,-1.7714668254338903
2025-12-12 20:48:01.147611,Right,-9.566662426517723,-9.34312392299762,-0.545742529360723,-5.513839335995726,-10.73886840173509,-4.796301167050842,-6.778417319943401,-6.332050877004804
2025-12-12 20:48:01.151554,Right,-26.395713941630675,-28.271009027419495,-20.561215529945912,-24.80056539731595,-4.179747792251874,-22.86052915279288,-25.71996527184092,-23.914599113144504
2025-12-12 20:48:01.154562,Right,-21.068633883936855,-21.51306743038731,-13.39743097900282,-19.356344952822838,-14.656624258896045,-13.980820827644493,-15.770933704123308,-17.375953331960773
2025-12-12 20:48:01.157584,Right,8.69056165524671,9.647179255902302,16.76691493767794,10.372109406591335,-15.473383350639779,17.36334307885045,16.836753093408333,11.175768179571605
2025-12-12 20:48:01.161616,Right,18.44787865745093,16.095255383457697,19.11450851628615,16.22056567081745,1.8020382165850606,22.908405411537387,20.314594874031172,15.962145119578054
2025-12-12 20:48:01.165597,Right,-5.251190322516777,-12.764719587488798,-13.739914984696952,-13.174447203229647,6.9005343216631445,-5.082879485547892,-11.244928397703916,-11.865169784465252
2025-12-12 20:48:01.170615,Right,-19.401647023161786,-28.08276832444244,-29.824131187015155,-29.86583750792488,-12.77544797207156,-18.619724891352234,-25.028173818871437,-26.20803986925239
2025-12-12 20:48:01.174614,Right,-2.5765535098398686,-9.439348046198575,-10.529858673795388,-12.36465667763332,-26.40075134885774,-0.034188769990578294,-3.7073306108868564,-8.287555745559075
2025-12-12 20:48:01.178645,Right,6.9726903292685165,-0.4115255382748728,-2.358056404740637,-2.779291498060047,-15.10310496686725,8.081071381075162,5.455127176315727,1.0347812219770276
2025-12-12 20:48:01.182587,Right,-15.725757836422417,-25.73808927940263,-28.94855039916729,-26.638242647764855,-5.651409595935547,-16.041340801231854,-20.00512339418856,-21.46393589876243
2025-12-12 20:48:01.185652,Right,-34.54904013259511,-44.592334567965736,-47.22410383681199,-45.10409517012158,-19.56274344691701,-32.673089727970364,-36.414807236498746,-38.44253021361874
2025-12-12 20:48:01.189613,Right,-18.221433627630176,-26.109072644103435,-27.956149933841516,-27.510266668010445,-32.34128517331919,-14.881472892186139,-16.107314275282988,-21.99327398157766
2025-12-12 20:48:01.193678,Right,3.2303912121824396,-5.541275103918451,-9.228872896845132,-7.641458448189951,-18.89569794765339,2.183269811208447,1.6588830632281315,-4.563056716840947
2025-12-12 20:48:01.198705,Right,-4.684827605953615,-17.54742352127505,-24.034946987379953,-19.559290947443515,-0.711690092630306,-11.830471841924009,-14.706036953419243,-16.584068663254584
2025-12-12 20:48:01.202640,Right,-18.080856292868702,-32.386545870118425,-38.780103388598945,-34.21090623453347,-6.667231646948494,-25.872522424455383,-29.82742291095201,-29.10436862435381
2025-12-12 20:48:01.207707,Right,-2.4125085317100456,-13.6769153653986,-17.75684736435869,-15.4431861307894,-20.238599231495755,-7.023068730428349,-8.571114418136858,-9.286048150490387
2025-12-12 20:48:01.210749,Right,19.58948024844358,10.98512338243745,7.36583503294969,9.537991375793354,-11.61654766880747,15.63223335843577,16.027642046512483,15.134497842635028
2025-12-12 20:48:01.214740,Right,8.36806257662829,-0.26144437581388047,-5.700729837342806,-1.6092861654506123,5.78135483463484,3.3971735469785926,2.2691876308017527,4.420627686908119
2025-12-12 20:48:01.217740,Right,-17.90546291994542,-25.436824015851016,-31.53621345483407,-27.782150292132428,0.755490145598742,-20.022446576982475,-23.062226317008026,-20.22467873308051
2025-12-12 20:48:01.221753,Right,-15.431095644365996,-19.443414466222748,-24.4084841277363,-23.047255031626264,-16.713592717653228,-12.451958944569924,-14.723311926762108,-15.875170815499587
2025-12-12 20:48:01.225769,Right,5.350916845545726,2.2532047888889792,-3.075970350204443,-0.9198078079389234,-13.98007008283821,8.467657477493049,7.19081340782941,3.5062554712094425
2025-12-12 20:48:01.229751,Right,1.5363425500763697,-5.649348938066396,-13.78890687859166,-6.647788465823396,3.465666252272058,-0.31569140107421845,-3.113516199115111,-4.073421177236014
2025-12-12 20:48:01.234801,Right,-21.40613365889294,-32.31372869561892,-42.57525472779162,-31.57891765111708,2.135412615178211,-26.05505578220982,-30.29547197089414,-28.697369982739474
2025-12-12 20:48:01.237810,Right,-21.324930277860403,-31.094983526709257,-41.43583266958922,-30.405287919129478,-17.538044054890634,-24.623905935633957,-26.993505254802585,-27.843764066867152
2025-12-12 20:48:01.241825,Right,0.8976714817254106,-6.299570217310247,-17.23539293214526,-6.325840942688956,-21.838800336583517,-2.7259832229501626,-2.1463045334203343,-6.2240917668859765
2025-12-12 20:48:01.245835,Right,3.5820603132124234,-4.004659925005399,-16.995721485660397,-4.0242358257492015,-5.400473612706264,-3.766992368386127,-3.004312221932196,-5.942081821125612
2025-12-12 20:48:01.249847,Right,-16.81341224573589,-25.29863879793629,-38.728247874985755,-24.944440535855392,0.34631617625746003,-25.116128016225048,-25.873399558902747,-26.550934386672452
2025-12-12 20:48:01.253859,Right,-18.379945686212523,-24.47194450823372,-35.23592633939734,-24.239417187178333,-13.211251792479743,-22.19459565334182,-23.03012009187296,-25.265036418732052
2025-12-12 20:48:01.257878,Right,7.396109435947437,4.193104611138551,-4.0729207097501785,4.220241909828474,-16.333203591466372,7.548679657698813,6.853408849889092,2.3892286643949774
2025-12-12 20:48:01.262889,Right,17.558178122120808,13.263192485075706,4.870088125777329,13.768347719342273,1.4576980487781839,17.52519086344546,13.898541517188278,12.04682152672649
2025-12-12 20:48:01.265874,Right,-4.126246821921086,-11.131511685685837,-19.66519463520126,-9.850061237972113,9.883519719938704,-3.3201264179042482,-11.40379028848838,-8.529814095703841
2025-12-12 20:48:01.269838,Right,-16.864694980156855,-23.155858456055284,-29.046559363971937,-21.342825106001328,-5.287698196571,-10.604906218162796,-19.785802879681796,-16.563639626245276
2025-12-12 20:48:01.273900,Right,2.6201007386207493,-1.095188119357772,-3.52331702680749,1.7293008171727706,-13.278828036292907,13.13558267006556,6.615558073382999,7.127780869193884
2025-12-12 20:48:01.277918,Right,18.41374901962081,13.805829392356827,12.835328463800579,18.732977415045752,6.6312510155567,26.564195173228654,21.92940540833297,23.114610683509454
2025-12-12 20:48:01.281953,Right,2.8480099931311997,-5.503910048351827,-5.499759510724289,1.2232927611057676,26.704918432931663,6.551778510069198,1.1774755832248047,6.140414022333061
2025-12-12 20:48:01.285967,Right,-13.358434640775158,-23.032927085328993,-19.750251486545494,-16.670510993544667,20.3049090528566,-10.014603054638428,-15.75340857462652,-9.906717064099212
2025-12-12 20:48:01.290948,Right,-0.008577896471251734,-8.315692960784872,-0.9248416567265849,-3.97078202603916,8.427616282596318,4.115638460998525,-0.15416647305937659,3.4429782194110885
2025-12-12 20:48:01.293909,Right,17.25436454665214,8.368676739339207,17.2450209067606,11.213432997335985,18.83155927471762,17.75152289911057,14.278150620437373,18.12154229293992
2025-12-12 20:48:01.297969,Right,8.043203793410612,-3.441091412636524,4.786636898471443,-0.878287565030405,35.28097158005676,3.4534830171724025,-0.6281009030244604,6.17987788553819
2025-12-12 20:48:01.302047,Right,-4.790729414934503,-15.789553139731652,-7.280770657728851,-13.436634654419322,29.753263598636295,-9.62974169433619,-12.662827969688806,-6.3682097326072835
2025-12-12 20:48:01.306011,Right,9.649843619835337,2.7781215799877828,12.084528105751815,4.470152253130436,15.055764412965345,7.382836233641683,7.753043557448109,8.990975422213523
2025-12-12 20:48:01.310030,Right,29.434741241702795,24.54995240190692,31.973745696792776,25.921007537803234,20.01825582382844,25.873299067216067,27.937681784213964,26.10261154170894
2025-12-12 20:48:01.314046,Right,19.87499790851689,12.515789276245414,15.639740524738954,14.109841497388516,35.33214366531092,12.089624440347507,11.907784585832815,11.57411319143148
2025-12-12 20:48:01.318082,Right,-0.06768259226646478,-9.67880884238366,-9.539012761639242,-8.204755475170714,31.8958077769164,-8.201701375770426,-11.269363820604667,-11.162835755597825
2025-12-12 20:48:01.322005,Right,9.410791671172774,0.5901504539888265,-0.12467900481624383,1.4952853827071522,16.752855059756882,5.115209271137246,1.2498300098304753,-2.364852956417508
2025-12-12 20:48:01.325026,Right,34.971796738427656,26.186513151879808,23.76370051136928,27.24723964531495,19.968216407524324,32.497338535461495,27.237993068668857,21.082534533676153
2025-12-12 20:48:01.330085,Right,32.0180149290527,19.865176964725833,14.363924519169814,22.174496761206683,35.84195335298352,28.4873960191494,18.482541441389003,15.003918622854144
2025-12-12 20:48:01.334116,Right,5.0988202425969575,-9.833535839128672,-16.23995394940721,-6.471383019490531,30.838057500701552,3.3387901435867207,-11.79092713709315,-11.987234114593422
2025-12-12 20:48:01.338112,Right,-0.5325940008146972,-14.08000078465102,-17.883271501672425,-10.576274669694612,6.1848749540813515,3.1127251670984606,-13.418273539355368,-14.32534426482016
2025-12-12 20:48:01.342143,Right,18.683611737653337,7.368007690763989,6.191862715251773,11.369833526520779,-2.173924058560715,25.06092872520867,9.249662708781102,7.544417329840371
2025-12-12 20:48:01.346099,Right,20.49137345306258,8.110577571817885,7.17554323861259,14.068806388449957,11.927422128555463,24.817695666954933,7.9234478825966335,10.066703715176118
2025-12-12 20:48:01.350160,Right,-2.160019205341314,-16.62771255327425,-17.44540977078759,-8.298805851515908,15.250762983358527,0.9721637749071306,-17.778460411508604,-11.031992038220778
2025-12-12 20:48:01.354173,Right,-7.34125835436646,-21.282270019066345,-20.18169702906016,-11.636640022234943,-2.3998611870511013,-2.123700375859812,-19.74719194197678,-13.408190031240792
2025-12-12 20:48:01.357181,Right,16.409732318972146,3.1376824963222134,5.601906710820913,13.434669024297818,-10.44931051954336,21.35379320810536,7.130756056665177,10.867149620115924
2025-12-12 20:48:01.362179,Right,27.688365124805784,11.543746782004519,12.668092340582007,22.89949853142707,4.211537377473178,27.144073693261817,14.842408404673279,19.745870593859763
2025-12-12 20:48:01.366150,Right,9.227322668171723,-10.010316234984316,-10.614122349183162,2.309652715422999,13.172272308127503,4.3902393575757515,-7.303616424506345,0.6365591591575139
2025-12-12 20:48:01.370228,Right,-0.30514077962300235,-17.303058842235227,-17.433103843843128,-5.310261903694027,0.7946034898905054,-3.2763609640463756,-12.495445254086007,-5.425935671350999
2025-12-12 20:48:01.374222,Right,21.690074955512955,10.145319844416008,10.738248311805364,20.932851160076098,-5.462517495671818,21.52735260942609,15.86826392457715,19.712538116425094
2025-12-12 20:48:01.377231,Right,40.12471364461476,30.60301594987459,29.343352192616294,40.65831505084134,13.465545704168107,37.675961186302175,32.407408561982265,36.86031016877314
2025-12-12 20:48:01.381234,Right,26.75598003273126,15.525762530605789,11.557962794729974,25.192158148047383,30.070915351137955,20.135508157128243,12.257764402989778,20.41948511681767
2025-12-12 20:48:01.385315,Right,10.149218985835887,-1.1402647944187265,-5.213744412874803,7.378188506079823,17.926642775419168,2.7146278583754793,-5.309193307586611,3.1895615199118765
2025-12-12 20:48:01.390293,Right,19.82743505577355,11.024598826804777,8.787047787474876,18.066723148631354,-1.3248041206879861,12.428396565091134,8.756931483817425,13.844486242733183
2025-12-12 20:48:01.395304,Right,31.221647887504332,22.936807600616703,21.329389063415874,29.661597800898562,2.1116704769374337,20.307294696992813,20.83939324007588,25.027133060209962
2025-12-12 20:48:01.398314,Right,14.832780616861783,4.422718947063913,2.3992175966013747,11.750057786186517,13.772955960026593,0.1561870851387539,1.2716931842878694,8.240754297226886
2025-12-12 20:48:01.402327,Right,-3.8625398457998017,-14.149049674952039,-14.947815437219106,-7.120802263778387,6.426398969459115,-16.805055804326912,-16.105488519348,-8.767438483988371
2025-12-12 20:48:01.405316,Right,11.509118496237534,4.946330911946461,6.601898197790433,10.318413202070587,-5.785810474548271,3.135466091373928,5.1179293761488225,8.525605859422285
2025-12-12 20:48:01.409309,Right,40.36284998943438,36.25655783217371,38.46582143799969,39.99265978078074,6.31358627832924,32.18580513574216,35.037573784740744,36.32505498206956
2025-12-12 20:48:01.413252,Right,40.194294895071835,35.38484152472574,36.32784573172103,38.09514125487476,29.380301715505993,28.358286890175805,29.973915778862647,34.068294878561574
2025-12-12 20:48:01.417338,Right,20.783362185734404,16.94854544028749,18.35854504571398,18.35858879407897,28.15802342997813,8.213311487339524,9.762968814702617,16.40409183842894
2025-12-12 20:48:01.422333,Right,21.18151449447123,22.305404065360563,26.655136608565954,22.09473111404077,7.664119967826991,11.426264482151964,16.665134107810445,22.118700654284112
2025-12-12 20:48:01.426369,Right,34.342495998464074,39.147391234424504,45.60574150661705,38.41724870182588,1.9735589712854562,24.925989027311516,34.17518519696023,39.161843498985036
2025-12-12 20:48:01.429303,Right,21.974073846455212,25.437182052959542,32.02903068732121,25.757494916741052,11.72713339055008,9.727079635421433,19.52477453260508,27.961188614408456
2025-12-12 20:48:01.433347,Right,-8.497798864413198,-7.000107339354145,0.7785594689121353,-5.471356939426187,7.025816232262514,-20.48480796545391,-11.149739813605265,-0.2255304664358846
2025-12-12 20:48:01.437383,Right,-11.645975076237846,-8.290147221690859,2.972479283118446,-6.356628091400125,-11.925056382442563,-19.12438078802188,-7.297499463677013,1.0153509462506918
2025-12-12 20:48:01.441389,Right,15.791551948645974,21.558278554664867,35.45248914236436,23.78732045806464,-11.59634195279068,10.18276361628432,25.64264227786407,30.76071070557009
2025-12-12 20:48:01.445419,Right,30.025159868584524,34.45982908337828,48.37151846277993,37.217889941652174,13.289881756278191,20.98132472335965,37.036078829209146,43.52589265340794
2025-12-12 20:48:01.450433,Right,17.59753915751935,19.877448329209074,34.13997306780948,22.251085191406673,27.091140226542848,6.2254143184991335,20.801037276765783,29.813176963121805
2025-12-12 20:48:01.454435,Right,12.29992056836636,16.244263316057186,33.35377453487308,16.67849301226306,14.212502773649248,3.5209536627244233,18.57986650329258,25.776045539067127
2025-12-12 20:48:01.457386,Right,25.12278284391232,32.2656562134016,51.887136159937654,30.505629585173665,3.0024147672447725,18.568880749599884,35.70440146258079,39.25824097243458
2025-12-12 20:48:01.461451,Right,21.90889278033046,28.903821951609643,47.72034140796313,26.174356047744368,10.472605538252537,13.325411771726976,30.222194932703133,33.97970026779876
2025-12-12 20:48:01.466424,Right,-8.254832481587073,-3.0649268689121527,13.553609021488228,-5.837146654401295,12.536123203466559,-17.997340872761924,-3.7623389011823747,2.2351850545637717
2025-12-12 20:48:01.470479,Right,-23.644353316654815,-16.665638518506967,-0.5641449194299639,-19.535676574527315,-4.888973421020637,-28.901141954129344,-15.964517829670513,-11.604178239493194
2025-12-12 20:48:01.473448,Right,-0.3491587813723527,11.21310437181819,27.368517030859948,8.571358352030074,-13.028706182933092,0.29505850193072547,13.872824984449835,13.846138089698798
2025-12-12 20:48:01.478504,Right,24.30321968885346,37.9175188023346,52.33822405522369,36.77103824952064,8.649945319979452,27.06018010052776,39.7540627524686,38.86902969444782
2025-12-12 20:48:01.482545,Right,16.789322301462562,29.65610024000307,42.2963988694537,30.60469414887484,31.803438157443452,21.000876793523275,30.507766579739837,32.395183142099995
2025-12-12 20:48:01.485561,Right,2.3306080641177687,16.083249794930452,30.08865689423692,18.19726476115102,26.406177190121525,11.73103472785715,19.161953959635866,21.731199572041078
2025-12-12 20:48:01.489547,Right,10.910973072365778,27.107823208876653,44.39029791817302,29.490536326973597,10.255398858127592,24.923283297032867,32.788580951346376,33.43091061440646
2025-12-12 20:48:01.493505,Right,18.92563915089613,34.43321466843554,53.2271352275493,37.24399561590508,11.837858936050907,30.661530640545607,38.676726439654885,40.26506860869631
2025-12-12 20:48:01.497580,Right,-2.9312426407177554,8.787074397365359,27.529527565522585,11.777705242566299,18.447689105174504,2.975253009698463,9.543673399752151,15.440952800676314
2025-12-12 20:48:01.501618,Right,-27.443928659856283,-17.024115448435623,3.279812508430041,-15.524494836787198,5.537255547806126,-23.139120178708254,-16.82558579408942,-9.640180106638581
2025-12-12 20:48:01.506551,Right,-15.721212007839313,-2.636876541248057,20.703554162260843,-3.9151818623686268,-11.468232327617443,-9.426536482302254,-0.9194081164096133,2.6925949096112163
2025-12-12 20:48:01.510634,Right,11.718878486096855,26.39408487368928,50.802067693992285,23.28551150774001,-2.9297920550125127,17.187919674573095,26.896912362870353,28.30827482706809
2025-12-12 20:48:01.513581,Right,10.499456703944816,23.38784945610678,46.27972393520031,20.422878704681352,19.001214737025293,12.53232482601561,20.260284733700246,23.857702171331766
2025-12-12 20:48:01.516581,Right,-10.599556393864077,1.4572021812782623,23.23487276877131,-0.5743958242455847,19.506831608290668,-8.664344193442048,-2.7407607082168397,1.9979786961084756
2025-12-12 20:48:01.521646,Right,-11.174244382993948,3.562510680007108,25.346437305684958,2.23120799656499,2.0850990275612276,-6.092537301031371,1.445645601274009,2.852611721984431
2025-12-12 20:48:01.525707,Right,5.726010450254762,22.447661753980356,42.55688874817861,21.92371758434456,0.8380799776277854,10.760184311171543,20.982420954278496,19.64075586736726
2025-12-12 20:48:01.529691,Right,4.695676606924735,19.572119353408198,35.834600765148934,19.96849359706175,19.124840097912966,5.774951565377705,16.378726467075467,16.94885841719588
2025-12-12 20:48:01.533640,Right,-10.678902873221887,2.4728171992428543,16.303073770657647,2.787684518043534,26.50129814439424,-10.638829449439072,-0.41583490400444134,2.213299101946177
2025-12-12 20:48:01.538641,Right,-3.0989106073898256,12.178573645116558,26.625384973245673,11.029883112136304,17.10510294433334,0.6864792467213192,12.70976580765273,12.80391045239594
2025-12-12 20:48:01.541733,Right,25.805387837599937,43.49565385310416,58.47538939165679,40.83776191656216,19.291875148886902,31.385650217037437,45.768744515451544,42.47348401884301
2025-12-12 20:48:01.544735,Right,32.753984596914506,48.79825522788815,61.99011323893501,45.69873574371377,38.79159141555647,35.08605904034721,49.21465666703443,46.92075047745675
2025-12-12 20:48:01.550754,Right,8.468534047966386,21.68941795948922,33.1895339909679,18.614921560598304,43.78456004061081,8.441965882968361,21.16034512589249,21.498602164745535
2025-12-12 20:48:01.553746,Right,-6.674084310167018,7.221493582666881,19.367461923138762,3.9131211112362507,22.465038503840333,-4.444248434267138,9.088871586031019,8.39366926747607
2025-12-12 20:48:01.557701,Right,4.471998822271871,20.35163392643517,33.317993536293216,17.254642646301363,6.558768076833076,8.420481104647479,23.649260205376777,20.38155876622477
2025-12-12 20:48:01.561796,Right,9.295288686850654,23.785718761660974,35.30423302837153,21.91562226393944,16.13432697563985,10.367935730228055,24.36454171117657,22.36901143873183
2025-12-12 20:48:01.565788,Right,-7.491163573477479,4.209549596020224,13.855406694252451,3.3169621707293118,27.20738291228554,-9.142800513100156,1.7693024222608074,3.0909854824749345
2025-12-12 20:48:01.569804,Right,-12.129463167980248,0.5283835514637758,10.364618115825579,-1.0208446857541276,19.897694579620293,-11.647207752093891,-1.0738573226080916,-0.3789665310723649
2025-12-12 20:48:01.572810,Right,12.272685395357712,28.222220128343906,38.540776261383144,25.14673503963968,14.306100997589965,15.543173582242162,28.73930296844628,25.822169357761595
2025-12-12 20:48:01.577761,Right,27.288487182149765,43.33530532097939,51.74031340172951,39.43233632869669,27.555628019523283,28.60698698302076,43.17407557323895,39.95025880643152
2025-12-12 20:48:01.581826,Right,5.777359927296857,19.21149848875575,25.069040494934598,14.924684616544255,36.482731887095724,3.7727317726612455,17.479922132490174,17.23106858873507
2025-12-12 20:48:01.585847,Right,-17.70353367298503,-4.3822661872764,1.537089113604452,-9.882859272558562,19.261923509824555,-18.85229082803653,-4.800818643529055,-5.0534890745038865
2025-12-12 20:48:01.589869,Right,-8.033039256785969,7.451113956125482,14.698467784139211,0.3538240002890234,-1.6604912329203216,-7.032235839906207,9.279232385913929,5.242005844818777
2025-12-12 20:48:01.593890,Right,9.87459715499267,24.47368454788011,30.544712187329424,17.162287029881554,2.9193386206425203,8.670564603457933,25.345038178536925,19.84793967167934
2025-12-12 20:48:01.597870,Right,1.9771918976175584,12.533136099566036,15.509257550671464,6.642546068140291,19.162426689792483,-2.95162895192243,11.028873404204205,8.040693222472328
2025-12-12 20:48:01.600887,Right,-9.893987356367688,-0.5150915082485881,1.4649005116443732,-4.85779596408247,18.791280617537268,-13.53165869618806,-1.0003797464196396,-3.2178405845661473
2025-12-12 20:48:01.605918,Right,8.900808605228121,21.671036512503633,25.13310027973057,18.070572250191617,11.02946351153878,9.604810912861467,24.407464864747453,19.112094134281506
2025-12-12 20:48:01.609925,Right,36.28958017683203,51.54134739193978,55.40009865114553,48.157354072278395,21.054996363796818,37.204267045985944,54.273002939826256,47.861313187484484
2025-12-12 20:48:01.613940,Right,29.03519947064342,42.92296464003448,45.302158190293994,39.15567603214549,36.97499324828459,26.598401551785173,42.4975182634189,40.1312812756114
2025-12-12 20:48:01.617948,Right,-1.4514805667929522,11.382018019674433,13.38928523875802,5.970824967967928,27.01039459716776,-3.633505557339049,9.976348231106385,11.437939434497821
2025-12-12 20:48:01.620979,Right,-11.579949195991958,3.4281112545722863,6.664196951620397,-4.284915425878353,-2.041246539352869,-9.112974918485179,4.183220109716785,4.9057691644156876
2025-12-12 20:48:01.624955,Right,-2.278034461919674,14.458093097669916,17.186762325327436,5.76433413351333,-13.09185334569338,2.5697085261676875,15.893163073287724,15.389988571696449
2025-12-12 20:48:01.628995,Right,-9.171012316465067,5.855323692881939,5.466603348417266,-2.066997182488194,-1.2021332049116609,-6.153098236660298,5.002746918937191,7.102597363231325
