timestamp,label,FC3,C3,CP3,Cz,FCz,FC4,C4,CP4
2025-12-12 20:51:17.773347,Right,1540.9665256545236,2251.815751793072,2207.947571424661,1813.3796233970365,437.46466328989635,1578.2346078671787,1936.540162877751,2465.499626897787
2025-12-12 20:51:17.790444,Right,8305.546952588458,12127.909816778942,11890.332624822544,9769.660677917127,2362.317545871064,8501.53355269838,10429.693068320152,13278.318993100595
2025-12-12 20:51:17.793400,Right,19056.208702745123,27790.21202420837,27240.70548903487,22398.116927037176,5442.184324787929,19486.084866921665,23897.812026768603,30424.644481415602
2025-12-12 20:51:17.796409,Right,23897.543356160746,34757.47558456694,34057.86417763254,28036.20281429675,6879.683022086394,24385.438085414906,29885.327843855535,38048.44581189169
2025-12-12 20:51:17.799463,Right,16332.759691519765,23569.54151691529,23073.302195514065,19032.646989320703,4771.852853345032,16565.36560945231,20255.306939228467,25793.1620498666
2025-12-12 20:51:17.803434,Right,2171.841007303359,2781.772896235023,2686.552592047432,2247.091581193119,670.0991384328372,2014.504989953246,2367.6253879415744,3027.2128482517146
2025-12-12 20:51:17.808491,Right,-8510.968244461867,-12848.78196378774,-12631.684586142364,-10401.189795918734,-2534.5143846707433,-8930.913231040991,-11080.28665385564,-14091.14726034517
2025-12-12 20:51:17.812491,Right,-11234.02578733518,-16783.01310356526,-16477.98051290313,-13578.655826478207,-3392.1849515322974,-11691.724304827949,-14460.483560213645,-18399.814341604593
2025-12-12 20:51:17.816535,Right,-8009.89604906569,-11999.283651105536,-11779.080382428074,-9685.803749856306,-2402.391853081368,-8352.058950858132,-10338.425389975891,-13158.473725647957
2025-12-12 20:51:17.819519,Right,-3368.1518252615933,-5159.941788073571,-5068.037264401268,-4156.066380722332,-1000.243746970431,-3570.3594107945682,-4451.347735817428,-5665.434312224737
2025-12-12 20:51:17.823612,Right,-825.9934213269735,-1425.6149128290126,-1404.870710788411,-1167.9526106129633,-307.1923370194854,-955.9253331571817,-1238.341269907367,-1575.697354807402
2025-12-12 20:51:17.828586,Right,-1353.9423017395893,-2197.865535894409,-2164.874955984531,-1800.2621956158546,-508.2819362562295,-1495.2807423296035,-1899.7440480368678,-2422.6560897077434
2025-12-12 20:51:17.831588,Right,-3495.715926462959,-5318.477910898626,-5229.662120905588,-4292.184851181693,-1080.7162027809536,-3683.857815223164,-4578.21949234663,-5838.659054504475
2025-12-12 20:51:17.835586,Right,-4885.181456669816,-7322.901470218319,-7197.288292657817,-5897.210775254294,-1428.8633452213253,-5093.391196495097,-6298.284361097845,-8030.1561059274245
2025-12-12 20:51:17.839610,Right,-4350.605348499259,-6514.878403114388,-6403.8233909377595,-5269.528132142965,-1322.1928712884255,-4529.5798020368675,-5602.406520037679,-7144.067276467686
2025-12-12 20:51:17.844548,Right,-2816.5080490390537,-4254.3792320577195,-4186.952833307092,-3457.7540516559966,-943.8005339709052,-2945.132353238645,-3656.6836127344286,-4670.3250720977085
2025-12-12 20:51:17.849622,Right,-2029.5536276064813,-3086.1510008411715,-3043.207425623201,-2486.3164971625665,-674.580326998781,-2127.5326055105543,-2648.9749920893228,-3391.2444065853488
2025-12-12 20:51:17.855655,Right,-2537.784528556629,-3805.744277640246,-3748.359863647027,-3045.265854586847,-744.837474525586,-2634.322731717606,-3267.7478756395867,-4176.062760568457
2025-12-12 20:51:17.858648,Right,-3282.2895607374376,-4871.291515872115,-4787.946737119579,-3928.2974360055523,-988.6182602444896,-3381.488020369434,-4188.020050453371,-5339.290013336227
2025-12-12 20:51:17.861651,Right,-3137.3716781568946,-4640.572033668985,-4555.182168956497,-3766.9164600756485,-1028.053506278753,-3219.271615040372,-3992.109784594155,-5083.990381599404
2025-12-12 20:51:17.864610,Right,-2311.888411203283,-3414.26992160792,-3348.3772804019973,-2758.409960527206,-771.7913441710116,-2362.9662375983316,-2935.479711528984,-3736.82933957933
2025-12-12 20:51:17.868674,Right,-1880.6597037754254,-2764.65601140121,-2707.4279910650803,-2207.715834222967,-560.6299092683475,-1913.2383609219687,-2374.41329587996,-3019.19334285846
2025-12-12 20:51:17.871703,Right,-2260.9267292928416,-3310.1994362135883,-3236.5145746617345,-2663.987989878864,-674.6572438585863,-2297.1564197595,-2844.268967152806,-3612.5580995825585
2025-12-12 20:51:17.875701,Right,-2723.538062680629,-3982.979612432653,-3891.1304003321566,-3235.768778937403,-897.8266181258077,-2765.8558642417192,-3423.2435645657824,-4349.262186615029
2025-12-12 20:51:17.879724,Right,-2475.536550272256,-3608.7635050170356,-3523.2506718552904,-2920.2971860859543,-837.4128316862916,-2503.7619887077017,-3098.394753697212,-3939.419059878215
2025-12-12 20:51:17.884733,Right,-1741.3375699073076,-2511.049237159663,-2448.312738696346,-2000.0095626227558,-533.760016375134,-1741.0124158436665,-2152.153982474003,-2734.567015136825
2025-12-12 20:51:17.887749,Right,-1404.2928452448687,-1996.2058591429377,-1943.5307292703073,-1588.776905548526,-398.9191461209266,-1387.4285712050041,-1712.6007602461614,-2168.7406764843035
2025-12-12 20:51:17.891738,Right,-1782.3904818749288,-2539.615362158278,-2475.4198888340034,-2060.207430350594,-576.3175043554511,-1771.4820696521783,-2184.774656635942,-2765.7581336805597
2025-12-12 20:51:17.896811,Right,-2221.9226146263536,-3175.0440776491305,-3099.1383059852524,-2575.1693175365217,-737.2096293607319,-2219.6086425653193,-2731.3675882067764,-3464.428970061126
2025-12-12 20:51:17.899771,Right,-2010.2997654720675,-2849.4703307014424,-2781.2659874754027,-2284.140903784428,-609.5087807102827,-1997.371128558647,-2448.2897760414053,-3107.59371201077
2025-12-12 20:51:17.903785,Right,-1331.815401433385,-1841.6398565426935,-1792.1203050056938,-1467.725607873872,-372.522026416118,-1295.6060375992674,-1581.1326928014169,-2002.5157888536341
2025-12-12 20:51:17.909751,Right,-988.80100198125,-1337.8668987052515,-1295.5106041122926,-1087.9543865235755,-333.9209424335859,-941.2655683014309,-1149.9923763975967,-1452.1939497309504
2025-12-12 20:51:17.912810,Right,-1305.4204165143892,-1804.388732541236,-1751.8378411233425,-1467.2145117019536,-470.3971140261274,-1265.9504362287698,-1551.156595899025,-1965.723159238114
2025-12-12 20:51:17.916825,Right,-1712.852306210203,-2392.682700645528,-2328.9665274992585,-1912.0013438729802,-530.6201401557482,-1681.325395108317,-2055.028779994347,-2610.0693856950384
2025-12-12 20:51:17.919913,Right,-1552.141346624354,-2140.811243908596,-2080.5533826815663,-1700.3629832617007,-431.456910550507,-1510.547982808901,-1838.941865070723,-2332.9210078201722
2025-12-12 20:51:17.926868,Right,-965.963199535734,-1272.3611371414736,-1226.036592385266,-1028.5491364372429,-311.9111238413607,-904.5159193475265,-1095.5469541859347,-1383.1724962741137
2025-12-12 20:51:17.929874,Right,-665.1722836814588,-828.8082986975787,-790.3822915059282,-684.6559357645456,-280.28047781798523,-594.6006718254648,-716.1161493071122,-901.0025169835426
2025-12-12 20:51:17.932883,Right,-936.4575966927223,-1217.48797820881,-1173.5424617819954,-974.8167021548143,-310.7463954335544,-870.9454628286185,-1050.010500928387,-1328.5879526637727
2025-12-12 20:51:17.936882,Right,-1281.1787401486654,-1706.4080780030927,-1653.9174449201673,-1356.700853735907,-345.16866729795584,-1218.6246839136584,-1471.2155529299052,-1863.8807616092963
2025-12-12 20:51:17.942922,Right,-1142.023686661967,-1491.4163456783863,-1441.6958776619285,-1207.7139941208297,-341.8333010466158,-1068.8263515814906,-1288.016545421211,-1629.2244347661035
2025-12-12 20:51:17.946926,Right,-657.114965572604,-779.0328087146627,-742.9412096075248,-647.6218577922555,-266.3302792722243,-567.8314312842558,-673.1885305672185,-850.5731241125613
2025-12-12 20:51:17.949922,Right,-414.58048794057686,-421.04995676351245,-394.5905155823566,-332.24348448123783,-156.97863036989293,-318.461534491973,-358.94411184906494,-457.26983935176395
2025-12-12 20:51:17.952887,Right,-624.5090291196248,-721.1096405225107,-690.824926311383,-552.47429179959,-133.36990023590624,-532.930265476869,-612.9617997636087,-782.2255304359132
2025-12-12 20:51:17.955939,Right,-880.8120324609336,-1092.6237393077463,-1053.8349058703752,-875.0853575563524,-220.8386245220172,-794.5268595342059,-934.1190133358468,-1187.9497019195696
2025-12-12 20:51:17.959892,Right,-768.1866352786892,-929.6078702304512,-892.0847353274003,-770.5997776916483,-259.9010228096158,-679.1899234174634,-796.2427182346582,-1012.0772082827752
2025-12-12 20:51:17.963961,Right,-404.5510152889183,-395.43853333132574,-368.34087507310323,-323.46369850996416,-135.4540441708814,-307.56694072973914,-335.22792234952794,-428.65449988341425
2025-12-12 20:51:17.967959,Right,-214.33914751146222,-109.89101383183151,-87.96949420886813,-66.03221403673524,9.774242756218882,-113.63189781899564,-86.95661827304866,-113.60926140559604
2025-12-12 20:51:17.971923,Right,-341.3379631473799,-295.0599838877097,-266.31808798678685,-228.6574111772352,-20.0166090640123,-245.83002524258336,-246.28741684462875,-314.0487437538104
2025-12-12 20:51:17.977005,Right,-511.1648260666989,-553.4726961712004,-516.4633329457138,-465.8296061925357,-147.82760416795645,-424.23390452651074,-469.06075758190127,-598.1341596531565
2025-12-12 20:51:17.980010,Right,-440.4756494422327,-458.7883452491951,-424.02891777595505,-379.9628242915496,-137.70213101925037,-356.78036837792024,-385.4531177577446,-496.1750224159332
2025-12-12 20:51:17.985175,Right,-186.8475732616498,-87.93591255892534,-62.823053129250184,-51.10088224115316,17.448706007206056,-100.13344633186352,-64.55262204929022,-89.33213472628267
2025-12-12 20:51:17.987992,Right,-22.693739998037927,151.89447972993366,171.5683373786742,137.02211683581118,88.3038023346162,65.70825316745322,139.8719571128313,173.8700408709119
2025-12-12 20:51:17.992005,Right,-72.9220006170217,70.91529072457342,92.40707313950406,43.30186904233415,-5.1778303414530455,10.471087342768442,68.04943025609828,82.65281479887199
2025-12-12 20:51:17.995986,Right,-189.13531904414413,-105.89159200858558,-82.6092429269338,-93.13766620564274,-74.59501984192707,-113.32088853835012,-81.44263546794537,-113.66559456376126
2025-12-12 20:51:18.000055,Right,-167.29387430497445,-72.72786319002626,-52.66247606815887,-30.197323559987126,5.213279387013245,-94.27460419482668,-48.11744459910551,-76.23247255166643
2025-12-12 20:51:18.004084,Right,1.4079531699826475,174.42200868480722,189.53048491680238,175.92118819215102,103.4476822481738,76.3773390277347,165.4027089901938,197.43106603523483
2025-12-12 20:51:18.007037,Right,145.63719917507842,374.4862008274067,387.3801729667175,309.2997615468921,86.85297696415364,220.49310986301862,335.1297082836827,417.252289502474
2025-12-12 20:51:18.012087,Right,143.40739569241123,356.8266702821347,370.0439576970821,288.60744086834166,37.945073778158985,213.00714756920934,319.4920484613467,397.07293578763347
2025-12-12 20:51:18.016050,Right,65.41536271007499,238.90203739465323,253.12466789284372,219.76269274231436,70.67165363710228,129.03745941531088,219.44218827707573,268.70328965640147
2025-12-12 20:51:18.020108,Right,62.31827988255827,238.92918075309717,254.7911728500876,224.56918863626197,121.67875588947936,124.01743471226655,218.06905181631737,270.1140816592233
2025-12-12 20:51:18.023152,Right,163.5470704509862,389.6007920862394,407.67365043126483,313.5566256207385,96.47474666932249,227.61546642758822,343.86608702999365,434.05195891010226
2025-12-12 20:51:18.027137,Right,260.1497157446929,533.1930822921859,552.9244431492698,414.1869552142889,62.81279756737058,328.94172396500653,466.4447229855141,589.330437686338
2025-12-12 20:51:18.031139,Right,270.5521984651932,556.8222399679944,578.0470365208166,459.9825520043669,115.33458846082794,344.4393989218879,489.28216520437854,616.5221233860648
2025-12-12 20:51:18.035198,Right,237.17002304248308,515.3397116282722,539.6527212685032,444.006399337115,180.94849627569783,313.9633434223506,454.4932373649208,575.2501284032187
2025-12-12 20:51:18.039141,Right,239.4578751413792,512.4588903899421,540.468461613491,417.65809167319094,149.73247467879264,314.9189154911728,450.19062119181035,574.6214587009745
2025-12-12 20:51:18.044181,Right,287.0614319479646,566.700251486589,595.1272853942937,441.4393436772516,89.05455759367032,358.42693203198723,497.2465118576365,633.8189415379311
2025-12-12 20:51:18.048190,Right,341.29193410223525,638.1674138795352,662.5869274999131,520.502616833488,127.78879222425167,409.8909322169784,562.7321644265903,712.4858575210674
2025-12-12 20:51:18.051213,Right,384.9658827385865,704.3284098863369,723.9753523235559,595.784007710201,215.1946581946977,453.1327373186068,621.7027307539829,786.6627150918939
2025-12-12 20:51:18.055169,Right,417.06169883333496,749.1096556622651,766.0849583969684,612.1310916800867,205.6430799124646,483.27672720202827,657.219970864011,834.7112197889364
2025-12-12 20:51:18.059234,Right,421.66028837219346,743.1567716267891,757.7082418969949,582.0517288989504,122.11625600248226,481.5411351780931,648.5435682026437,822.941011602059
2025-12-12 20:51:18.063237,Right,403.5499054523243,705.2093857537257,715.1053985648323,567.8466470466228,116.13617724674987,455.40214212203864,615.6864071416203,776.2773970808485
2025-12-12 20:51:18.067257,Right,418.7184554285777,724.4259774843813,728.7641328959144,610.9349099282408,197.77383540783194,464.99182855011895,632.2143805235974,795.6713840719312
2025-12-12 20:51:18.073281,Right,498.8536016267608,837.2236209925031,837.7626677247463,688.6118849210325,227.46781449724222,541.1937649002648,726.1631633150391,918.3716221706709
2025-12-12 20:51:18.076279,Right,574.0577524154214,933.1175050690072,931.6559184713988,734.5564039507299,172.28931718724198,609.9638116540154,805.9996381534729,1020.6409297954524
2025-12-12 20:51:18.080295,Right,555.3796990776318,890.2801046208479,887.2243932240526,705.4144282778143,151.17278257478029,581.9127967219101,770.89610382088,971.3792542205192
2025-12-12 20:51:18.083304,Right,482.02619352715556,775.2922238927567,770.6563241807744,640.3244486422627,203.37435539346188,500.6940461420454,674.5616001054877,845.8753079549642
2025-12-12 20:51:18.087327,Right,487.22187551803654,777.7069683476584,770.9667560259113,637.2289960361668,225.21176305340487,502.8051280088257,674.8673592439736,849.2691623115679
2025-12-12 20:51:18.093373,Right,600.4939894034178,933.8474950992968,923.2156744948588,734.4862475956907,181.68778635698254,616.4421090251417,805.8148966897279,1019.0740621456644
2025-12-12 20:51:18.096362,Right,686.5741529730731,1052.4488922352903,1037.250328894821,834.5368907442898,174.6719832023664,703.4510588167468,908.8296138483565,1148.5230914113345
2025-12-12 20:51:18.100354,Right,635.4811562913819,980.0618260408519,963.4939373491798,811.1032417310635,236.76717255881522,652.4267117214622,850.3514899056172,1071.9778630001238
2025-12-12 20:51:18.104370,Right,527.8807801631629,826.5146058589453,812.5477910407353,693.7555199131602,258.0045841636893,543.6515227196505,718.747301958967,906.4538259397959
2025-12-12 20:51:18.107438,Right,524.0742370520602,814.7283516037278,802.1131654472556,654.9377330539282,200.0382749211567,537.6681054823566,705.9851467853878,892.114839299582
2025-12-12 20:51:18.111370,Right,637.4521746073151,969.0485405506333,952.4611323764548,771.0788393471157,185.67566982630524,648.8976289480925,838.3935416383902,1057.811302548973
2025-12-12 20:51:18.115382,Right,720.8096790161799,1086.0943353439216,1064.3127817068016,892.9832311242353,269.59723921937984,730.0974059305154,941.3413821513532,1185.678901503794
2025-12-12 20:51:18.119423,Right,674.681373617379,1018.0055542859482,996.4640701060416,847.5975846727379,314.48454718859284,679.3958566774963,882.6121437067632,1113.2142423313344
2025-12-12 20:51:18.123426,Right,576.5623036443139,866.9705015474465,849.696256839321,696.8902415480698,231.1555991927744,572.953650716343,749.3712666042848,947.7135865434539
2025-12-12 20:51:18.127429,Right,565.8003650777973,838.9203931305092,822.1857679535169,659.1149883347098,157.0111194885103,553.7141135812271,723.638207377051,914.4653251713607
2025-12-12 20:51:18.132474,Right,659.2551589509239,971.1993830348365,949.1451772826258,791.8933084063465,226.41335100354627,643.5339645333588,838.683976411703,1058.7239434826188
2025-12-12 20:51:18.135457,Right,737.9458227516152,1089.8353203578154,1063.2498247494223,906.0842982328031,328.78663268929813,722.5132265570574,940.1291574083734,1190.8320257317973
2025-12-12 20:51:18.139467,Right,702.6647305811057,1036.4983679138822,1011.1637641652487,839.7934673136333,295.74683058448136,685.5502013752703,890.5460004407214,1133.6896018931875
2025-12-12 20:51:18.143512,Right,597.7892161674099,873.0723461986054,851.0259876826312,687.1062521743588,193.28673246345716,575.15028459928,748.5626115232008,954.4159675777191
2025-12-12 20:51:18.147491,Right,557.8321360547561,807.8058581175283,785.2432327894494,655.8638156545348,200.73681752983248,530.8183686586563,695.8276204071008,884.7718019149033
2025-12-12 20:51:18.151472,Right,638.9524659034796,927.2894446189748,901.0549170006998,776.5994828903349,296.08997415716294,612.5544532914646,801.632691957755,1020.0248172410065
2025-12-12 20:51:18.155529,Right,738.8779302135808,1072.5792351387208,1044.2910439594416,875.3533157696947,305.74297121260315,714.8777445520973,925.1573874346213,1181.5104040170554
2025-12-12 20:51:18.161601,Right,721.277609464014,1040.215905752033,1012.7889811273199,820.6557553953025,214.16528854664648,696.6666358637158,894.8137179847108,1144.3907706614118
2025-12-12 20:51:18.164604,Right,601.724148916197,861.7906859748764,835.1870150958421,687.976397788967,177.2769566468778,574.4720586604672,741.4840526946355,946.759798028972
2025-12-12 20:51:18.168590,Right,539.8128495055716,773.730990345357,745.7816410923842,642.8871382194338,239.24499413464218,511.63281069113873,665.5721072410233,849.649810649571
2025-12-12 20:51:18.171612,Right,622.8739386253292,892.4562657371862,861.7151352685178,727.6562613825081,273.43610267783515,594.6655443098862,763.7568218164379,977.5761760197347
2025-12-12 20:51:18.175608,Right,735.2019546995871,1043.717120841262,1010.2607568076346,820.9307612871053,226.97987032105448,704.3463819996687,889.3979060491547,1138.0822211042978
2025-12-12 20:51:18.182609,Right,715.8556744619273,1005.2790863119299,970.4089042682899,796.2722715452546,200.79883441020502,680.6672860527178,855.5783961298876,1091.7330486755818
2025-12-12 20:51:18.185595,Right,590.4089846805437,824.5679101715796,790.4331718782196,677.2054638423724,239.30068806913914,553.8785754768178,700.5467434442835,893.4972067791969
2025-12-12 20:51:18.189615,Right,533.3716492016101,746.8132064639358,714.4717157796258,605.8115184496855,249.71799809171353,500.1599735446507,631.0561172715388,808.788760301657
2025-12-12 20:51:18.192614,Right,612.8835488761542,859.6831800558139,827.1875746070873,661.6888210043544,196.58012703672284,584.6680744546466,725.1849451152375,930.1887897043489
2025-12-12 20:51:18.195619,Right,698.4582756040618,977.9775471001631,942.6798233862501,755.1055472297594,178.68872371019097,673.559979588259,828.7955296888249,1057.4608992170542
2025-12-12 20:51:18.199614,Right,660.7700801973697,922.5384304338368,885.3826174313435,742.8225090922788,231.71655125322286,636.599027434364,785.9755437469576,998.1955040015746
2025-12-12 20:51:18.203583,Right,553.881401518709,767.6037178667029,731.9901672230335,625.7972809706116,244.9289986320655,528.5259891962633,654.5438855894608,831.5394701717887
2025-12-12 20:51:18.207645,Right,519.570488240337,711.3630297868513,677.3000157125061,553.7293078971561,171.13897116179578,492.21897339844145,604.6127826237353,769.9936897729058
2025-12-12 20:51:18.211660,Right,581.8917696214048,794.0035868395353,757.3381274559069,614.8169005946256,132.64259043359198,552.9054324983153,675.4333302777959,858.5071897711605
2025-12-12 20:51:18.214688,Right,634.4135891180485,869.8691332783783,828.8647306658095,707.4586574465502,200.29539830243448,604.3293446929893,742.320777722518,941.8804808454588
2025-12-12 20:51:18.220714,Right,603.4158939768095,827.0015041618608,785.5408570389263,686.6196957160719,248.57330685062334,571.2721212027827,704.9424401037395,897.3855200675316
2025-12-12 20:51:18.223715,Right,532.8356483350508,719.0545230670832,680.6661958269542,571.76320445491,174.8861223566928,496.96627986594103,609.3044704595814,780.3490639575757
2025-12-12 20:51:18.227718,Right,501.56524991139304,664.6814354391536,627.1718141454039,509.52210833714344,93.97704883420374,463.2716855558101,562.3448257200653,721.1591024303343
2025-12-12 20:51:18.231672,Right,522.9795043908525,695.3604246027535,654.8716874498641,555.9740825389745,141.3296265338431,487.46341919188853,592.1762425207999,757.6336066545919
2025-12-12 20:51:18.235738,Right,548.9705989762442,739.6225210040575,697.0863699456677,608.1901750093093,231.28038991731592,520.1743793833302,632.2070567973424,810.538886355469
2025-12-12 20:51:18.239757,Right,536.5408010178944,721.8736374962609,681.375257142703,570.7699951338582,209.2014844614896,512.3175512995804,615.3423179467209,792.5833584885113
2025-12-12 20:51:18.242711,Right,489.1945198266767,645.2658745420631,607.6741645701695,488.47142714599613,124.10238919610856,464.252991489484,549.2616572671104,707.2163262172835
2025-12-12 20:51:18.248783,Right,448.0314435311593,581.5357366930693,543.9119980620453,458.95680836378597,130.6860720430268,420.3503381283954,498.66608018195257,637.917120594997
2025-12-12 20:51:18.251726,Right,448.87203505064826,586.6958376356633,547.3952025586041,488.51068621943705,207.30727216479136,420.0206638504751,506.9863906688988,647.3121722844662
2025-12-12 20:51:18.254755,Right,478.7978456369601,631.2756043968257,591.5535752604483,505.83250974223483,204.2645593942725,449.3969091603067,544.5547884913394,698.4617839955026
2025-12-12 20:51:18.260820,Right,484.81471130787395,633.2075630566105,593.689395465306,475.93087589740753,122.02440305193886,454.02781141153537,544.0902565473225,698.8375705105718
2025-12-12 20:51:18.263826,Right,442.77909469767474,567.0702253978234,526.5089049590752,430.9260973725468,103.72973251837539,412.0716253864812,488.0145241532009,623.9336128042778
2025-12-12 20:51:18.267844,Right,397.922985662939,504.0851118040737,462.15681344713084,407.105352032464,166.9451504817116,370.86101967433933,435.1482580342563,554.4181513504591
2025-12-12 20:51:18.270827,Right,403.50712179613765,512.2948536830954,470.2008009509882,407.51956052461173,178.64136537839659,380.8099054491613,440.1025687524816,562.2699281438254
2025-12-12 20:51:18.274860,Right,438.3554153194418,555.4113821130013,513.0805499145063,418.8538781197276,111.47560114227235,416.84551389468834,474.04315761767793,605.9062059726566
2025-12-12 20:51:18.278874,Right,435.7026385947829,547.1818861588836,503.0654231404187,423.6507803265704,93.9297184717143,413.0993241124088,467.03330919973087,594.3439407696715
2025-12-12 20:51:18.282878,Right,385.0364378966624,480.1381235126173,434.5375824478688,402.8722908877535,162.45282711443724,362.2942317087436,410.75553895614576,522.1955460223835
2025-12-12 20:51:18.286837,Right,344.53237509564497,427.8484431026736,383.2307808358455,359.1009846588131,187.28981624080916,322.30464195332024,364.15915243828204,466.719056912465
2025-12-12 20:51:18.291902,Right,347.64604945247993,427.1783009748906,384.06997769500595,327.1668621932622,114.96368874862674,323.59561314596795,360.43010609108023,464.45055842015427
2025-12-12 20:51:18.295989,Right,360.2468480832176,435.7462716875598,391.52082297054585,331.3628335506655,71.0527964537323,332.00469982239883,367.3704393473454,471.0407132412074
2025-12-12 20:51:18.299912,Right,347.97565427189693,416.1997760338709,369.44712713954505,345.38557785749435,126.63902251783293,316.89359851484187,351.5585486018099,449.3216521390714
2025-12-12 20:51:18.303921,Right,326.6971713312669,388.4560490109725,341.4755389703205,328.25700157135725,164.75527925544884,296.44155363412574,325.7903128511971,419.79480104416143
2025-12-12 20:51:18.306917,Right,317.70058183162473,373.5346219080966,328.6338435355574,286.14326730393805,99.15570006149937,290.3550892586354,309.47403449274134,402.1185047501931
2025-12-12 20:51:18.310956,Right,306.101680495427,352.9433055395493,309.17220476130024,260.05095139774494,37.53947819850873,281.59791133215185,291.9372738710372,377.33873502677307
2025-12-12 20:51:18.316919,Right,280.0035956186475,318.76857858221047,274.57294960936997,262.15875213884283,82.64625549607445,257.9944794062758,266.1096770222066,340.54931202402804
2025-12-12 20:51:18.321002,Right,264.5215959951747,303.6017511067912,260.0765719061019,265.725398155977,140.87378320583957,244.31606804055627,254.62164144474082,326.6544279108057
2025-12-12 20:51:18.323938,Right,274.6819506387692,318.143380020163,276.99284188926686,253.87101893196814,94.97357425148948,254.34980449127033,265.7375179020455,343.3512053982122
2025-12-12 20:51:18.328023,Right,274.81131025671493,313.5471130965743,273.953869218356,236.26063602871727,20.02932673279429,253.16906673187623,262.09015444107354,337.357313556131
2025-12-12 20:51:18.331011,Right,234.22769120510202,257.9367189335171,218.32610518753063,217.98252388113178,43.30105324022588,213.26251203299034,217.37654481257778,277.85636660514865
2025-12-12 20:51:18.335043,Right,189.03693846834358,202.35116344201379,163.53948249085806,194.10789884411497,110.93944934973842,171.70062467304524,170.9957797829993,220.83716680493671
2025-12-12 20:51:18.339044,Right,190.6014793283539,206.4790282122558,169.9954548588721,175.68523516564164,93.01268315984635,176.11988940945594,172.80998050782364,227.0630608748179
2025-12-12 20:51:18.346106,Right,218.58028584794374,237.3252309015952,202.05924249021336,177.69971166661708,24.810051557025872,202.50253890402382,198.846702741459,259.13735464098863
2025-12-12 20:51:18.350082,Right,210.45949073444353,217.0953676479403,181.01363412453793,180.25508133583935,32.97931326474645,189.8018944239593,184.11499025399098,235.8782699679723
2025-12-12 20:51:18.355030,Right,163.51653925317805,148.14988494105637,112.22179141786182,149.59761701175012,91.70364763966063,139.0764416611055,126.16421423858264,161.52349010051694
2025-12-12 20:51:18.358093,Right,138.06343339651357,108.98822637996636,75.78090638376307,102.28780726651894,72.97701625575428,111.31653923611157,89.61660399532411,118.45641842135228
2025-12-12 20:51:18.361109,Right,158.30229685117956,130.5362595503684,99.80354427132988,93.81136058206903,-4.18852966252598,129.65388409083243,105.06938183365855,138.9081489398377
2025-12-12 20:51:18.365067,Right,176.79664156062063,153.9588178881677,123.45637086912757,128.15520393656334,-2.1230341911141295,147.61731262190733,125.70259713876294,162.4269927663263
2025-12-12 20:51:18.368065,Right,153.22716780478368,125.64739427494351,95.66939956671558,137.949347637943,75.17712440085597,125.83510088908952,102.5114442607155,132.9530270077521
2025-12-12 20:51:18.371142,Right,111.94077692343853,70.08958095411072,43.120804972422775,86.61204308422748,80.69230430875905,86.5166912683635,53.1524462471134,73.91571544652106
2025-12-12 20:51:18.375084,Right,95.48604373203125,41.67461145843845,17.560080210503656,32.27191877528094,-5.221029083390022,70.39636922301725,27.59705865714932,41.776647929800674
2025-12-12 20:51:18.380147,Right,103.50259148469195,50.118211016466375,25.60780730319675,39.163705525454134,-33.986140894383425,79.59599793242523,38.03702400880866,49.7425344948424
2025-12-12 20:51:18.383148,Right,106.79920935543487,62.748949854343664,36.65548043732997,74.1989632435143,39.79622804414248,87.60024354304187,52.77862431597896,64.85134372086031
2025-12-12 20:51:18.388163,Right,91.80340799986152,50.67345776484581,25.761111405387055,58.67807297158288,73.8226308657031,77.83103812095942,41.487620748521294,52.84313298750203
2025-12-12 20:51:18.391178,Right,64.99869448743993,10.779453554423526,-10.939225496957079,-8.057445986196399,-1.0741356070502661,51.545838981925044,3.557482556323521,7.080905114242341
2025-12-12 20:51:18.397192,Right,37.5373919706326,-34.97614508593688,-55.395522225415334,-50.618195178802125,-54.67453435534844,20.17109673185041,-36.20368734234944,-45.71303072728915
2025-12-12 20:51:18.400195,Right,24.943545763089787,-51.434968214365654,-72.8398915422149,-33.458418182854075,2.2247202953440137,4.105357331514824,-47.71331707073841,-62.60811838397058
2025-12-12 20:51:18.403195,Right,35.60668186371913,-29.333213365462143,-50.720156629395206,-5.040732196066529,55.5849911487021,13.80354263127083,-27.869925682258327,-34.95097421691753
2025-12-12 20:51:18.408231,Right,45.412839074386284,-14.423803686746396,-33.65258708019974,-17.012015404645354,1.0262123338179663,23.179858109651832,-16.376450420822948,-17.43460365192732
2025-12-12 20:51:18.411235,Right,18.337638061493635,-55.89782005629968,-73.03542722322163,-56.94597726475331,-65.36694597483438,-3.890041164297145,-51.51619789889082,-63.653927016828675
2025-12-12 20:51:18.415224,Right,-33.0397483385168,-124.49966053757817,-140.49883281407529,-82.9379469784617,-28.026574309245916,-51.78139473570627,-108.35757255982026,-137.8930370233138
2025-12-12 20:51:18.419194,Right,-51.12964392252616,-139.93596650511608,-154.06232008931693,-82.54148006803007,36.61734028287174,-62.83572037980775,-122.58112173315021,-152.64779177698074
2025-12-12 20:51:18.426211,Right,-20.265983619668987,-92.86018302873708,-104.21058100729715,-73.48741279481328,7.465319519906188,-26.293879221193492,-86.24843624475761,-101.48421554177185
2025-12-12 20:51:18.429227,Right,-0.8081611965317279,-70.58478068278055,-80.62593686464243,-75.11953863216331,-57.18587593869597,-5.770847736363066,-68.47625683064689,-79.7735472592467
2025-12-12 20:51:18.433276,Right,-39.34099450256326,-126.74424479916343,-137.5841459753574,-96.3129065654939,-35.33786117033742,-45.00674962752964,-113.16408685332863,-141.95173242752207
2025-12-12 20:51:18.436286,Right,-92.6572837891872,-194.8368728114583,-206.15636510794866,-128.7503145627561,28.25097533900407,-96.96354609067203,-168.38738987364923,-214.4122419441992
2025-12-12 20:51:18.439289,Right,-94.07804315461544,-190.0435414230742,-200.32893854596477,-144.83273777915747,10.851953556193621,-96.2742733747582,-164.8527309414785,-208.21069005373283
2025-12-12 20:51:18.443317,Right,-58.20591072947718,-140.07048871369625,-149.59367187302269,-128.5759779989603,-53.32306697992317,-61.018384702154435,-122.91286479683185,-155.07149799878243
2025-12-12 20:51:18.447310,Right,-53.88494688810897,-136.9316361721867,-146.64056215401797,-109.63774872370414,-39.24498588821734,-59.453680936290766,-118.52454012917588,-152.22283528433763
2025-12-12 20:51:18.451314,Right,-92.98321290063905,-192.80545766204887,-201.48302092197264,-130.33578853333165,27.408155097349663,-100.27315797763004,-165.1731424618265,-211.26068490426405
2025-12-12 20:51:18.455328,Right,-118.02607499886653,-230.62790904306894,-236.49530664588383,-176.73238705631957,14.395656646716816,-125.89188805775484,-199.52659046291228,-251.13358318505925
2025-12-12 20:51:18.459327,Right,-99.74615848240501,-210.13777242886135,-214.5469510621806,-190.10666694760948,-65.39478923898423,-109.62167930690339,-183.96902044355375,-230.13236844229687
2025-12-12 20:51:18.462347,Right,-79.0920817056467,-181.14373619012258,-187.03848087438928,-159.2142731533495,-71.07191055401927,-92.55022374473629,-158.264864621593,-200.05561629899603
2025-12-12 20:51:18.466346,Right,-95.44483100147045,-196.3428873142493,-203.222710246745,-145.6478672296853,4.568148652913806,-111.44932968482317,-170.6911268122435,-215.91266381898868
2025-12-12 20:51:18.470309,Right,-128.4154599300382,-237.7261793531561,-242.09147317167663,-187.4436584569412,17.47739198670024,-145.21953971913172,-208.8525035067596,-260.3086305136567
2025-12-12 20:51:18.475374,Right,-139.72735610175005,-259.3656521551202,-260.71674164023716,-233.53602849292292,-62.11009872141585,-156.76882227630995,-229.58360983023886,-285.89998308381473
2025-12-12 20:51:18.479389,Right,-131.27643351712322,-254.76096028869506,-257.12587275845,-223.39142089781672,-93.17441625508945,-146.96649851117763,-222.81098594682408,-283.4554993209531
2025-12-12 20:51:18.483390,Right,-128.2456059603428,-247.44989907693525,-253.6738669755723,-184.08934700833197,-24.795196864732134,-139.30757595005343,-211.98383280712733,-275.4611134542647
2025-12-12 20:51:18.487441,Right,-136.57709069368866,-250.14281700577703,-258.31753732253856,-184.80359066682286,8.728550883359276,-142.08519252729639,-213.86968956618512,-277.55484138970496
2025-12-12 20:51:18.491418,Right,-149.57343567369026,-264.38436579419067,-271.5552533031878,-227.8346012612601,-62.91793234291981,-152.7490244861874,-228.24460109873326,-294.459560746036
2025-12-12 20:51:18.495434,Right,-168.36072607252294,-290.1984811768489,-296.1934958007332,-253.82458459383633,-114.14210783298404,-172.40736547937558,-249.3118369068834,-324.0316486020747
2025-12-12 20:51:18.498384,Right,-186.36607778356665,-310.9380467652809,-316.3961541650351,-239.11329693601874,-54.76952401914832,-191.27272861667734,-262.99780071088753,-344.4367904365645
2025-12-12 20:51:18.504465,Right,-183.20052103586568,-302.3178587339353,-305.9032930691901,-221.45525783910125,3.706971314700695,-188.4976397844075,-253.5971115887951,-331.1312033745635
2025-12-12 20:51:18.508418,Right,-161.211095882456,-276.8193388012005,-277.0105704945454,-229.47575220372528,-45.60983107377979,-168.7848418018475,-232.27420060316217,-302.1215780180646
2025-12-12 20:51:18.511430,Right,-155.72174997239927,-278.9754130017827,-276.35021220962517,-245.95638297652476,-109.73911570739438,-167.08270205494773,-232.8077248102345,-305.02222874356085
2025-12-12 20:51:18.515498,Right,-181.47731766284414,-315.9880883374135,-311.08478730358183,-252.06422746842145,-70.99974888315228,-194.58033911853272,-260.96723885220126,-343.2605785992055
2025-12-12 20:51:18.518448,Right,-203.84088881999196,-339.0887338851462,-329.8346660347597,-257.1587312616466,-3.2695401585915533,-215.4775397779449,-279.5227613519528,-363.7613849090412
2025-12-12 20:51:18.522595,Right,-194.72097785204824,-321.0376836291398,-305.07197249133606,-268.02184564544586,-29.968354176209687,-204.60196582286153,-266.0700380585622,-341.22140873171156
2025-12-12 20:51:18.526579,Right,-180.85199269247823,-302.89651238243096,-281.1749610332481,-271.6524020805373,-94.8775685835135,-191.0097394499753,-251.27985855005682,-321.7087612134055
2025-12-12 20:51:18.530587,Right,-197.3988138086279,-325.4455023088958,-300.91665984669817,-266.7193548370851,-72.90255582358441,-208.53103026974713,-268.5994259637373,-346.85093940008665
2025-12-12 20:51:18.535582,Right,-225.61108612595126,-359.79974624182796,-333.7111179943604,-272.74555786006385,-6.703495801230019,-236.4330124099797,-297.43488356427406,-384.3817512980895
2025-12-12 20:51:18.539513,Right,-224.17720402928535,-356.4727205495001,-328.94777335913386,-290.23464550689096,-22.29914303375699,-234.07083792160847,-296.7597377107595,-382.79872096388135
2025-12-12 20:51:18.543591,Right,-200.91334471249138,-328.53804788028356,-301.7623959417688,-292.02939311234513,-84.62702008339693,-210.30974738346413,-273.0143698444008,-356.1023484856705
2025-12-12 20:51:18.546593,Right,-199.19024294233532,-326.42569642921444,-303.5877247857861,-273.12850681191776,-58.15853473163588,-207.04518422824913,-267.1712206239172,-355.13484290859196
2025-12-12 20:51:18.551630,Right,-223.47274272414506,-351.9868595196167,-333.273720229161,-266.85314213702804,35.94941342063248,-227.54034488112666,-285.9185442213784,-380.81751951313345
2025-12-12 20:51:18.555636,Right,-235.8749240647012,-362.4973479898763,-345.66173797036754,-289.0295256449608,49.81279351568082,-236.02580657054204,-296.8284325976856,-391.1582754769479
2025-12-12 20:51:18.558634,Right,-225.0730544477119,-349.24787087825825,-333.95574341365136,-307.65646005561575,-23.821583376455237,-223.34622808321728,-289.0357961274567,-379.59564561775187
2025-12-12 20:51:18.562595,Right,-220.6108714097645,-345.6599628087715,-333.4936968558468,-295.9988450856181,-42.55700883867394,-217.40988079929957,-286.88134517497383,-379.0844932241598
2025-12-12 20:51:18.567661,Right,-233.18481467617676,-359.09466733725276,-349.16540199820884,-277.4585936491494,20.376574910013005,-226.4408955934341,-299.00757534924196,-393.98897809087066
2025-12-12 20:51:18.571705,Right,-237.230632695253,-360.2520169938216,-348.6963208945235,-283.6825481398846,31.11167692442541,-226.45449101296254,-304.1964175031171,-394.2820059314254
2025-12-12 20:51:18.574694,Right,-225.4379627747985,-346.3766984771937,-330.9214187852922,-301.5764742399333,-48.355864544646465,-213.46828446653672,-297.78513253381243,-379.6015530152945
2025-12-12 20:51:18.578699,Right,-226.40852356734104,-351.08066092891386,-332.7969445588533,-301.2514149174094,-84.67203049552336,-215.1666976963752,-303.97097935766215,-384.4824293705169
2025-12-12 20:51:18.582657,Right,-249.25309186259983,-378.2766818202217,-358.0263892955845,-289.44955987483263,-21.12177808508568,-236.50469493452692,-327.31103762605926,-410.7807144608232
2025-12-12 20:51:18.586717,Right,-261.58548093616264,-387.46715190348914,-364.0597454290837,-291.7244767714292,15.173066376548377,-244.09048162886756,-337.4748605314526,-417.20012278301874
2025-12-12 20:51:18.590684,Right,-246.1578520758485,-363.8659001298365,-337.31392011162825,-301.6649350267253,-51.408115462225396,-223.75171325271367,-320.96858281531604,-391.62040526635246
2025-12-12 20:51:18.595742,Right,-232.93476659696898,-346.5100561096333,-319.8519911786425,-295.03342662059003,-105.83432875898143,-207.20233191829175,-306.7211242332123,-375.18774860497797
2025-12-12 20:51:18.599708,Right,-246.5130477786588,-361.09358898579376,-336.6744747614721,-280.69830866518896,-58.496541921427706,-217.31527767027728,-316.96864406589884,-391.67482454905985
2025-12-12 20:51:18.602722,Right,-262.735258478031,-376.4448539746809,-353.06934580480447,-287.09799434099114,-12.04462864168454,-229.1875220151269,-329.48980895255227,-407.06487119360827
2025-12-12 20:51:18.606777,Right,-252.83676648297114,-362.02906343888026,-338.1013590065995,-306.5396940947394,-67.53198058142152,-216.8169996626093,-318.5922736975481,-391.4169242128264
2025-12-12 20:51:18.610799,Right,-235.99920553114498,-342.95892546791583,-319.7984760235995,-305.5865530516021,-133.62005779107858,-201.10612405528082,-302.0365808980423,-372.2676532167825
2025-12-12 20:51:18.614810,Right,-245.36156886763638,-354.36549055273645,-333.66787106590346,-286.969119875459,-96.82996871008072,-212.70905821264023,-310.1337769875536,-384.92783998604864
2025-12-12 20:51:18.618820,Right,-268.14967863517813,-378.001642720832,-358.29359403724084,-286.10595433274284,-34.50358974109986,-236.807145252591,-331.82719977456145,-409.703937041515
2025-12-12 20:51:18.622788,Right,-266.6723650935455,-372.9266158087412,-351.755808748072,-303.5884253619588,-70.97665699766367,-237.6690736374003,-332.0783401342924,-405.6876570096356
2025-12-12 20:51:18.627864,Right,-242.15017412247835,-343.4282991964137,-321.3714976126794,-299.2557345906971,-144.44186244095908,-217.80336137727136,-308.8234272482223,-377.8403067875188
2025-12-12 20:51:18.630869,Right,-229.42500492115505,-326.79493706923677,-305.8657119917334,-265.2033780005295,-120.82271043295623,-208.93083607725566,-292.1920553014497,-362.23652209801367
2025-12-12 20:51:18.634865,Right,-237.0610514091677,-330.5232309497078,-309.8498839602689,-246.01464509259677,-44.0699839721201,-216.88612174871378,-293.83546310680686,-365.15828008181415
2025-12-12 20:51:18.638883,Right,-241.47771657211706,-332.0500282472349,-308.80408784840256,-265.0109337097383,-55.736379726207815,-220.39109061844647,-297.3209707917995,-365.72534273192286
2025-12-12 20:51:18.642899,Right,-236.3891242427053,-328.3642469283659,-302.355404302245,-284.99018439563224,-132.497935033025,-216.41987861745292,-295.7566787011456,-362.80708419834264
2025-12-12 20:51:18.646922,Right,-238.54544099530904,-333.5910474717384,-307.34650162863545,-271.03167092835065,-131.24737343663583,-220.3203110137838,-297.98111314617563,-368.8513283804059
2025-12-12 20:51:18.651877,Right,-245.38802860904252,-337.4568728451268,-311.94647336553317,-244.8821199759259,-58.122428140981356,-226.38271761348005,-298.84954186924733,-371.16912333865184
2025-12-12 20:51:18.654938,Right,-236.8529605222866,-319.91395204956643,-293.69468472362496,-242.4976400838932,-58.830298810993554,-215.61133882880677,-284.6651971922838,-351.25836948212236
2025-12-12 20:51:18.657947,Right,-221.26270235312404,-298.8816654999391,-271.6520793272648,-256.3756975091528,-146.98424623071332,-199.4836658622953,-267.63991820212686,-330.2771692996612
2025-12-12 20:51:18.662976,Right,-228.72990681428928,-307.9160613595159,-281.49169057176914,-258.43971049494576,-176.3975636639516,-207.65394619008293,-272.8134395016241,-340.989903273643
2025-12-12 20:51:18.666993,Right,-253.944787360786,-332.4885265356861,-307.5464560475666,-250.25959536788287,-109.00198353664018,-232.6431667190045,-290.3786308367271,-364.9525686122943
2025-12-12 20:51:18.671993,Right,-257.8237729714019,-327.48484605533304,-302.39686020085355,-250.51939622551436,-80.69379303595633,-236.735733407957,-285.5333707658574,-356.3717729640193
2025-12-12 20:51:18.675998,Right,-234.70962542970665,-295.9668775864993,-269.84819664346287,-254.79904693551362,-146.51189277303638,-216.9865910715307,-258.5860520340502,-321.98872023040894
2025-12-12 20:51:18.682024,Right,-224.49206374579808,-287.6490623362479,-261.727380846336,-247.88971122918883,-182.1628126722644,-211.6321497950703,-248.24423634115374,-313.6840647200588
2025-12-12 20:51:18.686043,Right,-242.89650222897762,-312.49599806097103,-287.13951410050504,-238.8155570155359,-121.43766237678938,-231.9354435338755,-265.70291571115376,-339.1474248163868
2025-12-12 20:51:18.689062,Right,-253.09383215307025,-320.86368038720684,-294.04152243136195,-243.65413564239861,-81.18944127502618,-240.1917665595538,-273.4614150704583,-346.3706995527027
2025-12-12 20:51:18.692067,Right,-231.46400773985079,-289.314628423017,-259.8442100128159,-249.15674254257465,-140.4954690320592,-216.05273907113587,-249.35770340828458,-313.0564944879152
2025-12-12 20:51:18.696056,Right,-210.95937887654873,-262.6366410301998,-232.3539528286783,-234.81902358145453,-190.85522170597687,-194.34073346311925,-225.42834707919974,-285.8300139394123
2025-12-12 20:51:18.699082,Right,-223.59912327252096,-277.1071344354423,-247.7062966709491,-216.32046386948787,-139.79780695904628,-205.76492071291432,-232.81695932301227,-300.1652527748374
2025-12-12 20:51:18.703027,Right,-244.5312434125226,-299.8532430350897,-270.16635330137797,-222.4200106926146,-84.79829288169276,-225.32615758746397,-249.2502371739829,-321.5684180461103
2025-12-12 20:51:18.707174,Right,-236.6141492795432,-288.2103673456586,-257.060377431917,-240.4783395845443,-129.94756523962133,-218.2852122586337,-239.51762360864086,-307.9497567031067
2025-12-12 20:51:18.711099,Right,-213.44511301530292,-260.07133848703234,-229.33686673693592,-233.49643506942084,-190.34571341908304,-198.63145915139467,-214.48944412276614,-278.86559885251336
2025-12-12 20:51:18.714140,Right,-210.94661411101697,-255.7734641681309,-227.7747447892907,-205.8809221565607,-152.7310029551154,-199.0518842964084,-207.83976703882217,-274.76588479301427
2025-12-12 20:51:18.718136,Right,-224.7235482216929,-268.7768135780352,-242.6278876917204,-199.5705382626038,-90.50333572522504,-213.36423201841535,-218.71785740630003,-288.3394141457975
2025-12-12 20:51:18.723162,Right,-223.31650500948308,-265.4371710687992,-238.8707634700695,-220.83419547526864,-127.00482929655118,-212.7593328714138,-219.61167849070625,-286.0928886431502
2025-12-12 20:51:18.727167,Right,-204.95372564456193,-246.19942740583792,-219.1775299872388,-226.77188816305716,-201.07630740996683,-197.88467039266834,-205.72785106813535,-268.2405130857369
2025-12-12 20:51:18.731179,Right,-194.27771875303006,-236.51765267003793,-209.78233807033394,-199.13153834303375,-176.92779296112712,-191.404898940993,-196.19232404022478,-258.2599522159435
2025-12-12 20:51:18.735144,Right,-194.1030552990851,-235.95673600013833,-207.46552131156204,-176.34746487764642,-98.0045984602184,-193.36298336990876,-195.06942011701176,-254.9125758477021
2025-12-12 20:51:18.738214,Right,-186.92090179462684,-226.04364878119668,-192.63629703159677,-187.82921810890548,-109.95647053100402,-186.98613315983675,-189.92077126941876,-242.64975084806792
2025-12-12 20:51:18.742218,Right,-176.6974950688891,-214.0684215684887,-176.10952966980403,-206.45249314513057,-191.01618252129992,-177.8552646546159,-183.28367850603536,-231.62368428439368
2025-12-12 20:51:18.746233,Right,-182.84088639292167,-219.79769216891145,-180.6608209114056,-199.0346545104403,-189.52026072438457,-184.19780359603465,-188.23480232048314,-239.75163665262517
2025-12-12 20:51:18.750255,Right,-196.5507539603277,-229.84646659961436,-191.16822192858672,-180.69400719093392,-101.36898880347144,-195.63549071992747,-196.12567598273745,-250.09276186610805
2025-12-12 20:51:18.755252,Right,-188.2807984459796,-214.27190736099146,-175.1880961287534,-179.2940567941987,-76.406871266081,-184.2211769684218,-184.80508992931573,-233.46696544013685
2025-12-12 20:51:18.760254,Right,-160.10095600871136,-182.21954439714318,-143.12201466277475,-182.6085247885203,-144.6384219302563,-154.49672824703157,-159.14497244823724,-202.54195013275603
2025-12-12 20:51:18.764277,Right,-146.37687049858505,-171.12431679596193,-134.39009426394477,-165.46330069249962,-167.93735560416826,-140.05408110638382,-147.31778231577482,-194.4273532635416
2025-12-12 20:51:18.769287,Right,-155.53008328791475,-181.63989893894177,-147.8793177236803,-139.9274840815924,-99.52381495793816,-147.21103435190162,-152.82192651979858,-205.641705320857
2025-12-12 20:51:18.772307,Right,-157.16801135009155,-176.76196667959448,-143.8018154046731,-132.9156635805266,-65.38918054086389,-146.9688584196847,-148.93409803899704,-198.00761651823996
2025-12-12 20:51:18.775313,Right,-139.57421772176167,-150.84829914395232,-117.77940616797423,-136.96670865884516,-122.40562435387983,-131.26182388846064,-129.2088437443017,-169.56854391272645
2025-12-12 20:51:18.779320,Right,-131.28217836708063,-141.79914230370196,-110.86917795980116,-127.98945274675498,-151.8896403069666,-128.7210187681485,-121.29081414255779,-160.89154225878883
2025-12-12 20:51:18.783275,Right,-145.05931545526255,-160.07776532426942,-132.91675217979355,-112.68715176777914,-86.82381678998354,-148.24326900590677,-135.00086083152564,-180.65023672464304
2025-12-12 20:51:18.787340,Right,-149.47378967667464,-165.0610653667827,-140.08646173385205,-113.40672095207265,-41.352896669122856,-156.23857051780215,-140.08318783604773,-186.02281551499618
2025-12-12 20:51:18.791360,Right,-124.89019526814809,-136.26175467472058,-111.77516239724355,-121.16784208628815,-96.3796410858049,-134.2106338904705,-118.4803283472429,-157.3756248074933
2025-12-12 20:51:18.794394,Right,-101.07892610225827,-110.21812665258767,-87.16027523943922,-109.43657298246399,-145.31885974673787,-112.04324879316846,-96.81274774810299,-132.2515520324232
2025-12-12 20:51:18.798381,Right,-105.19750402309,-115.4831207007519,-94.81840775063029,-85.25405239220709,-92.98807409760775,-115.16919574094936,-99.36122754740063,-137.4463597002905
2025-12-12 20:51:18.803392,Right,-115.24334310955601,-124.75430335564306,-104.77522563195089,-80.22670311277034,-34.93359272927046,-121.94560524751432,-107.29748544684844,-144.08390750485705
2025-12-12 20:51:18.807361,Right,-102.73323487007292,-108.33312110573752,-87.33021986705717,-93.46096995082917,-78.37115465840907,-106.80938983533997,-95.85274944046978,-124.37246299686376
2025-12-12 20:51:18.810407,Right,-84.07867430220358,-87.63304124167189,-67.04497715557227,-91.45469161402434,-139.28522580239223,-87.84332258824725,-78.96384152572136,-102.35614457464544
2025-12-12 20:51:18.815377,Right,-87.77941071876558,-92.71255470329197,-74.58630682574585,-68.37651932478184,-97.99799445248209,-92.65553775546141,-81.56558666331694,-107.4781348289689
2025-12-12 20:51:18.819448,Right,-100.66581608791603,-105.92332685709698,-89.17872278857976,-57.07015461078845,-24.032312640163582,-107.41680738935247,-93.31907845824026,-120.1771366725443
2025-12-12 20:51:18.822456,Right,-92.57700734515674,-95.89554400119232,-78.4279745312524,-69.9127288761083,-48.07434412671137,-102.88948826427804,-88.76856553193647,-109.76516475511016
2025-12-12 20:51:18.826473,Right,-72.53830233030021,-76.35744422161952,-59.25784725282574,-77.81354001164436,-117.77064872178016,-87.77677519770805,-74.54598304425599,-91.6021319667343
2025-12-12 20:51:18.830484,Right,-71.46858621464344,-78.8186595637817,-64.98687276092824,-64.475952184177,-94.50919553157291,-89.78374160564272,-74.83856914233183,-95.8740027329186
2025-12-12 20:51:18.834570,Right,-84.01671026687836,-91.21954943810124,-80.81573902274249,-54.25895946228411,-13.267434546491131,-101.2792407363304,-83.4403971163556,-107.86149773083162
2025-12-12 20:51:18.838603,Right,-78.61648352362681,-79.32163541263435,-70.10298180551035,-63.28251366713084,-20.229800459026592,-93.005119458423,-74.111149387958,-93.80735506868223
2025-12-12 20:51:18.842575,Right,-56.66611641464988,-51.46011858037673,-43.06327696458902,-67.24210041656625,-100.97361203705077,-70.24740821070736,-50.47705031035002,-64.63603402330773
2025-12-12 20:51:18.847582,Right,-50.587307641864754,-45.499121367465705,-39.75274745369097,-47.611532681272365,-96.8932247721823,-65.64642897300655,-41.96416178182699,-58.148861930472776
2025-12-12 20:51:18.850557,Right,-65.55079028804903,-62.0868083263631,-59.08441922208294,-30.01395262934966,39.39171256298141,-81.55172856594436,-53.02708288113354,-72.61413668270689
2025-12-12 20:51:18.854552,Right,-72.63391069602221,-66.79019605682697,-64.3532352076727,-40.741359308274696,227.19498365808977,-87.90805025372538,-58.34034006623551,-73.66444332629908
2025-12-12 20:51:18.858593,Right,-63.29039333938272,-54.13418688456295,-51.80185048124986,-59.31176933288225,465.0824872132507,-77.31845425110077,-50.04389266722137,-58.773903959663585
2025-12-12 20:51:18.862598,Right,-61.922424930438865,-53.21948136604624,-53.2713337977475,-54.24394610294257,819.0723804164445,-74.3664452455414,-48.247177583602024,-58.27637184417108
2025-12-12 20:51:18.866549,Right,-73.90320447538397,-66.53286447969731,-70.01076197848306,-36.51661138932104,1200.9705161278835,-84.09253295866074,-57.02943747045356,-72.58876734308433
2025-12-12 20:51:18.870622,Right,-69.63713288708823,-59.97351244173478,-65.04113452948513,-34.00684514269233,1389.6416030639084,-79.09097674672375,-51.581369852792704,-65.96140303928405
2025-12-12 20:51:18.874609,Right,-38.58341592765646,-26.037208175868727,-31.661547488853103,-37.7788387616165,1328.5886752686638,-51.647692977741826,-23.924104150180938,-31.868436034361366
2025-12-12 20:51:18.877621,Right,-13.686693298630416,-2.9241559040383436,-10.899236908328021,-21.912000339332735,1205.273229042432,-33.365611224027816,-2.684447635721881,-9.338219124474563
2025-12-12 20:51:18.883657,Right,-18.416936128400266,-11.299884923617356,-22.80234562518308,1.5830881096189842,1162.2858134998096,-42.663651838403894,-7.420015098352451,-17.741607282776386
2025-12-12 20:51:18.887746,Right,-29.97023869396071,-21.481305198802147,-34.66066096330178,-0.23188588363700546,1123.4469817552163,-53.65351194870891,-17.681303560035303,-26.76140061870683
2025-12-12 20:51:18.890720,Right,-22.60330734332092,-8.613163023168454,-21.816000935563352,-20.361618945666123,1002.0998342498497,-42.61802199631347,-10.973584679304622,-13.434269380464684
2025-12-12 20:51:18.894677,Right,-10.308650473190937,6.276708974677604,-8.357023903314257,-21.17281410272699,882.0326503686374,-27.33299157282454,0.5871129038278013,0.20524290209868923
2025-12-12 20:51:18.900693,Right,-13.355976670980453,1.7074270381417591,-15.842903028038563,0.4671821758383885,849.1391200544022,-29.333369431959,-0.784737694368232,-5.01674862409709
2025-12-12 20:51:18.903759,Right,-16.603168153436854,-2.2509874805109575,-20.9089461666008,10.346038641233463,816.453611430421,-33.05354147651815,-3.208524322224548,-7.281295895198127
2025-12-12 20:51:18.906755,Right,0.6371718723385129,15.713838478870457,-1.619140603695996,0.6146586839167867,685.7691598218225,-17.657669821404852,9.966072347568115,12.328551842016168
2025-12-12 20:51:18.910732,Right,22.123423461453058,35.30171513839741,18.355499826255254,2.9315360400942154,541.1863560186466,2.0173255875124596,25.756955650169402,30.57453741237987
2025-12-12 20:51:18.914767,Right,22.701084237982286,32.44830471032765,13.52219398561283,28.432668840890983,501.1410857998417,3.5948016128968447,25.07744185125921,24.785283717908897
2025-12-12 20:51:18.918763,Right,15.493407721893163,26.569731591793243,6.1833644587604795,47.11622197026736,498.6389591154293,0.13801699504256248,20.090956995787565,17.692791295150528
2025-12-12 20:51:18.925743,Right,27.71016858817893,44.94572952421731,25.545019594603218,43.086827312276,403.82226186050684,14.74127288829186,32.24804904492339,36.44493447980494
2025-12-12 20:51:18.928834,Right,47.202745275513735,67.49816934447153,49.41142169837258,40.0606578324514,266.7035433498677,32.80820778972702,48.87227999631432,58.50548940178123
2025-12-12 20:51:18.931825,Right,41.322681739227846,58.715018477407284,40.53153754660161,51.95832251952379,227.40429920656607,24.865016117604682,42.38685571079259,48.67400365060894
2025-12-12 20:51:18.935822,Right,17.86610400895006,34.03964172245469,16.240768247458618,56.344427110336255,256.1279802110803,2.718992449779762,22.42353052162798,24.980872396059567
2025-12-12 20:51:18.938830,Right,15.19309858858469,37.41217279850389,21.978438947029645,41.15980002346623,204.3638543607376,3.876771962357452,23.927220131474314,31.267441617295844
2025-12-12 20:51:18.942812,Right,36.03620802842488,65.76945570646785,52.40812022751197,32.65080535574816,73.65814598184079,27.790219276968855,47.983429010477266,61.71271687321132
2025-12-12 20:51:18.946793,Right,44.779968968752655,76.05832641167217,62.516983888534014,48.10668865236221,5.772088466212153,38.20685892002075,61.071838197734905,72.74538617164944
2025-12-12 20:51:18.950843,Right,31.98582567484118,61.297015807416756,47.607825947605306,61.74847179092467,16.96212765178643,26.813510705338558,53.49436322262045,59.62828752861242
2025-12-12 20:51:18.954901,Right,27.620859776667203,57.79834063362796,46.44226960328524,50.40352438419359,-27.430826885509305,23.14562488280353,51.415853066180716,59.025555756204994
2025-12-12 20:51:18.958885,Right,42.36767881359265,75.34739933229866,66.69117530607036,36.57130983186653,-154.6831086964812,37.11239321397443,65.23541514395038,78.28129290477955
2025-12-12 20:51:18.963887,Right,48.47599741030717,81.83115878683748,73.25799709334387,48.437030448403675,-229.23329065728467,42.78538338934595,72.31268560046738,84.69700649709557
2025-12-12 20:51:18.966909,Right,34.2313068977528,67.19401625216415,57.7213046484394,68.66699415027688,-204.4108290671138,30.690302982984576,63.09542059134401,70.90458488788863
2025-12-12 20:51:18.971936,Right,28.176060269761365,64.16259851213545,56.28077050372667,66.36441480380017,-210.39445504645118,27.763075992654194,61.44663685085834,70.91381776872731
2025-12-12 20:51:18.974872,Right,46.54535122643574,86.80772279232042,82.41007273436844,53.67973825481022,-314.07924443803495,46.80959819543932,80.29085796428262,96.48405294629629
2025-12-12 20:51:18.978925,Right,61.3842276235373,101.81281607376877,99.6653373436784,61.54240367600869,-398.1033819084405,59.948858281131834,94.93370976511505,112.55570227716817
2025-12-12 20:51:18.984914,Right,49.46645248148707,86.73085942154285,85.69120315449254,79.52104191500257,-381.380444186565,46.721592470799806,84.72297587031062,98.03595729383233
2025-12-12 20:51:18.987990,Right,32.60085370084562,68.5023099793325,70.05854785120755,73.28416372541687,-366.6340324218618,29.262420466300682,67.92678842364694,80.78377994553011
2025-12-12 20:51:18.990973,Right,37.25255658568494,73.70984177546052,79.04499125470102,49.53391683132941,-442.2386681352509,31.570179508489673,68.29269305758498,85.699834961124
2025-12-12 20:51:18.993963,Right,50.49983266259369,85.52114390537463,92.86803458213399,48.82889442639862,-515.1291706298944,40.30291524340282,77.40949270679994,95.43832353145262
2025-12-12 20:51:18.998003,Right,50.65244485619769,83.57765958684467,91.1591166948383,76.84454204708891,-489.16694165352965,36.97118961592787,78.81653528732568,92.56280183506169
2025-12-12 20:51:19.004001,Right,49.527294583953335,84.85789292600384,94.09515857001861,96.3791273438037,-450.84657606092514,35.50434722301725,81.8006444823477,96.09226046063122
2025-12-12 20:51:19.008017,Right,65.61936320325185,106.27806687072007,119.2451564061048,92.0291653864515,-509.564910707064,52.43545147762052,99.0605938833869,120.5687662432174
2025-12-12 20:51:19.012023,Right,81.90199197512993,123.41230233842361,139.0459428922229,90.1408569703417,-590.1974072555895,68.51082718194812,113.82746098964708,138.3498539395332
2025-12-12 20:51:19.015048,Right,74.04577093576518,111.13818058632387,126.92622163387114,104.0231341517283,-570.0091287852847,60.29321749458177,105.80041370747495,124.83699363660708
2025-12-12 20:51:19.018040,Right,58.84282726809761,93.84946655919339,109.76079330735229,110.50854448816426,-508.0725520942942,45.88858481029456,91.29321996246836,106.95361391418191
2025-12-12 20:51:19.022073,Right,67.6834575732646,106.19382256216704,123.80925550683605,98.41783044877411,-537.3240500935935,55.424467365897726,98.28604045053544,119.54670065249411
2025-12-12 20:51:19.026022,Right,89.75549500541456,131.15382975990178,150.05218505761513,92.71403153919618,-617.4875324591412,76.46647161796864,117.00247413811212,144.0336209475363
2025-12-12 20:51:19.030104,Right,90.2071263016187,129.6554942223388,148.16294849931,106.83464311027683,-610.127336645266,75.54506279324414,116.92142005742335,141.92572273312226
2025-12-12 20:51:19.035093,Right,72.25594004587583,110.01300289104506,128.9675766943801,115.13143142892932,-538.0531701787258,58.529949047017,101.57377407065451,123.91476834880541
2025-12-12 20:51:19.039077,Right,70.40583734713618,111.26804148095289,133.38300718614482,100.69069882608346,-545.4553577407496,59.64560329683445,101.65648528714155,128.8373372654496
2025-12-12 20:51:19.042138,Right,87.34043339402251,131.62581322609003,157.10374879189476,89.09335454086613,-631.1264047192526,79.19204372227796,118.9806739837095,151.90681586526625
2025-12-12 20:51:19.046097,Right,90.51050024985898,133.4988416341148,159.74196129495976,102.49232036670946,-650.4421623725211,84.27343867620948,124.02245724634122,154.47924335422795
2025-12-12 20:51:19.050211,Right,73.68575366892878,114.039317519826,139.98133575682732,118.10570678950171,-582.2668396707159,69.81249538973043,110.42615827598274,135.70685116015375
2025-12-12 20:51:19.054188,Right,68.60299037907407,109.83125127516178,137.09001527151122,109.00883958891427,-564.9772621736629,66.48627525152935,105.40379128274435,132.90545331900648
2025-12-12 20:51:19.058195,Right,85.27110714077571,128.2546294164822,157.27435624167993,92.37260236466318,-636.729956743191,82.40315763249555,118.02441294672099,151.34175280010822
2025-12-12 20:51:19.063226,Right,92.5796893572915,134.02863790041738,162.58424085167644,96.30260747570719,-664.2662135373103,88.25753204430839,122.42778092257504,154.78813864360563
2025-12-12 20:51:19.067224,Right,76.03840166071495,116.00824043429748,142.93741980192135,108.30118723453779,-591.008200520766,73.4711419486157,107.36535736184305,134.37361307258834
2025-12-12 20:51:19.070261,Right,65.25246547105053,108.94106047831156,136.10882907544146,101.32119688034436,-541.2456513887737,67.48530940633464,98.96341385341657,126.66152129886177
2025-12-12 20:51:19.074238,Right,79.7215731675642,128.80781157965248,157.5625643004023,86.78708898954937,-588.8140593306161,85.35727623302591,113.07106091240712,146.39784994858928
2025-12-12 20:51:19.081272,Right,94.02572492080435,142.91921239377552,171.60473956077476,94.19641275342292,-623.9896013273392,99.54824191867738,126.10793779302912,159.68011787159776
2025-12-12 20:51:19.084310,Right,86.03458746048636,130.284926588487,157.3505990775884,115.03983826286276,-563.5649575376883,90.55111270946509,118.47907036453398,146.94583536357095
2025-12-12 20:51:19.087320,Right,76.44846683258584,118.5076979747173,145.2862946432724,115.84827887186111,-506.1801494413521,80.91160278922325,108.56226790964138,136.89172219687316
2025-12-12 20:51:19.091320,Right,86.98245856970607,129.92482134913735,157.86351687539718,97.7061460446057,-543.2646465254948,90.57230698064814,115.5731462611293,149.8530555699108
2025-12-12 20:51:19.095325,Right,97.7831071460314,139.6013543510635,167.18531776531017,92.97797783122223,-585.1344550346839,98.89409678321681,123.15582943108893,159.01511429078528
2025-12-12 20:51:19.098363,Right,85.2036152905639,123.73627386623411,148.87057960747916,105.59315238107956,-530.9840880045667,84.39491611981794,111.79359762450622,142.17758284202137
2025-12-12 20:51:19.102370,Right,69.52387588949205,107.33993411422125,130.70606249813864,105.98873816068954,-461.7737026801333,67.6271316562561,98.35945189122867,126.42475685793033
2025-12-12 20:51:19.106391,Right,80.94470541517512,120.01409041587613,143.21768553751463,88.88569367727905,-489.4634636080591,75.65041061196825,106.87658707075752,140.0542092010146
2025-12-12 20:51:19.110385,Right,104.14426637838187,140.41522143072507,162.5516668629134,84.10131772932073,-543.6413160059601,92.54332777785021,123.29891032380692,159.44514136121143
2025-12-12 20:51:19.114409,Right,104.07020765503694,133.4974241661257,152.65837966796244,99.57220043148845,-500.0278339746292,87.79936941948108,119.18151134057553,150.44789544900414
2025-12-12 20:51:19.118435,Right,86.62191163429816,112.89969878569536,129.80582861030416,104.26710009943054,-414.9711066155578,70.55806449408556,101.99456975553767,129.1388590313436
2025-12-12 20:51:19.122456,Right,84.71220571109734,114.37729070096975,131.17303226118383,85.13386643766717,-425.1515088575543,70.89443436879083,100.39262510191475,130.96461768847075
2025-12-12 20:51:19.125466,Right,98.21386336850264,130.90105292123917,147.07234718868858,72.59201459221367,-494.25467995228246,84.48953647929739,112.58787237813522,146.6513980353775
2025-12-12 20:51:19.131418,Right,98.12490534911922,128.55247780046193,141.42404881955008,85.63767364771047,-477.7924442226649,82.52512203629885,112.01155442443269,142.2842488190072
2025-12-12 20:51:19.135497,Right,83.49155788677308,110.76357767540321,119.70640992031258,97.63436302058108,-388.19764247507555,66.70194573215849,97.37311272323132,123.43694533118105
2025-12-12 20:51:19.139564,Right,82.84702541366278,110.31036075802695,116.96451955255179,86.08528447923891,-369.488060462696,66.06815965713758,93.65001974935876,123.29729024527478
2025-12-12 20:51:19.144566,Right,98.50140342707164,125.78393472811149,130.00515253095364,73.62646517482062,-429.82634444435826,81.75084948341828,103.86383552083862,138.75426344510925
2025-12-12 20:51:19.147577,Right,100.41550561292388,123.65804357285379,122.84926135766727,84.75434978686098,-429.24254377250327,84.27187335233612,103.5119381317345,135.95424894096504
2025-12-12 20:51:19.150568,Right,82.38059262678144,102.27029017116001,95.56518958731613,99.63033803192957,-343.373832764104,68.98799944134953,87.83059381323983,114.90643629866827
2025-12-12 20:51:19.154575,Right,74.75465484715824,96.33175440857303,86.20736822749313,90.60150907718344,-311.62967025791295,64.81977735392866,81.72039560474514,110.58531337743625
2025-12-12 20:51:19.157563,Right,88.94834132578399,112.64787059578521,101.32182922582433,72.99250355466211,-386.67881587613374,79.78311731896247,93.14540988439694,127.8132071273576
2025-12-12 20:51:19.162573,Right,97.58401488278469,118.04796549925231,105.5822238335968,76.39364881873189,-460.6699812944862,86.48481754612294,98.44823451527918,132.99360462353798
2025-12-12 20:51:19.166595,Right,87.32723701858777,102.39222799400159,89.74730730481679,90.85273027869698,-494.2878950154409,75.05096864694497,87.70385140919825,118.59875951547292
2025-12-12 20:51:19.170626,Right,83.30202217762417,96.84483706163883,87.18398037094448,87.01383029931458,-586.627029436524,72.4707391186821,83.12250993131602,117.13720322749577
2025-12-12 20:51:19.174646,Right,98.32510053619626,112.26800273267145,107.12481480948918,70.787212148236,-735.2661738583702,90.38986869738437,94.56127262518567,136.82652499887627
2025-12-12 20:51:19.177644,Right,104.29346694042033,115.20709223640733,112.5937732149032,70.51954284367093,-756.5553521943511,99.94759787202929,97.33356022351654,141.63406764803221
2025-12-12 20:51:19.181661,Right,82.33219364353863,89.3045853873482,87.89306731680699,82.0408637271612,-563.8499791972572,83.10587926817243,76.69217233592644,116.34575093051535
2025-12-12 20:51:19.185681,Right,59.66878466794151,68.72705140482867,70.879177188006,76.11563403072068,-326.4472071931814,66.37787814422336,57.45267875363061,96.78646752788336
2025-12-12 20:51:19.189751,Right,63.45105787306966,79.67612033392652,87.68047102325363,55.19848147784069,-214.91020066279452,74.01257947330305,62.66571423475398,107.79062985870405
2025-12-12 20:51:19.194711,Right,74.82954240856634,95.61321917183523,107.51149480318418,52.212325158456224,-163.332613359089,86.31567172113864,75.23193760748836,121.40511157547007
2025-12-12 20:51:19.198718,Right,65.98740422114497,86.87160070618847,98.79023148052511,71.3018431540695,-39.88794468459673,78.48508229349682,70.88422826910391,109.90552562996163
2025-12-12 20:51:19.202683,Right,49.8375255886931,72.24603776716685,82.4278684095625,79.77882743127702,107.45471118559362,66.17552092998812,60.745109392519225,94.30303701004595
2025-12-12 20:51:19.206737,Right,52.18437137566798,79.81744419064489,87.30349861233844,67.17666100471979,163.68262556023546,74.02052660020126,66.97050879253948,101.34392932831543
2025-12-12 20:51:19.209705,Right,61.737562173686456,93.13512203471328,94.7935158268665,62.65661094697134,173.88613313320093,88.04114637682505,79.60364020233101,112.29779466829496
2025-12-12 20:51:19.213768,Right,52.316621739504626,83.24676557684143,76.06079831147508,78.79643552908965,248.606602180982,81.60320540123212,75.43297975815949,99.08712188454228
2025-12-12 20:51:19.217775,Right,35.251030049374094,65.62460928670771,50.96960284972738,87.38848775083898,338.3495854745561,66.33866494128597,62.90616612834856,79.31069790903712
2025-12-12 20:51:19.221842,Right,41.69674791725993,73.63790742425772,55.79893661069218,72.58594379099668,318.7516105027462,72.08039416385873,67.72492958579096,85.66836738589336
2025-12-12 20:51:19.226814,Right,64.93662309426873,96.22702223529632,77.21975836530328,61.15011643928301,233.67704362608492,91.98932280472945,84.58356323113549,105.20847783249337
2025-12-12 20:51:19.230835,Right,70.27635093772551,96.54970777196286,75.68148895677587,72.89671844393888,232.97364863957046,94.88353962352267,85.54791188135277,102.21246364238323
2025-12-12 20:51:19.234840,Right,55.489599733031355,77.62604473822284,55.654061860157526,83.82335080881603,308.40668548617396,81.62960759592534,69.98034976799681,82.6372547414212
2025-12-12 20:51:19.237864,Right,50.41030306382163,72.8360062349675,52.72656420865678,70.19521878701926,315.23783510990324,80.45315154279524,62.9284854909929,80.00355197468889
2025-12-12 20:51:19.241873,Right,58.91039080872724,81.13885909573582,64.27881256969704,51.67339515349886,241.45033304586832,91.81244149776467,66.66747603166732,90.75611258021672
2025-12-12 20:51:19.245895,Right,53.426938639517175,70.55907687413855,55.770207721274346,54.59485885183676,227.34343943769636,88.08882856520358,58.022468848270364,81.922815535072
2025-12-12 20:51:19.252850,Right,31.166009640845004,43.04515044463915,30.149427444761386,64.595378455444,302.24222432330134,68.68075306515675,36.297236058919225,56.65435538586462
2025-12-12 20:51:19.256922,Right,24.199919484046404,36.61563076476159,27.33334338203713,56.07900406123372,328.7612004099501,65.50220782804536,29.786236348212697,52.82861582643818
2025-12-12 20:51:19.259946,Right,41.619734605643316,57.32555492667598,51.25323478826613,41.67120094301936,256.4269135295399,85.5105518175551,45.3703189301159,74.18015414278489
2025-12-12 20:51:19.262951,Right,50.57379957247758,66.1881730609748,59.45710265904199,47.68317747267429,212.52537401977315,95.70473586693697,53.57620026258519,81.14656384012778
2025-12-12 20:51:19.265937,Right,34.03818554255122,47.494151455684914,37.47289013618138,62.414525742366095,264.39124984543014,80.56302441515436,39.13186545089411,60.69699808524456
2025-12-12 20:51:19.269962,Right,20.793512878895854,34.95694574681693,23.356105333296,56.640173380917986,298.0439278392223,68.0774183023459,26.506228530866792,48.18074417315074
2025-12-12 20:51:19.273918,Right,32.584701958388905,48.64154363356647,37.985738822011626,38.93512268390623,235.66691957905095,77.31542857864406,34.49499670017394,61.75527170917485
2025-12-12 20:51:19.277974,Right,46.25535615636909,59.90620392483834,49.770661871967604,41.56396671607217,180.840943219353,85.33451247803168,43.88771586412622,71.10367146108183
2025-12-12 20:51:19.283022,Right,39.297668819563114,47.81381464023434,36.84620042152528,61.943902264756616,221.41496038088826,73.39527508046012,36.191892814356834,56.72246849472867
2025-12-12 20:51:19.287022,Right,31.04435573775845,38.712736678746296,27.69438807935512,67.36656223362661,264.2041878674099,63.392318785219686,28.239549931604415,46.467456369369756
2025-12-12 20:51:19.290031,Right,43.23003543537925,54.834813076478895,44.80110816816159,53.897134903410915,212.47359915777633,76.21089103155828,38.22718340161373,61.343124475097284
2025-12-12 20:51:19.294033,Right,56.59388010985276,70.43230179486272,59.852810403943295,50.914986405099626,150.77472878475965,91.42725369690743,49.47306056879461,74.39796467666747
2025-12-12 20:51:19.299070,Right,45.5129848713259,58.2199970777001,45.18796022454626,64.07611102741794,188.1104683944941,83.78379549275269,40.67082173371455,60.24529363171314
2025-12-12 20:51:19.302053,Right,25.938436361771892,39.32387817870767,24.894121869423543,64.34373691515066,253.11505903529178,68.52974523800367,25.85646204688237,42.330036077153636
2025-12-12 20:51:19.306092,Right,27.090089031946263,44.140699849362136,30.432567846553866,43.93558258660778,226.88726690851036,72.33009139065689,29.33443400549004,49.8327993209823
2025-12-12 20:51:19.310063,Right,38.341199441376375,56.57928292771976,43.12593389386893,32.918545007065404,165.80677488760557,83.9712859885185,41.21678394638002,63.939552175521385
2025-12-12 20:51:19.316029,Right,29.896206667399383,45.102426278041094,30.252605531015433,44.157355232789996,195.09978096002305,76.09736688750854,36.00345376721816,53.259632776433136
2025-12-12 20:51:19.319082,Right,10.216459716466488,23.70248815159721,8.249495699827094,50.54761207289994,270.04250012352713,57.95587604008324,21.024468679301208,33.39536943301209
2025-12-12 20:51:19.323083,Right,13.095058321327087,28.645553977330565,14.631940359613509,37.63034137665818,253.62451469991356,60.154256285648444,24.62316094644484,39.539257761105546
2025-12-12 20:51:19.326097,Right,36.01555296200968,51.782951623303234,38.51223235877114,31.79442997093429,170.43571507568413,77.62762084358837,43.96187199364067,61.296122553016176
2025-12-12 20:51:19.330108,Right,43.03006075011217,53.745385771631845,38.41414311774133,49.87095197751478,163.70277855431777,76.93841769208666,48.67623950417328,60.462555441015866
2025-12-12 20:51:19.336067,Right,27.630288600208587,33.85556843660015,15.934271752063069,64.46592412768223,232.1577426622389,56.024092821011436,34.83734985301271,39.858955298448564
2025-12-12 20:51:19.339141,Right,20.642381164914696,28.53346485248767,10.14519481008756,51.58531369836419,234.63629956782097,46.26096153446997,30.180454476867453,36.3671009127429
2025-12-12 20:51:19.342121,Right,30.38029783582897,42.32082797239127,24.15117802914756,33.197667237443966,153.51297580898972,53.606998141491204,41.31102961131546,51.55730006880185
2025-12-12 20:51:19.346082,Right,28.057912226839107,40.390612953255186,20.809979634621413,35.69344461694709,126.75044630348566,48.868062736684806,41.61164967325749,49.252969914334244
2025-12-12 20:51:19.350141,Right,5.303710584004875,15.782220440771198,-5.361890305415727,41.6778391359112,190.6321763031301,24.53442740510218,22.164825492960517,24.101192025103956
2025-12-12 20:51:19.354170,Right,-6.183957442408428,4.22735677062883,-16.096965971169993,24.47635155727039,214.22313820011914,10.913736360191251,9.514014279295225,12.097342992186896
2025-12-12 20:51:19.358174,Right,8.813279927839176,18.93600864916516,0.46095087118737865,0.655091704276856,145.92503357038368,21.666339224975673,17.6461263433157,24.263712900763494
2025-12-12 20:51:19.362192,Right,21.519661862403154,27.938743960883585,9.407726892910432,2.4253322235890664,109.40936735380092,30.667389294831082,24.754206070880173,28.842907708283747
2025-12-12 20:51:19.366132,Right,11.51378191637923,14.83391473289521,-4.853686252245097,20.074206473538652,170.69332451416994,21.553312433403335,16.221688851655927,13.424583707630518
2025-12-12 20:51:19.371227,Right,1.761715587679646,7.836202875725576,-11.423202286656306,20.31803570286138,213.522343435965,15.923818084411323,11.335663748002844,8.01595872087637
2025-12-12 20:51:19.374209,Right,13.049299517995678,24.036069125606446,5.766150287017808,6.503597904447815,155.65655837827944,29.06579138181405,24.592951319704298,26.174904222643818
2025-12-12 20:51:19.379228,Right,25.162975229381118,35.798193592519965,15.821360759495292,9.89659239424509,100.74545287992805,38.99994900089223,36.34652072071913,36.785833116358845
2025-12-12 20:51:19.382251,Right,17.29166404955322,23.053620938080712,-0.7325544111299678,29.746478070650483,142.53454653479275,27.96879112618626,28.893514175360906,21.085117576934863
2025-12-12 20:51:19.386250,Right,9.295878020042437,12.15102387641673,-13.56337128256564,34.18964474539098,189.38005123421317,17.44861615897389,19.89602316491073,8.344907065678854
2025-12-12 20:51:19.390243,Right,24.22268059126509,26.71394686109852,2.083907481908682,19.27208399947267,137.99328724006773,28.678220317990053,29.15675508287677,22.040689739820664
2025-12-12 20:51:19.396288,Right,42.28054403667193,41.84394623449771,18.61923208153894,15.113557142729405,70.07611087392434,41.30379588170035,40.046470931731164,35.57925409551535
2025-12-12 20:51:19.399294,Right,34.235561813351524,28.560202636261238,6.098857338161906,28.344601495336974,102.22453035862418,29.004426382642123,28.749681354805944,20.547676648784545
2025-12-12 20:51:19.403302,Right,13.980983664783707,7.305195090768393,-12.7195160761039,29.336932447418803,169.0409549518954,7.669554063380929,8.545410518388962,-1.0399268204782857
2025-12-12 20:51:19.406299,Right,13.227432273546583,11.195524207418202,-4.30075913228211,8.480222928890726,144.65246974796173,7.017560867301654,7.053764669311931,3.107841879595071
2025-12-12 20:51:19.410323,Right,24.805825481751526,26.48204158851877,14.400572648417437,-4.161028289825481,75.33209891626029,18.125960877208854,17.67767815168918,17.624436015394167
2025-12-12 20:51:19.414334,Right,18.47927564840211,19.55865530813753,8.328346773814701,6.237344676555949,89.3592269680812,12.952309584215982,14.037102723617863,10.362206515099388
2025-12-12 20:51:19.418340,Right,-1.8776056741189677,-1.0867324114224175,-11.305915786448168,11.682838006236125,154.5564136529283,-2.5768961992507684,-0.7431231757364003,-7.329710409787367
2025-12-12 20:51:19.422353,Right,-6.355091784942488,-2.8842788848414784,-10.245246557766222,-6.809316631915863,138.5027565007913,-1.105898379595601,-1.7780896632175427,-3.788423218924436
2025-12-12 20:51:19.425357,Right,4.9610145321858,9.354340348392725,4.1319903812982375,-23.449352565410663,58.96377703972394,13.427720640247571,9.549656741735816,11.908552409309777
2025-12-12 20:51:19.429363,Right,3.978828104722197,4.759799481980735,-1.2676540116444812,-14.196394411024812,54.65169010049431,12.978246681268502,8.843592982477276,7.02651241888816
2025-12-12 20:51:19.433394,Right,-10.347128267858352,-12.377023977467616,-20.142045746659278,0.6643625902070198,128.74628504132852,-1.3203382799547398,-3.8541390463215066,-12.058644098695368
2025-12-12 20:51:19.437419,Right,-9.261623345431872,-8.956344078971597,-16.86740575744261,-4.044165718725708,143.49083713145228,-1.1892831955992733,-3.268117013074516,-10.448914658925787
2025-12-12 20:51:19.442391,Right,9.243744238359795,12.605822019300831,4.914726897455694,-12.750158679504239,76.24239564931486,13.812699198977498,12.304185937282455,9.326810409816972
2025-12-12 20:51:19.446415,Right,12.117070848027652,14.197406977124047,5.1996093601228495,-2.527697126279236,59.0078199316049,12.598694384316332,14.995308985584415,9.870121761516202
2025-12-12 20:51:19.450439,Right,-9.067301475413842,-8.991018474596785,-18.89179507480003,10.217778958773124,128.87936803972116,-9.871769991485053,-1.6175098098028684,-12.05937493773672
2025-12-12 20:51:19.453423,Right,-20.631412984555936,-17.79210773709201,-25.38096476463761,-0.3559107009568834,157.93930896540405,-20.624700772525102,-9.183175068130367,-18.372589010556112
2025-12-12 20:51:19.459452,Right,-5.933657316018071,1.3135346282288083,-2.3734688356380502,-19.210502568654192,94.10856169875478,-6.686752368346788,4.464653092720255,0.8412574506655801
2025-12-12 20:51:19.462468,Right,7.217242259022896,13.961828582789167,11.895539277407806,-15.386281003884505,60.66793014283758,3.2188500961929094,13.937823919346556,9.915332669072086
2025-12-12 20:51:19.465455,Right,-0.2810181901004398,2.215371272068296,-0.5365436692773073,2.5779241393101984,126.30313810281223,-7.564993317464541,3.367383486693143,-6.220603896246757
2025-12-12 20:51:19.471493,Right,-5.663054769640439,-5.320431201602332,-7.898761904281855,3.086069785262225,175.4496748688398,-15.17744789691642,-6.2187165023060516,-16.117519628962327
2025-12-12 20:51:19.474570,Right,9.124498266879527,9.073687438096385,8.065389791387133,-10.651090648272657,122.5730249992921,-3.2858184800861636,1.6950862488447456,-2.5208912041780422
2025-12-12 20:51:19.478545,Right,21.22881838104513,17.514709590286657,17.094204285982414,-8.209097835002467,70.87488439498702,4.488915272653685,7.974620018954738,5.2997637129738
2025-12-12 20:51:19.484552,Right,9.815768384309195,-0.047055816678039264,-0.9892108157882831,10.251438410021365,119.13425734889461,-10.81763581501582,-4.99996210529207,-12.237038161678356
2025-12-12 20:51:19.487638,Right,-2.061469041320379,-14.761719992362487,-14.909063649055497,14.58804515697193,177.7842880807002,-25.546476282957883,-17.527707963789,-25.702965961390873
2025-12-12 20:51:19.490562,Right,13.313915036567778,0.8462098284362582,2.6483293027476975,2.0821799572586315,137.69702128268545,-14.76214940060163,-6.381863265003631,-9.122659406370076
2025-12-12 20:51:19.494606,Right,37.67334752572788,22.19481012345932,23.925060126113294,2.742623137695773,75.48655301734107,2.166076738609263,12.23322560071756,11.43144831063546
2025-12-12 20:51:19.499631,Right,38.06529023766052,15.947231255566294,14.981514922053776,21.78401980965282,110.91779642237816,-3.415386920714809,10.387333613653027,3.84421397899132
2025-12-12 20:51:19.502583,Right,23.984344005515595,-0.8997441608007648,-3.8899581405805748,28.09093493815817,182.69591938052326,-17.607971935030946,-2.6548262800934026,-13.113419466550113
2025-12-12 20:51:19.509599,Right,26.241093032222125,5.515092374000233,2.702740232324686,11.668914206726186,161.9466633941047,-11.006814738066169,0.1571778742254537,-6.7421910932716855
2025-12-12 20:51:19.512615,Right,38.63885180193029,22.52903202843663,19.428761977498652,2.5512830918014515,91.65793527453206,5.4514045410869585,12.74344668953563,8.361851862471667
2025-12-12 20:51:19.515617,Right,32.14601374468839,15.940595919790212,10.43209817843217,15.249740157923952,105.15922402089927,0.04490672450992861,8.813830447281362,-0.2643023518976406
2025-12-12 20:51:19.519661,Right,13.67279809282627,-4.067049749348371,-11.537027730975751,22.073730049032747,177.01970339857507,-20.463814165093936,-6.414734325546306,-18.985267336032848
2025-12-12 20:51:19.522618,Right,16.63250928389607,-0.8819121459418966,-7.705767507160999,4.670627634375705,172.18764638830908,-22.42054473983808,-4.258095531102299,-11.709802018936898
2025-12-12 20:51:19.525639,Right,38.840995860558905,19.765670252862037,14.041247666300478,-11.961083291436807,100.21457981772255,-6.842560274621064,13.77597504751975,11.886710376124029
2025-12-12 20:51:19.530587,Right,43.48945368475688,19.031762743194122,12.142076559530324,-5.826581118124523,97.93284506723285,-6.805646269005592,17.058928042339176,11.394878010512912
2025-12-12 20:51:19.534659,Right,23.23286583216759,-4.729806537459808,-13.92208769786157,1.6588170901031845,172.84676008264069,-26.27993172058268,0.2802256261038565,-12.81982028197308
2025-12-12 20:51:19.538676,Right,11.081807102571474,-14.428785911595696,-24.759319769436843,-13.359642915906079,187.8102720080642,-34.30305526573102,-8.566369992309774,-22.376445416395654
2025-12-12 20:51:19.541679,Right,19.53993829531828,-2.9517909783990035,-14.065675475452736,-31.388349934589314,116.30013408651575,-23.713263940288016,-0.16793849811165273,-10.985235025064867
2025-12-12 20:51:19.546704,Right,20.768822470452506,-3.958592818740726,-17.17941747639634,-25.019989060165244,91.16351072693942,-23.502378068070357,0.9761541538828169,-12.08062927825631
2025-12-12 20:51:19.550705,Right,2.351162889282932,-26.11866228310555,-41.161321327610494,-9.693647748743842,156.08013054466574,-42.26080230266052,-15.013469024643655,-32.56151253156713
2025-12-12 20:51:19.555714,Right,-8.361112044038236,-35.820110177929564,-49.98533383468748,-15.383122027114041,185.08077590778703,-50.22770024186093,-24.17517789171552,-39.30450192708179
2025-12-12 20:51:19.559735,Right,2.9528503439287306,-21.142667992020506,-33.29484492095071,-32.30516926550412,119.9930514502339,-34.79234593121856,-15.058304230062454,-23.721305172784923
2025-12-12 20:51:19.563749,Right,8.991525877039749,-15.721320193917109,-27.951491155119584,-31.0914180488287,80.00842801999534,-25.488312371076745,-11.826969305905322,-20.628710309367307
2025-12-12 20:51:19.566745,Right,-7.797972687079891,-35.674878875087195,-49.3713406053721,-18.04532902602159,137.600855447934,-40.195578041786575,-28.606048901400754,-43.043615620060336
2025-12-12 20:51:19.570763,Right,-20.264605108312935,-47.271497512575706,-60.64802706097544,-21.66199878680436,180.88328304386232,-51.694666826700995,-40.343051797967746,-54.65293200553424
2025-12-12 20:51:19.573774,Right,-5.843094226047469,-28.24351501879346,-39.76967521064216,-37.149170879800295,121.65782293019583,-37.42416273859544,-27.00990681215353,-34.505579105250945
2025-12-12 20:51:19.578725,Right,10.259526947810173,-10.091173845888079,-21.45187945311045,-34.47443316073259,60.76749928097706,-20.739379672555515,-10.79232957309614,-15.912042991756607
2025-12-12 20:51:19.584800,Right,-0.8501175646060801,-22.073968197852082,-35.180661575977865,-15.369485521403476,100.58885711000767,-27.723846078193674,-17.208876299571784,-27.263565711102274
2025-12-12 20:51:19.587811,Right,-21.34468256243045,-40.664051993193425,-54.226708454640175,-12.30313110706993,154.57746798201697,-41.10483481855226,-31.864306960038448,-43.94613208467126
2025-12-12 20:51:19.591820,Right,-21.94673229972841,-36.36342540786973,-48.39575933292508,-29.89307830355756,110.14901899639517,-36.0325006764233,-30.88482634312095,-37.893084673774865
2025-12-12 20:51:19.594821,Right,-14.619829226595357,-27.192044582125163,-38.78371142928518,-36.433560262014,40.2335363997845,-27.52478395628168,-25.036425806274565,-28.970994690018415
2025-12-12 20:51:19.597816,Right,-25.560897079157257,-40.14957889656762,-53.437020436060266,-21.733710203612645,67.66959593188949,-40.39928249024888,-35.92510287276309,-43.54383103181317
2025-12-12 20:51:19.601835,Right,-43.10970429100598,-56.95701921723776,-71.10327481280547,-15.201270110337646,135.83784551068675,-60.25948110741774,-52.30864892907266,-61.820566195743595
2025-12-12 20:51:19.605855,Right,-39.1374258552014,-47.11665108314992,-59.84868129507959,-30.968030178828485,113.92312631540699,-58.22332243933852,-49.45063131900679,-53.83864800409356
2025-12-12 20:51:19.609866,Right,-22.55764797368829,-25.962104569491203,-37.736189053081034,-41.761806304148195,40.15690643317066,-43.399122149934556,-34.89474259137933,-35.86566805854454
2025-12-12 20:51:19.613863,Right,-24.050771696047377,-28.668684440595825,-41.60026673831453,-29.86908873020002,49.71171840588795,-45.72596708138735,-35.14073849543638,-41.16353714917932
2025-12-12 20:51:19.618884,Right,-39.241708762509006,-46.79640779907277,-60.42047498973989,-19.3218398484496,122.87794502160978,-60.6486077257141,-47.27183727560987,-58.640960224929586
2025-12-12 20:51:19.621839,Right,-36.037754145116196,-44.08247773403491,-56.04982662801922,-28.96033161585001,123.35556151211495,-57.87003885824379,-45.01836072318474,-53.26702434724575
2025-12-12 20:51:19.625915,Right,-14.195158196980628,-23.039089851219615,-33.626707368886855,-36.11277026225798,53.355366628675256,-38.01622480392325,-28.640577978701913,-31.41148533593514
2025-12-12 20:51:19.630916,Right,-6.770257006461179,-19.193930825258576,-31.295390042876534,-20.33941208453325,47.30206828430528,-31.432407656095165,-25.218683652754407,-29.488862886006245
2025-12-12 20:51:19.633939,Right,-20.378802538860327,-34.369904877490626,-48.79398153240618,-4.543690779973986,116.58064534742152,-41.75445609521557,-38.08787243462211,-46.423087727613165
2025-12-12 20:51:19.637976,Right,-25.245633619764703,-34.68535793911724,-49.053323118947446,-15.0121460760638,125.59779379400425,-40.81651997168228,-40.75250807474731,-46.484777313205996
2025-12-12 20:51:19.641900,Right,-12.276704885069194,-16.276404755364638,-29.26014749072783,-33.76429902564996,46.60907934571151,-23.825511928542255,-27.134698848789412,-27.23978610416816
2025-12-12 20:51:19.645983,Right,-9.45302576748145,-13.73933321910954,-26.89447260300949,-31.543919606727286,16.18521061039064,-19.65494154598491,-23.52209199349454,-24.761031001653464
2025-12-12 20:51:19.648992,Right,-27.30326423324368,-34.72119845786074,-48.88615957868751,-20.18341972048802,84.31591855583247,-36.12320290998832,-39.377197253990744,-46.029204171958554
2025-12-12 20:51:19.655024,Right,-36.88036227032353,-43.76681571974041,-57.05678759865259,-27.64026661123353,122.20475039287703,-43.45499423431829,-48.79761224851973,-54.99325616423448
2025-12-12 20:51:19.658025,Right,-23.02594957080146,-27.236224779699114,-38.44386212839163,-43.88691477716202,60.31069467414636,-28.60274070993546,-37.57678459181625,-38.74068076525873
2025-12-12 20:51:19.662027,Right,-13.66948709035205,-19.086163612002565,-30.04483940812497,-40.04664625188889,13.467647144512739,-20.081107551399327,-28.966527738259174,-30.863528389352723
2025-12-12 20:51:19.666046,Right,-28.75156588216123,-38.24052540078992,-50.67633499830117,-24.451375089141948,62.96459867997328,-35.88855570592932,-40.181214129370346,-48.259772686622455
2025-12-12 20:51:19.670057,Right,-43.28416307412408,-53.51640976352792,-66.18088946132775,-29.290171214008296,105.85829626896884,-50.3257594230854,-50.71862370055169,-59.56268708850257
2025-12-12 20:51:19.673073,Right,-34.11592823391402,-41.853332732920535,-53.140503705784795,-51.68099641344452,52.338182829436846,-41.522511538532854,-41.802714782410476,-44.77186507850274
2025-12-12 20:51:19.677109,Right,-22.798123093132745,-30.60372243182792,-41.655309883572045,-58.05333730269194,-1.96234380453825,-30.69943727050486,-31.991876670872443,-33.47470975248143
2025-12-12 20:51:19.681103,Right,-34.24653872138515,-44.975259921106044,-57.463584179611644,-43.541396816923225,45.692054059996735,-40.41949716362069,-41.51986097711051,-48.98536111179419
2025-12-12 20:51:19.685118,Right,-48.84534007998445,-59.8768785840075,-72.78351645228395,-37.48806855536532,109.83891221461818,-51.31235574800303,-52.989303257869324,-63.45715235378884
2025-12-12 20:51:19.690125,Right,-37.89355584903387,-46.42050147953705,-58.05175632107421,-47.223007685017365,72.75052918249276,-38.398841242051276,-42.95741981359606,-48.88622919176851
2025-12-12 20:51:19.694240,Right,-16.950310394531698,-26.074934742748155,-37.53424928570166,-46.101371935503266,3.0754032265977003,-18.703410457183054,-25.88173489572364,-29.235933644180477
2025-12-12 20:51:19.698189,Right,-18.20006100273895,-31.693853543016303,-45.147627343423665,-27.20386003574822,29.396352682844736,-21.029834572778782,-28.369778866581328,-36.68921385847352
2025-12-12 20:51:19.709260,Right,-33.72938562195486,-48.89058031998138,-63.72560938389506,-20.288312240350933,103.57067582872696,-34.46577805974812,-41.74795780535351,-53.97112276392727
2025-12-12 20:51:19.722298,Right,-33.92840985183284,-46.03365160665271,-60.01800796890166,-37.801970942709886,93.21370541543001,-31.21992106559628,-40.46657759811933,-49.049312311610265
2025-12-12 20:51:19.725216,Right,-23.22760519712756,-33.63460040502105,-46.874929926896584,-49.34233577935811,27.848438660614192,-19.11949547402037,-29.742788780895353,-34.70491307676275
2025-12-12 20:51:19.728268,Right,-28.579315979128296,-41.6577503427543,-55.908373618047335,-34.25716134910181,39.09906706219772,-25.104574877790583,-33.475426419732685,-41.8742619265322
2025-12-12 20:51:19.732290,Right,-44.78378430206067,-59.54725019224861,-74.29331188132346,-17.850978852402477,110.11607305286452,-42.11492148374964,-47.043758804080426,-59.21454737852764
2025-12-12 20:51:19.735299,Right,-41.38678371209244,-53.38439530398318,-66.35591708068387,-25.157622209750116,105.36581769387703,-40.114276520915155,-44.50286052859883,-53.48004543723073
2025-12-12 20:51:19.739296,Right,-20.290406744301436,-30.257753804908134,-41.537858542156755,-37.819403809844516,25.47921807441162,-22.264779780525714,-27.9662918091999,-33.40349647939729
2025-12-12 20:51:19.742256,Right,-15.472073374519823,-28.624929414836515,-40.54675344542193,-31.69691793842503,9.394604910805356,-21.006795247492846,-26.18289810915303,-36.098682821553666
2025-12-12 20:51:19.745271,Right,-31.762152124312706,-48.453412464252324,-61.419053684265236,-21.615571509661095,78.07484656793531,-38.271127984073246,-41.74266013151646,-57.846156556937785
2025-12-12 20:51:19.749333,Right,-35.33362389514514,-49.75534344895277,-61.78873536057654,-29.76745590180508,98.11493906908436,-40.01447275810642,-44.23972779275937,-57.80052993829304
2025-12-12 20:51:19.752285,Right,-14.906298073845392,-24.292377633682918,-35.10945351237024,-40.19892015516234,32.72500746755395,-17.252377624325163,-24.156190899891953,-30.55907144623052
2025-12-12 20:51:19.755335,Right,-1.9486840715326252,-10.038841544715979,-21.91422069084365,-27.947560242457257,10.22336340311449,-2.6619625194871332,-9.923901110676525,-15.754463369281439
2025-12-12 20:51:19.759362,Right,-13.402562700859562,-23.06635197261494,-36.64963862745208,-8.98180218879861,81.98707554023713,-12.778895316798298,-17.605362343347224,-27.867459571883956
2025-12-12 20:51:19.762345,Right,-22.914683154245722,-32.18070165372774,-44.88358586693357,-14.62354819853499,123.21309963430394,-21.574372728529852,-25.48634706181474,-34.84270288619882
2025-12-12 20:51:19.766378,Right,-12.454470602242509,-19.98735760471027,-30.107130943695665,-34.89537999653112,63.46048280666582,-11.146873265861359,-17.603923953094636,-21.38497361652844
2025-12-12 20:51:19.769382,Right,-6.265212423102639,-14.347625444068399,-23.692664189176867,-35.86999705195922,17.10689186808304,-3.0502146438811906,-12.579127833923849,-16.426827474409947
2025-12-12 20:51:19.772389,Right,-24.03922055917792,-33.369742482493166,-43.82158140377578,-20.6005138259643,69.97780236974359,-14.043453822632728,-25.649070903971733,-35.59603729885566
2025-12-12 20:51:19.776340,Right,-42.12025161919155,-49.346998210574384,-59.712395937371184,-21.966517118278716,120.47082268304075,-22.574868047518976,-37.803036306060676,-49.35360535768996
2025-12-12 20:51:19.779412,Right,-35.47726847468584,-39.370543354139954,-48.15070075265248,-40.98321113548445,70.85305924451677,-9.628611525076849,-30.22552267646097,-36.920904500831966
2025-12-12 20:51:19.782436,Right,-22.779177637676185,-27.89739355511847,-36.66594887967949,-45.47353447736532,9.72870817387593,3.3590389610144484,-19.819688621566456,-25.258963123284047
2025-12-12 20:51:19.786368,Right,-31.099548889200378,-41.041167644711095,-52.014644470058556,-30.77778739661153,44.88897377229296,-7.501351106708171,-28.678456221954548,-39.407563978973485
2025-12-12 20:51:19.789430,Right,-45.354923843668075,-56.65905811171979,-68.7577403079631,-27.320847986862645,101.15608640408027,-23.324749736762897,-42.34208539906831,-54.97303395569179
2025-12-12 20:51:19.792442,Right,-36.58593938461854,-44.313779929645534,-54.864841903465276,-41.10297048307257,62.74588732607663,-15.434333924229577,-35.21313827478298,-42.10064165716176
2025-12-12 20:51:19.795484,Right,-16.752161245756724,-22.360741558120935,-31.29890064979554,-40.72943257208681,-6.857962901965948,2.1384776556114957,-17.93903004284948,-21.00349574118445
2025-12-12 20:51:19.799471,Right,-17.49318064594263,-25.61172299773898,-34.62538150628825,-16.694389967538882,19.14611514515127,-2.028533627584693,-18.685788274757215,-25.691146695564385
2025-12-12 20:51:19.803555,Right,-32.040449978369,-42.87054961548711,-51.50163729086489,-1.9294310955956462,94.42414469580399,-19.79502723483529,-32.392792160171666,-42.65178319952247
2025-12-12 20:51:19.806546,Right,-29.026229265153233,-40.221983003852074,-46.32350419180875,-14.414529484623927,84.79043566441396,-20.012810606549465,-32.132103340831236,-38.156556911897496
2025-12-12 20:51:19.811549,Right,-12.535939280904131,-25.689258627979143,-29.021565284827375,-27.677484266416286,16.830745646642754,-6.619754759936768,-20.59166968959471,-22.280021754384506
2025-12-12 20:51:19.815538,Right,-14.745819861222117,-32.902839108443004,-34.75387400854379,-21.866499863819627,25.577205067762407,-9.47532634435629,-24.236781669809716,-28.76615170014702
2025-12-12 20:51:19.818552,Right,-33.89983611785283,-54.3078321686844,-53.66447913138836,-18.30079229076364,99.17546204317478,-26.2021349964416,-40.99665828057914,-48.59091580247332
2025-12-12 20:51:19.821554,Right,-35.40447335245699,-51.67998113245267,-45.16378725643153,-34.489399532889365,98.90619966181112,-25.68301638326011,-41.59575406702788,-44.17725835444435
2025-12-12 20:51:19.828561,Right,-16.286786352859053,-27.025713678805914,-13.334002686358872,-47.15023835973989,18.284417074319208,-7.59923241749857,-24.052393466809008,-19.901136375272472
2025-12-12 20:51:19.831547,Right,-12.590162418782711,-21.45945061853854,-2.9771909350311034,-34.543330190121196,-3.2231962073710747,-5.588915986860229,-19.03588166053669,-16.501039802809828
2025-12-12 20:51:19.835552,Right,-34.03544291994331,-42.07804887507518,-21.3383787690982,-18.72456411855819,61.789041149721015,-26.087363482762157,-34.430057666031644,-37.76713741460844
2025-12-12 20:51:19.838560,Right,-45.642318459453236,-50.46195952343987,-28.231653794835438,-26.648132813774282,80.31194300722564,-35.8123207783392,-41.11205530742154,-44.41743394959485
2025-12-12 20:51:19.841570,Right,-30.08725270708237,-32.91431471283431,-10.941085626232962,-40.991400126462395,9.278097228030674,-21.57469683168165,-26.116253826927277,-25.976035330066225
2025-12-12 20:51:19.845548,Right,-16.819006333622383,-22.811140067969973,-5.029860008959076,-32.569344776951766,-23.998330391797936,-12.359387196989701,-15.134414206651854,-17.912519628815062
2025-12-12 20:51:19.849605,Right,-26.78702242408326,-36.35710207149532,-25.363465465867193,-14.909219414497784,39.03447064818465,-24.246044191782858,-24.187923819379648,-34.41582005391683
2025-12-12 20:51:19.853609,Right,-36.28584302726085,-43.34112529856793,-38.32869829561969,-19.717903659642616,77.5263946581108,-31.485038243998133,-31.337784209790698,-43.33183243472013
2025-12-12 20:51:19.857624,Right,-24.30155479015957,-25.817791094843415,-25.74724116460129,-38.17064777394262,16.305361853243085,-16.006726402520144,-19.49506861739792,-28.169043339119526
2025-12-12 20:51:19.862640,Right,-12.254173476052529,-12.823455461402773,-18.63507620112796,-36.64767859492713,-34.29034559841966,-1.449415274677449,-8.713825651371735,-19.102726945871837
2025-12-12 20:51:19.865596,Right,-21.781726300738228,-25.660539778284146,-37.06503304842772,-17.57015685539227,14.495857500704005,-8.576803958887467,-17.74692684040201,-34.87448167727416
2025-12-12 20:51:19.868605,Right,-31.72521750969463,-36.95150466932682,-49.92322230440914,-12.755613629291474,63.42104601926985,-16.27103456837358,-27.78786938533449,-45.65118638671993
2025-12-12 20:51:19.872674,Right,-17.937518155034923,-22.430833682985394,-32.77554608918581,-24.149071887528407,11.517764647578588,-2.1882711198741163,-18.126307182312303,-28.80041623977013
2025-12-12 20:51:19.880707,Right,-1.0301978009883896,-8.680022303815349,-16.020794489973923,-23.381141195488453,-53.691478972599725,13.405947001159802,-6.979237859493878,-13.550593803811353
2025-12-12 20:51:19.883719,Right,-9.506791637642891,-24.50654283422773,-30.198511759135727,-8.195388705280493,-19.050476388685638,5.099762361009198,-18.476310320060293,-28.203149337874493
2025-12-12 20:51:19.886668,Right,-26.460401042284502,-45.92648759599979,-49.23899965804594,-7.933978176653909,42.60719580449222,-8.68505585881212,-36.575088350335136,-47.144497015127854
2025-12-12 20:51:19.891731,Right,-20.268548405118054,-38.624653161270544,-38.013516577517294,-27.386123417614726,8.089067354318104,1.555971361889533,-32.624064866802655,-36.91307121335558
2025-12-12 20:51:19.894777,Right,-2.73027725655993,-19.57289536620374,-15.873537936626235,-34.74817101822555,-66.52502971670765,22.026290158668417,-15.974201331438962,-15.945716890470067
2025-12-12 20:51:19.898761,Right,-7.22351171761693,-24.31689313590323,-19.28989925982387,-18.31846645789483,-50.503061379349674,20.52265070491194,-15.435305373837764,-18.67168840987142
2025-12-12 20:51:19.901743,Right,-27.05887759347388,-41.33101298492693,-34.287150585489144,-7.2581204078378505,18.959935873543145,4.81767478173424,-27.103530299456907,-32.21966212998086
2025-12-12 20:51:19.905758,Right,-27.283308330421278,-34.43425661926449,-23.618627175150323,-17.174319344565447,8.60709602474526,7.375685645150952,-23.96662967528391,-22.38245567827107
2025-12-12 20:51:19.909767,Right,-7.853302884701407,-10.776839396763535,2.777857466990099,-22.091146980448684,-60.89894470522995,25.6291619957301,-7.935599594049563,0.8901545050903223
2025-12-12 20:51:19.913781,Right,-1.9900591880941647,-8.248974187918066,5.190656884045893,-5.24367834063014,-55.2222114650358,28.148760936281178,-7.1055625186090765,0.8760976126723108
2025-12-12 20:51:19.920741,Right,-14.650320638167614,-26.304698083193216,-13.155305038028018,7.202727126001264,19.43595244946482,13.532370553886722,-23.293600976856396,-17.94345948703267
2025-12-12 20:51:19.923808,Right,-15.941140035771241,-28.459625974603114,-13.018857443665183,-6.196085408308136,25.606260902044596,12.031651014116505,-27.812316425643075,-17.98250606482543
2025-12-12 20:51:19.927804,Right,0.839004864639719,-9.896665567328455,8.62225897215285,-21.143382537760772,-49.22722558262467,28.525482051412837,-13.208299227346288,2.8757860366167733
2025-12-12 20:51:19.930818,Right,6.943262369088188,-3.602503536039876,15.88837826204508,-10.06088079984329,-69.37913294348982,34.37071420038046,-4.659266113838385,9.92642108992004
2025-12-12 20:51:19.933828,Right,-6.3798238677409245,-16.24174999177194,3.2487670869395515,8.827108538000175,-4.78039226133842,22.151346701579314,-11.830811980216822,-2.3339132610381057
2025-12-12 20:51:19.937887,Right,-10.47859270869958,-16.19729548336545,5.037331598263336,5.172282697807532,12.865788730247004,18.90427411775636,-12.890521885325143,-1.9732841120385274
2025-12-12 20:51:19.941798,Right,6.348609563574428,4.162930929083814,27.96933188487401,-9.812165444858692,-62.783346610820445,32.86995705310255,0.5531161885337497,16.577748038511345
2025-12-12 20:51:19.945875,Right,15.214971006294945,11.0692894464446,35.38178226095988,-7.802367367141414,-103.92392265841772,35.482632356166505,4.5597493370041775,18.883605186572822
2025-12-12 20:51:19.948835,Right,0.5240665482124314,-7.418539147631236,15.725263050686408,2.9900524679978844,-44.97155636935349,15.106747177183934,-11.819106140403164,-4.60946681662972
2025-12-12 20:51:19.952905,Right,-8.9838098254113,-15.754630460935005,7.28844081485272,-3.6532149389859114,-3.180324906563328,2.4824478900336544,-22.024084422570013,-16.68796793810543
2025-12-12 20:51:19.956914,Right,7.384094411550905,5.476545349356456,29.537766773326666,-18.771369969301304,-58.3674288195034,17.309880078671995,-7.8439839633174415,1.1699679501980427
2025-12-12 20:51:19.960939,Right,23.397288237305474,23.594023833898973,47.658823809585556,-12.658200996909727,-104.11532851190714,33.14492130185681,7.823147593280737,16.439349480249803
2025-12-12 20:51:19.966949,Right,14.029724920510489,13.619036755659181,37.04974368326475,9.427961828678235,-48.699014823538164,25.97961592845604,3.046777797069808,6.775381129420566
2025-12-12 20:51:19.969971,Right,0.9831430000049295,2.8053482823233935,27.330069243613252,14.665284355804033,11.368875316737103,16.215021106727363,-4.341437919127202,-0.03180949984744075
2025-12-12 20:51:19.974974,Right,10.898359679849818,17.31122316703477,44.20016703442525,0.6425445024069631,-28.9433599654476,26.64111013049296,6.921582521405071,18.35677328397651
2025-12-12 20:51:19.978985,Right,24.972485973856237,31.816844374370703,59.40703809288607,-2.7110165130470705,-86.4707227514391,37.211057472106404,19.600039634035056,33.54309346547052
2025-12-12 20:51:19.982005,Right,14.578324453665118,17.10148950659641,43.63708937935371,9.946760218666896,-45.251246754209205,22.809109746398462,10.169905277021826,18.10454197771469
2025-12-12 20:51:19.985005,Right,-3.819337181361334,-3.6215061769562453,23.270163294386293,9.999065754935145,25.749256337616316,2.732725006646433,-5.3246818898132915,-1.7813620187098422
2025-12-12 20:51:19.989032,Right,1.9506417179800337,3.8851235446800274,33.28642247431708,-9.857909165959427,0.12831103050223192,7.358468383565196,0.8287777381701744,7.3729324855430605
2025-12-12 20:51:19.994031,Right,20.370466696251242,22.50572614624616,53.33307535207496,-19.454618445819506,-70.88365982456435,22.88317748927693,17.338801456548026,25.993147420675086
2025-12-12 20:51:19.998033,Right,17.586602311195747,16.587021739967895,46.131250623257074,-4.9069325455748185,-54.66782330667593,16.97450512434625,14.94359524970423,18.896045746587333
2025-12-12 20:51:20.002075,Right,-0.6900342159351567,-2.243740405639983,25.913339223618095,6.984901189480297,15.827477271091993,-2.2772584954327613,-0.17219685461896006,0.022409576222344185
2025-12-12 20:51:20.005080,Right,-1.0538876102145878,1.8240410151465767,30.319789047774975,-1.1683714545724797,5.307558269043511,-2.3713421657867,1.1387096817616111,4.965965422757108
2025-12-12 20:51:20.009086,Right,15.923108387716638,21.864273254494037,50.30732715507838,-6.12188188953769,-70.76997755419507,13.99269542210277,17.68992584589796,24.917342387470853
2025-12-12 20:51:20.013050,Right,18.8664112999395,22.076547011463845,48.45687895301671,10.217829003264342,-76.79636522008514,15.69580791961016,22.229670816156613,24.901839400205063
2025-12-12 20:51:20.017115,Right,5.950027268605481,5.309657867302121,29.95549098099218,24.797986690800826,-12.161446610622079,1.9643000326595939,13.111972025320028,10.254381717638353
2025-12-12 20:51:20.021149,Right,7.654525883575843,6.860626244936611,32.19788315611004,15.006669118676655,-11.64807523421041,2.3004432891266333,15.533827440542609,15.391991028762732
2025-12-12 20:51:20.026142,Right,26.23741470015375,25.899314432821484,52.227900991983915,-0.6638205241597461,-89.9057908595205,17.881342218815917,30.343315508369415,35.62093843815137
2025-12-12 20:51:20.030087,Right,28.453837220233254,25.868042080936902,51.082716396373144,2.310795131865234,-109.88366927416064,17.357182890023978,29.86091317758519,33.11229629705031
2025-12-12 20:51:20.033128,Right,7.690446952055936,4.856790613647263,28.91008011737722,10.509211578080794,-36.912273875641404,-2.9620866348286654,11.165343617248396,8.737673750783301
2025-12-12 20:51:20.038181,Right,-1.8864956649085798,1.9134869584968328,27.824238384098862,0.655657173225336,-4.485033165961795,-9.40260160550497,5.152335716773337,3.6889283715274814
2025-12-12 20:51:20.042183,Right,13.19216080986007,25.647910885482872,54.88592303839687,-13.975299062000886,-68.25736123121897,7.975381900356297,21.815855068808105,25.553835842166563
2025-12-12 20:51:20.046193,Right,21.8046381936947,37.332256705503255,67.66973703779877,-6.894546563175027,-106.17598534704302,16.519764745982684,31.831750605421803,34.83584414334018
2025-12-12 20:51:20.049198,Right,4.832716357101162,19.48455689209368,48.99984000243421,10.472350280953833,-48.528413116968295,-1.059588918249574,17.91709761643051,15.826673743448282
2025-12-12 20:51:20.054210,Right,-11.11067598140653,5.362424343629755,35.16039441177054,6.8653032912543495,-6.506278772692895,-17.17936078110688,3.7203201929314673,2.7348848822416585
2025-12-12 20:51:20.057230,Right,-2.3020665415679105,18.1767352321026,48.99230400523811,-11.605572342124105,-60.764326236785564,-9.508622393224869,10.646525074610508,16.398391604959215
2025-12-12 20:51:20.063284,Right,11.56776218052255,32.3198933066642,61.66889681664179,-11.097892981077166,-108.4681793807249,1.958923039446745,22.4552929096335,29.135428184880766
2025-12-12 20:51:20.067276,Right,7.794869395736896,25.12474301950897,50.7051631698414,9.61945782142493,-56.553565060006804,-3.6613368917151092,19.77123797562217,19.950399172939797
2025-12-12 20:51:20.070281,Right,3.526508041577472,19.63724763800019,42.95995113000026,18.646269819781992,1.1753590477601392,-8.279241372059914,16.795490078689,14.186986958690795
2025-12-12 20:51:20.073308,Right,19.23495575293782,37.504791246102286,61.07872894338652,8.971022332199027,-42.97092402499402,7.871517376062911,30.488984525576598,32.40450695625532
2025-12-12 20:51:20.080313,Right,33.276208781200694,52.384417996555385,75.52635786243627,6.768722103694927,-109.3596963265154,23.30233509476784,42.48660200179074,46.272733481826435
2025-12-12 20:51:20.083313,Right,17.874254210193612,35.76975669991316,56.41732623027201,18.305462579208523,-78.51664589627762,11.239195609581657,30.066127653042713,28.50920510266951
2025-12-12 20:51:20.087325,Right,-7.207207520852535,12.216512415434408,30.99061925598653,18.283629964219926,-12.535064232710283,-10.10007378280352,10.825880927473918,5.906325614669186
2025-12-12 20:51:20.090342,Right,-4.967637001176627,19.026817909856618,38.048365168659075,1.5403046079618434,-36.735101978323655,-7.539916277230077,15.596890605376757,14.788391409158066
2025-12-12 20:51:20.093392,Right,16.393098248940078,41.78914089252794,60.71832478635042,-1.6899058233689175,-103.46347684455395,10.16689529706673,36.00113674082604,38.31915598308842
2025-12-12 20:51:20.097380,Right,21.022790721701313,42.85633297260574,59.55497271096101,20.43938739622172,-80.74132785759866,11.633009836990823,41.234431334896726,39.294972504450925
2025-12-12 20:51:20.101308,Right,8.404312156537344,28.012290883203605,42.46213021194853,36.897457640232915,-0.28672880644444376,-0.27645041777941515,31.624881451361944,25.823674627605214
2025-12-12 20:51:20.105436,Right,6.945133716260898,28.969363586837062,43.103262809054286,26.05740036266434,-0.584364126669243,0.3497847351463861,31.268194940410467,29.52877515428736
2025-12-12 20:51:20.109400,Right,16.483697273371945,39.882599665819725,53.86005250667222,11.64550172584768,-70.92623923020437,8.839476833680237,38.69593934525801,42.14779446004104
2025-12-12 20:51:20.114352,Right,10.360930826809636,29.514360042438057,41.6866156168544,17.735152667322836,-73.94590159213112,-1.6573167564438336,30.65634885916188,31.77068502959446
2025-12-12 20:51:20.117417,Right,-8.981405565038585,4.98091744264093,15.540274289574882,26.14762444722055,-2.906674607846071,-25.31926622694118,10.567886622771766,7.109397356449335
2025-12-12 20:51:20.120445,Right,-8.653789145660994,4.70578957966427,15.82917513319262,14.49766889966395,7.878682812079205,-27.685346987978846,8.079940492454625,6.807384343597732
2025-12-12 20:51:20.125392,Right,15.075277498857758,29.36067563296092,41.280943134450354,1.460256320154258,-62.11821106405114,-5.69565179518213,26.75406217015734,29.999456418659975
2025-12-12 20:51:20.130544,Right,26.07552989249598,37.83601057975102,48.136913746013306,12.750658116296108,-78.366883301278,5.3433492914500675,35.628196248544555,36.1245838628638
2025-12-12 20:51:20.133533,Right,10.732754201540956,19.200074549509736,26.898296736821067,32.3551665849518,-3.0491548843565397,-6.765882461137153,23.208684118992096,17.21279079532178
2025-12-12 20:51:20.137553,Right,1.1772973376864684,10.281333618180724,17.333735469270323,31.093224499672942,30.73288928627153,-12.010711120779888,16.52308359352719,10.739259073092398
2025-12-12 20:51:20.140531,Right,15.63617536755919,26.516274135836284,33.99466401717655,18.47397269260182,-36.43606257333886,3.9815991283994663,29.893250404038554,29.068437139341768
2025-12-12 20:51:20.144551,Right,25.863195000863925,34.3604372579066,40.416081447423494,21.440115789417177,-81.07838458592596,13.05290247530138,38.34335089740489,36.6397446749379
2025-12-12 20:51:20.151565,Right,11.267702388104226,15.565288411642541,18.861833525195834,31.470695180918483,-25.67474461310485,-2.020268147543902,24.511402531612475,16.76135117837839
2025-12-12 20:51:20.155523,Right,-2.388958091447421,2.1396905453166255,4.194875550187135,20.62465172235352,21.07403682761651,-14.89915024484435,11.025554621390256,2.8048247492588416
2025-12-12 20:51:20.158580,Right,8.941032805181749,17.15070934886171,19.374793435868924,-2.6686032645320665,-28.53979146621714,-4.461040007518022,18.92572337108868,16.66204043407197
2025-12-12 20:51:20.164625,Right,23.264784360766498,32.17811581251772,33.445417540500785,-4.497517470445018,-76.78909466831828,6.774098607173073,29.952116392290918,29.55070324856206
2025-12-12 20:51:20.167630,Right,13.610767827685777,19.983715672422477,19.295369327926892,13.752677170452444,-26.276388079073513,-4.422822780126808,21.640609528847563,16.673206905677944
2025-12-12 20:51:20.170651,Right,-3.0191391967455274,3.522476196380012,2.494063909700344,16.98560277588149,34.09232829834218,-18.748496886246357,8.562465540409903,2.397537977565662
2025-12-12 20:51:20.174636,Right,0.8336783804261358,10.990753875208611,11.106429264800681,-1.0037000532756792,-6.900989470537752,-11.228427183630629,13.238897555966105,12.347198451981967
2025-12-12 20:51:20.177634,Right,11.812629029875097,23.103164417150765,22.700951862752845,-7.981982470157163,-75.31330929193064,2.001586782922459,23.012322901096923,24.24625106258827
2025-12-12 20:51:20.180658,Right,3.462679766340443,11.838123889958297,8.820711550324631,7.2884306700525485,-49.97365732313483,-4.674464652334791,15.025785352554522,11.058761452877661
2025-12-12 20:51:20.185595,Right,-10.493610054447345,-3.502187179066823,-7.690630152992526,17.088304393286307,11.683804653235711,-16.202768787099558,2.015383388952614,-4.9359414939062844
2025-12-12 20:51:20.189657,Right,-0.0486771631949523,9.150794053812206,6.780580188929889,8.631732858244504,-17.798725922679296,-4.341418743169925,10.450189272421994,8.650651956057118
2025-12-12 20:51:20.193668,Right,22.464783461939078,31.909745717723126,31.189829084207304,5.934869724007513,-95.90419832456973,16.615679178408755,29.266870187238965,32.178783777097124
2025-12-12 20:51:20.196687,Right,19.511423017669586,24.788691098507115,23.185940165480133,19.579227890575567,-87.4882192457444,10.937742607808104,25.746326323143876,25.72691269007919
2025-12-12 20:51:20.200688,Right,-6.19383543983713,-2.996364051126875,-5.741549660095188,22.865736264047882,-15.222599893080769,-15.71965367142002,3.0704251225324697,-0.2173385297464847
2025-12-12 20:51:20.204699,Right,-16.645165541416645,-8.662681011959648,-10.419321163313725,2.0409457331406884,-15.749460771708982,-25.393578847939352,-4.889086579725699,-4.00259416431436
2025-12-12 20:51:20.208723,Right,-5.301286010169861,9.04388675404698,8.595542237908376,-14.082538019662024,-84.58835078350967,-12.492480653592793,7.440552302621654,13.286959129989555
2025-12-12 20:51:20.213727,Right,-3.3909508231154177,12.592449334810226,11.330879881057626,-2.843661168608378,-87.09264918440022,-7.198074384190477,12.049627307078481,14.832197841275047
2025-12-12 20:51:20.218753,Right,-17.47622539920485,-2.1828311726349057,-5.058991673278797,13.151303267146432,-13.48202636410133,-15.94704481946792,1.9830795053167094,-0.6870536096575961
2025-12-12 20:51:20.222746,Right,-17.612045753819984,-0.8803498740890063,-4.022010818771378,7.466716312741482,1.2867981118324678,-12.253802296969297,1.951241560956987,1.1960022044986545
2025-12-12 20:51:20.227768,Right,2.9805583572306205,20.885203269401245,17.461773703293147,-4.026847626490053,-69.64917844132287,7.659067170092385,17.676622725466586,21.98018528607645
2025-12-12 20:51:20.230783,Right,11.336935931176413,26.650454902857746,20.849417041135894,4.4720942929634475,-94.28195303975372,12.710235461612683,22.305865610298497,24.58739330228127
2025-12-12 20:51:20.235798,Right,-5.873212863916706,6.558409005716385,-1.818195747808204,19.263711422434426,-29.028486933966633,-6.75559259799229,6.157803085729029,2.3813801145115576
2025-12-12 20:51:20.239803,Right,-17.34868354404898,-3.660450126433716,-11.631802370102378,12.982288580158638,-0.4742747730051633,-19.326306016482704,-4.072631616212675,-6.994271076597215
2025-12-12 20:51:20.243769,Right,-3.821770218277379,11.837843472821987,6.126738728107739,-2.8534399440140987,-67.51298171846429,-7.7313415757562325,6.310021976238204,9.876612169766304
2025-12-12 20:51:20.247838,Right,7.835221912322595,20.707340395196297,15.440126257373777,2.001456533849705,-108.97711519739823,1.9235687427462835,13.360076650906194,18.010743087434093
2025-12-12 20:51:20.250852,Right,-3.958710948441876,4.45996946561354,-2.2527070829419245,21.049327343087498,-48.300525092636235,-9.101032227312317,-0.04349321536210482,-0.07544011041318299
2025-12-12 20:51:20.253912,Right,-14.442702340911637,-5.098288790033621,-11.957161596001242,24.35879880018183,3.8300759939302225,-16.13670030961657,-10.556270502869666,-10.418686109209375
2025-12-12 20:51:20.257874,Right,1.096639150808187,15.021759951288914,9.857249351789505,14.434043171317171,-44.46337250780198,1.7464244945967948,3.2518406650142424,9.756545475251187
2025-12-12 20:51:20.260872,Right,20.223667270685837,34.03844286193271,29.68672302350751,19.203007303229242,-96.3869727984129,19.779676371455935,20.182656074421175,28.63926112752233
2025-12-12 20:51:20.264827,Right,14.268410865570331,21.920792221621014,16.978283791853755,36.49340175206453,-49.51570106559666,11.082158138591694,13.724084487892469,17.110375757369184
2025-12-12 20:51:20.268902,Right,0.8903180656852783,2.8906760416757606,-1.417424075112649,35.52442105883165,11.764827706996584,-5.062445120411212,-1.4380826978922414,0.2860479397204472
2025-12-12 20:51:20.272918,Right,9.833650023789232,9.253893746526956,7.2491409137655864,14.074093906696362,-25.431395185587462,-0.2845948012163717,1.046907134616049,8.527714285086404
2025-12-12 20:51:20.277909,Right,26.43611330544445,22.43910475508892,21.425520563556347,4.993673601231421,-90.53981232712977,10.596567314187268,10.386170599193065,21.090940578927984
2025-12-12 20:51:20.280935,Right,19.430354038489895,10.336396306578536,7.934228967587842,18.52206371941429,-61.49868010537466,-0.34170731576341495,1.3686006702864688,7.239990285517706
2025-12-12 20:51:20.284929,Right,0.958654389349249,-10.374643407207259,-13.860823463743145,26.129508711273957,6.194101986620808,-19.423948017783914,-15.514643857877672,-13.704711701866472
2025-12-12 20:51:20.289965,Right,5.986820813504892,-3.905032533350095,-6.748636041875216,14.89615080351723,-17.409299223014386,-15.336559148898232,-11.385975756813423,-6.4780227521005145
2025-12-12 20:51:20.294014,Right,29.335348359316413,18.963087101945348,16.23875178857452,11.055419642765628,-93.33673521413584,3.3342114840961585,8.496803066478606,15.72199862249181
2025-12-12 20:51:20.300395,Right,36.426430134222755,21.671684673206983,17.201791988993136,29.386802584242105,-84.67548483918654,4.265158449481532,14.652457182937724,16.46129411954462
2025-12-12 20:51:20.302959,Right,25.530358698197233,8.554838892929183,2.916285534758572,43.123192765975546,-9.65685414406471,-9.934541629680098,5.986084620226393,2.5474736753239995
2025-12-12 20:51:20.306981,Right,25.885070415875816,12.42071645926626,7.99649020218385,31.0614918676838,-5.167350553936558,-9.747581982288466,7.078500853473088,7.374320700542739
2025-12-12 20:51:20.310021,Right,38.81861690336518,28.886138581267005,25.53159822010275,15.12675098886757,-70.83222212170949,3.374813117829035,17.867343014679136,24.42998054205418
2025-12-12 20:51:20.314056,Right,35.4082670063799,23.431079944797602,18.28925867012913,19.367013120099728,-72.89908047628705,-0.6224072594504833,12.834206011099013,18.281721577814096
2025-12-12 20:51:20.317057,Right,15.613927921935101,-0.8070820229222591,-8.731511703015713,27.679247804004262,1.091572861536406,-21.374343876834246,-7.680690199787932,-6.306278067846506
2025-12-12 20:51:20.321106,Right,15.153947221871931,-3.2365608921518287,-11.812259646352686,18.333468618675397,16.065075699734734,-24.187959002585558,-12.149394669580943,-8.261700973778716
2025-12-12 20:51:20.327112,Right,42.07623643671104,21.76633059750202,13.746710591634837,7.387458766319469,-57.8344706815551,-1.9069973125133401,7.083065815149894,16.21914541872684
2025-12-12 20:51:20.330129,Right,58.89768299774005,32.9312312731945,23.965563286996257,17.62960476655644,-87.17218285481795,10.918126980592206,18.787923790379864,25.646658240963006
2025-12-12 20:51:20.333127,Right,45.67314322846505,14.532071485453343,3.873058472909179,32.352112926422706,-22.36102911416674,-0.9971040311429533,7.225051031486146,6.824065319238798
2025-12-12 20:51:20.336119,Right,30.11807653679716,0.5939062854158692,-9.915292185525686,22.533157413941808,10.884637216018746,-9.578849571356841,-3.286900069546391,-5.173757985639895
2025-12-12 20:51:20.341139,Right,32.68203554822685,8.820994021534716,-0.4672476157593337,-0.9684474801942997,-53.68351197685115,0.8382676027340494,3.5075079242942593,5.252181913419918
2025-12-12 20:51:20.345118,Right,31.661715985130286,10.143229093890113,0.3051985916081321,-5.984814236559032,-100.03420237152022,4.57896656950652,7.2828473749541445,7.829306875773909
2025-12-12 20:51:20.349155,Right,11.223987009070697,-11.198659862171553,-22.784952246208377,5.010823632510437,-46.62552867777413,-13.570893358213652,-6.413053958007367,-11.54143459756233
2025-12-12 20:51:20.353135,Right,-2.6193290082446765,-23.701398846187658,-35.00342414316583,3.3580171471257927,3.3198184760985896,-25.831474777314725,-16.101998538877524,-20.826818648212793
2025-12-12 20:51:20.357201,Right,11.627953521216114,-6.103426445781224,-15.081979536121253,-10.218479944331193,-42.86093178347801,-10.894292593031423,-4.092300971875375,-1.5461596231471049
2025-12-12 20:51:20.361203,Right,29.43720228235179,11.716920431372273,3.665550730213454,-7.2213022880278,-94.06879495776957,6.986944266667706,9.321309630735414,14.689910856342976
2025-12-12 20:51:20.366257,Right,22.963590123261383,1.8602432614352438,-7.590962128451565,12.87409815719002,-48.64357734229998,1.8475921299177571,2.03337675410512,2.5847073489821923
2025-12-12 20:51:20.369248,Right,9.959639242471894,-12.183793136409804,-22.49765586969579,18.268351899736444,11.923102729400853,-8.528837246176408,-9.816877088971523,-11.378584395408325
2025-12-12 20:51:20.373269,Right,19.31868184684572,-0.4781369986158097,-9.917878870884579,2.3498834639358392,-26.60746219722205,2.127117770849509,-1.765316215052735,1.7056951789909363
2025-12-12 20:51:20.377278,Right,37.43100096040871,17.78233977407399,8.589913359608971,-3.515395130318211,-97.08483316627098,19.444996209134843,14.236107986387651,20.21071041099458
2025-12-12 20:51:20.382246,Right,33.79568830674543,10.649653888618559,0.02802948054204535,13.090696709823533,-74.3674269602052,15.982010635860206,12.622869670551154,12.807463197983452
2025-12-12 20:51:20.387344,Right,17.91333330309135,-6.419349736555887,-17.74138419182441,24.220296992119984,-6.778352113120491,3.3447237747805048,2.011650182239464,-3.073528864004402
