timestamp,label,FC3,C3,CP3,Cz,FCz,FC4,C4,CP4
2025-12-12 20:45:13.953276,Right,1415.9702245570734,1601.1717886260456,1630.7474139033216,1501.016619186753,1118.4579398635735,1013.2912145116038,1479.1642993854846,1728.6058725303312
2025-12-12 20:45:13.970330,Right,7631.827438182576,8623.635903122225,8781.164343623459,8082.615902046697,6019.942769253423,5456.570350444221,7965.651879335854,9309.181835899584
2025-12-12 20:45:13.973345,Right,17515.91152684232,19765.758284671225,20119.562998630972,18519.343116773656,13774.606187512543,12504.413364712229,18254.254369874587,21333.023604837883
2025-12-12 20:45:13.976343,Right,21989.66057648798,24743.722360260002,25167.282307026966,23167.711080786416,17172.511701060925,15649.84894747318,22842.745539839045,26693.982462664884
2025-12-12 20:45:13.980416,Right,15075.854585581874,16821.730647612087,17070.24146842875,15721.58260339214,11541.272946554858,10632.855437024169,15510.676056858101,18124.950998618
2025-12-12 20:45:13.983384,Right,2062.832768360473,2033.5904290958715,1988.1465077167668,1849.7799785643,1195.3930036324746,1268.7148788928826,1836.659475582972,2153.7198423548107
2025-12-12 20:45:13.987371,Right,-7815.555587851064,-9146.155382219527,-9401.598723082134,-8627.23058449186,-6519.5837665518775,-5817.450843876068,-8498.336195583572,-9906.543313046772
2025-12-12 20:45:13.991379,Right,-10374.358005254326,-11998.27957258976,-12295.317291512358,-11293.984284716134,-8423.428212873609,-7630.952864560939,-11131.5453770514,-12974.475353755144
2025-12-12 20:45:13.996419,Right,-7395.692622588249,-8577.178748001112,-8796.012770691537,-8081.231077020406,-6048.500978711178,-5461.984146826231,-7962.856748274295,-9280.660800322192
2025-12-12 20:45:14.000409,Right,-3083.4709468149813,-3666.527562858537,-3785.0438948575757,-3472.5169770217035,-2668.929148445837,-2344.894615475554,-3418.888829221949,-3983.2893351501552
2025-12-12 20:45:14.004420,Right,-748.1197954037925,-1012.9770287205465,-1079.9985880492022,-981.3771861550631,-800.219036133436,-664.9827846205444,-965.7610728061409,-1116.0104526783107
2025-12-12 20:45:14.008420,Right,-1264.791153842758,-1592.9626012991648,-1671.0156505840714,-1526.0510571918567,-1162.1561173866503,-1037.6539629265899,-1502.2294392922195,-1736.4637180904392
2025-12-12 20:45:14.011439,Right,-3227.7347007076023,-3805.35103248863,-3923.0388551190263,-3602.477261056949,-2722.369980725809,-2436.0617640577257,-3543.717263683153,-4124.523139421712
2025-12-12 20:45:14.015488,Right,-4475.946329804778,-5202.495321687835,-5342.2055136814015,-4909.5743453530595,-3734.27722049749,-3312.293860732636,-4829.79875295161,-5633.242507882649
2025-12-12 20:45:14.019450,Right,-3997.606566528266,-4641.1251336344285,-4765.0297494995175,-4376.019001200097,-3313.48332031077,-2956.103469607013,-4308.15369108296,-5020.061336235958
2025-12-12 20:45:14.023503,Right,-2627.738929142477,-3070.580949135474,-3159.3848533586133,-2898.6630812963704,-2161.6994565108907,-1967.9118183252285,-2855.3340630490566,-3315.9455690889154
2025-12-12 20:45:14.028494,Right,-1896.7835735660046,-2228.7195742047625,-2296.573308381485,-2108.697720257449,-1591.166699371708,-1433.5788225216093,-2074.354867994087,-2408.6747718694387
2025-12-12 20:45:14.032454,Right,-2312.46659694158,-2691.0952640724136,-2763.8666210954543,-2540.4510619490175,-1973.5499873732333,-1716.2760363850393,-2498.7963639894733,-2915.442324411124
2025-12-12 20:45:14.036466,Right,-2983.438681260799,-3441.7900435037445,-3525.653053426533,-3239.3140593469143,-2486.2034775778884,-2188.2729825386778,-3193.1432270633522,-3725.393775986624
2025-12-12 20:45:14.039612,Right,-2889.027913299389,-3319.383938332903,-3397.2127606362337,-3121.3018811183283,-2328.7766526982305,-2118.783133288962,-3081.512374980026,-3584.9201525503304
2025-12-12 20:45:14.043486,Right,-2143.6405819614884,-2457.6276322981576,-2515.118350911187,-2314.321578064817,-1714.2599539898802,-1577.5967477629893,-2282.381510182284,-2652.1689383818302
2025-12-12 20:45:14.047603,Right,-1709.9752846454503,-1954.7533410912147,-1999.9965854783077,-1843.1032837022794,-1421.600466159056,-1252.3251374191022,-1812.300868247985,-2115.421887103468
2025-12-12 20:45:14.051584,Right,-2043.0321201874176,-2325.45828490064,-2376.1581450859085,-2186.630189009011,-1693.7997088300763,-1480.9254895377671,-2152.6544370792108,-2517.885716269957
2025-12-12 20:45:14.056631,Right,-2503.3489911135985,-2838.0578681362094,-2895.858990560053,-2662.983045317116,-1989.4623697008356,-1808.3081857753568,-2626.889335062937,-3065.180517326342
2025-12-12 20:45:14.060622,Right,-2291.4357047625817,-2585.3351640657056,-2633.8533476141747,-2425.7196225164225,-1785.452026880812,-1649.7016849218053,-2391.4267770270817,-2788.9729332597926
2025-12-12 20:45:14.064586,Right,-1572.1380741631147,-1759.802331113955,-1788.332544119563,-1652.2543545296649,-1263.230422880035,-1118.9347011313657,-1623.9407840000931,-1902.742477999418
2025-12-12 20:45:14.067595,Right,-1224.3023695584852,-1359.2646939600818,-1377.783735005767,-1273.9705152539536,-1017.5765066390741,-858.0738103563781,-1251.737389084883,-1473.9832005422795
2025-12-12 20:45:14.071664,Right,-1596.4113055377966,-1773.4607959260466,-1798.264505153522,-1658.75763521716,-1257.6274424728472,-1123.777223740879,-1636.5138415679103,-1917.2811136328382
2025-12-12 20:45:14.075671,Right,-2033.7896935190074,-2257.7793251844123,-2289.430436567636,-2112.5425925801974,-1552.2176970914006,-1435.2361409409787,-2085.185091655585,-2437.6218372209696
2025-12-12 20:45:14.079702,Right,-1818.5179947940633,-2003.476593029336,-2028.000443864381,-1874.8669403023086,-1410.3597806174075,-1268.0567400857108,-1847.3548572605941,-2168.39261772437
2025-12-12 20:45:14.083699,Right,-1163.2086567817023,-1255.3850367543055,-1264.9573990079807,-1171.18417192169,-927.5052963090711,-784.7056117812754,-1153.2902820581803,-1364.7462904582499
2025-12-12 20:45:14.088651,Right,-873.3774929550709,-922.252252879669,-925.3226551070111,-855.7749473410659,-657.5320348818204,-575.5218501309282,-846.5684847807279,-999.1179433068028
2025-12-12 20:45:14.092706,Right,-1213.8525020141387,-1299.108455402311,-1307.546218407806,-1210.0841720750323,-870.0781472669332,-823.9791039451957,-1197.0344270898495,-1397.9493400820065
2025-12-12 20:45:14.095670,Right,-1589.0405134959146,-1713.5125976246782,-1726.4980907795252,-1601.9031734946184,-1181.3238800978288,-1089.4468244779273,-1579.6148475852096,-1845.9911879358115
2025-12-12 20:45:14.099731,Right,-1411.2234523925,-1504.9972802251577,-1511.1685999197653,-1406.3859730192926,-1078.1113193893107,-953.0774680299219,-1385.9729062290862,-1625.530400643358
2025-12-12 20:45:14.103741,Right,-878.4497722883243,-897.966792446794,-891.0133535363711,-834.2747379301582,-629.1438058873173,-568.662660979142,-825.9245712974807,-968.545385169331
2025-12-12 20:45:14.107776,Right,-632.3833627987187,-615.8961256946204,-602.2898358987877,-568.8446428137249,-382.4306676629931,-394.92024395789485,-564.3641518483637,-658.400665457244
2025-12-12 20:45:14.111767,Right,-872.9402345095295,-884.979092632304,-875.1233991812915,-822.096431074955,-586.5590695465216,-564.5167897331412,-807.113821733743,-948.2091208061902
2025-12-12 20:45:14.116781,Right,-1150.838934114552,-1198.0827220432693,-1193.6443465125049,-1113.9367845955421,-852.2604442380252,-756.7308585631545,-1090.8698718891246,-1289.078357550432
2025-12-12 20:45:14.120794,Right,-1019.5451463747886,-1048.2505942162243,-1041.3268928459147,-969.3245530712302,-730.0796041543945,-661.8536858813604,-953.4118938849424,-1126.1005970003316
2025-12-12 20:45:14.123809,Right,-602.2157535499427,-572.800840584212,-556.7448015865521,-522.2674462965224,-342.36964056646684,-365.79630322090816,-517.8862874144106,-609.7850136453635
2025-12-12 20:45:14.127810,Right,-371.5391763605294,-308.70378133270424,-286.6877755895839,-276.7702229244169,-165.45332597533707,-194.8696209472837,-272.8252452914603,-327.9092243319028
2025-12-12 20:45:14.131834,Right,-520.2468485655263,-476.61901926237624,-457.43191928445594,-434.32978731708135,-337.48809061874636,-288.3893970825593,-423.30793354980415,-515.5905248143827
2025-12-12 20:45:14.135838,Right,-749.2590477038175,-735.6043906535488,-722.235659372469,-673.7856814689003,-512.6222686801921,-446.6820934576681,-661.3897662827512,-794.2054957359796
2025-12-12 20:45:14.139805,Right,-687.5487297323416,-662.4068641471677,-648.3959834832931,-603.3667258976493,-396.7391087655269,-406.82142016329453,-596.5135618189233,-707.9920589770772
2025-12-12 20:45:14.144880,Right,-366.3613589646411,-295.2417298356304,-273.7769178438466,-261.0326783625642,-127.98343491493142,-178.40411148351268,-258.246453185624,-309.89335026423214
2025-12-12 20:45:14.147888,Right,-150.7469892274239,-52.50875209720107,-25.87415501428768,-34.2745405647438,-14.6587462714524,-18.327694542589597,-32.14512207021471,-53.33858003222849
2025-12-12 20:45:14.150895,Right,-246.7138639348559,-165.67961970163742,-141.8253914078814,-137.30361378140515,-108.30530852440279,-84.97374218402547,-136.66684727999382,-177.22138107963838
2025-12-12 20:45:14.156856,Right,-441.60932374809636,-387.1342227355344,-368.4497474844102,-342.40044579067035,-202.49714373468305,-230.718904516747,-343.4664173889323,-410.5314380393829
2025-12-12 20:45:14.159894,Right,-410.7859628648148,-348.19778839687933,-329.0111334019457,-307.6081550481031,-144.6523770394706,-212.3816477455839,-307.19361139120883,-365.3619139753864
2025-12-12 20:45:14.164948,Right,-158.8865438766079,-60.425544021098176,-36.4010283065727,-40.222443682694575,7.502699342352571,-27.432044981251238,-38.29762145888526,-59.21414437270141
2025-12-12 20:45:14.168962,Right,10.092345812241547,128.84507252645562,154.30602744137286,138.19674539359403,107.07606349758862,96.32746371088433,136.93501984939212,142.44022245405358
2025-12-12 20:45:14.173972,Right,-69.01600681236596,37.126545405364595,58.79241318805725,53.89960088004591,88.69668301939237,33.89455422892934,49.06432330442476,49.01870412306744
2025-12-12 20:45:14.176945,Right,-209.97480230944348,-121.46406847500475,-102.56132071700995,-96.36073544972169,16.887481154728448,-71.41886095864174,-98.29566639922268,-116.94988364522578
2025-12-12 20:45:14.180032,Right,-168.52184060649597,-73.965636142515,-52.41071193006064,-54.254016248421976,11.703865909610613,-36.17141382565751,-50.83361579105258,-68.31321953612496
2025-12-12 20:45:14.184008,Right,18.08581635032897,134.77924761052418,161.15349171457638,142.52141204978398,118.18973296454396,104.23147520200291,144.33792706008535,154.02661539624387
2025-12-12 20:45:14.188022,Right,126.54360020137392,256.1320203382784,284.5918201607201,258.895604379366,241.90859003463993,179.7267760652103,253.74180169397005,289.55201834342733
2025-12-12 20:45:14.192022,Right,81.54192876798334,208.29208678749274,236.26701109774513,213.48228105827184,257.82272559760895,143.01872894864573,206.559900926095,242.7142711928027
2025-12-12 20:45:14.196031,Right,21.519400011733524,143.72492267386406,171.69063228975392,150.52917859341505,183.2666137590204,103.5709853125536,148.57351838160594,169.0062932240835
2025-12-12 20:45:14.200004,Right,61.65744717589405,187.5248804016246,216.68165121971106,192.20503276854288,161.555894824196,137.8727055290219,192.05356102285077,209.93422401052885
2025-12-12 20:45:14.203061,Right,156.92534330695344,290.72482659106026,320.9990012356866,291.9105614671935,254.46793130894366,202.28230841593904,286.49638666401734,322.99829868184315
2025-12-12 20:45:14.207124,Right,222.13018887325597,361.7107386154603,392.64159043424297,358.46040177532996,354.56059170907247,241.00146115264943,348.85820170473016,404.0233826147887
2025-12-12 20:45:14.211092,Right,250.52796749305367,392.2627551653859,423.5004962948151,383.752534028652,356.10699216710054,262.35499946100754,375.80744080862496,432.83469025466184
2025-12-12 20:45:14.216087,Right,265.7320248023316,406.00648583522707,436.6673064736242,395.22939105387195,308.6094092717103,280.05765809322475,387.9752180167998,439.1210800644476
2025-12-12 20:45:14.220080,Right,263.5526247559319,399.92185651141335,429.51628484224784,391.73322482412914,315.71339169700514,276.82743824888894,379.4777978816128,432.5308646624035
2025-12-12 20:45:14.224101,Right,256.74393227310793,392.11775931640295,422.1522842159029,385.96787585210404,370.5493719029764,262.22768360807095,369.9663627985283,431.6296478053555
2025-12-12 20:45:14.228134,Right,291.9771783856122,433.32306924430304,465.90601738425903,423.8011016107048,398.74920900238794,283.9175299349008,411.21571384568233,479.2522756890685
2025-12-12 20:45:14.231133,Right,367.0150222269731,515.9085516012856,550.577997398912,501.96488307602704,398.1496123218676,342.8169790377724,493.35934709067806,566.1561291115358
2025-12-12 20:45:14.237142,Right,403.94907702691853,552.6888613196788,586.5023517619702,539.9973068144172,416.5616289821919,370.95670862705447,528.3956166104763,608.1464106224594
2025-12-12 20:45:14.240165,Right,363.8993569839513,505.24709796434036,536.3604522016249,497.0961739529739,437.927668989636,337.28788127738517,480.8985304045491,563.7798768852954
2025-12-12 20:45:14.244158,Right,324.23241906191106,461.30785573803587,490.8554035475827,453.17773307929747,416.7168641110766,308.01117034832714,439.1863564917585,516.2430701368721
2025-12-12 20:45:14.248143,Right,371.99881093917065,513.6850318168872,543.6057317684754,500.0214777215151,393.5658955638646,348.08053515065694,490.81787569005974,564.1604436419439
2025-12-12 20:45:14.252180,Right,470.4056803792773,619.103628105775,649.5857676069718,600.5168023818405,442.55151948006824,419.1258820077928,589.9543448591139,673.6390215199208
2025-12-12 20:45:14.258204,Right,510.0143386963464,658.5272259191843,688.4086389266886,639.1337382246275,519.4998738447903,438.09477338698343,624.0952739457134,721.3613474782323
2025-12-12 20:45:14.261198,Right,464.4210857769358,604.4613867240259,632.8226332011982,586.1458365235594,507.4804832871305,398.13453994100564,572.034059251484,666.5410419292748
2025-12-12 20:45:14.264257,Right,417.9257856030599,548.797233616584,575.3504106160835,530.9246106265928,419.8617192900856,367.12600127072074,520.6889633045648,601.4148891348741
2025-12-12 20:45:14.267260,Right,444.29359057784313,573.3678733524284,598.6673879366135,554.6344885017606,404.40362615551567,387.81974730390357,542.0628235722543,623.4331918694661
2025-12-12 20:45:14.272194,Right,520.1182688102126,655.5850916077034,681.5333160778973,633.7591882423148,506.47991653042845,435.1221285694628,614.0852906387299,715.5855541680357
2025-12-12 20:45:14.276247,Right,567.1663457475952,708.8290307865245,737.4019649178372,682.4725937760668,581.6891415892751,462.3103061504662,661.4976832919638,776.4308923433418
2025-12-12 20:45:14.280281,Right,542.7269295370206,680.4282155613764,711.2682241062867,653.0840229571331,520.8743501083227,448.3042775579961,638.1474084985675,741.6739314611768
2025-12-12 20:45:14.283269,Right,481.16571438574465,606.2944948971854,637.2751371509512,584.0179233440431,424.3805855065584,408.71622481843224,572.47379380028,657.9210426029749
2025-12-12 20:45:14.287252,Right,462.901856509794,581.3410262002726,612.1363034566166,563.2566213099053,441.40094159933506,389.0904122715001,548.0658817567746,636.1625548902666
2025-12-12 20:45:14.291278,Right,529.0473125441931,655.7577599574579,688.6485858648084,633.3372217516298,542.163451513974,425.58858448424144,614.6294417502359,723.0289594597416
2025-12-12 20:45:14.295300,Right,614.2798657407984,752.4428049542475,788.3298054127954,722.6286144491751,580.9767314142664,484.75276633386966,704.9024237322737,824.5822764330078
2025-12-12 20:45:14.299246,Right,607.1880217580474,741.4441766057862,777.5325263884151,713.450931723346,520.1921783512225,483.0206074222224,695.6813767496496,805.7694556240458
2025-12-12 20:45:14.304298,Right,507.6185212752898,625.0842098508729,658.8807031682227,606.8804768353002,460.4426285517402,407.5984421935864,584.845639337087,680.0793086375343
2025-12-12 20:45:14.308328,Right,457.866922949499,567.9966462738812,601.6455028472701,552.1862736993935,476.057114798401,362.65809908055235,527.6945920174476,621.7577422932955
2025-12-12 20:45:14.311340,Right,549.8972186747706,671.6305812316714,709.0559120727703,645.0525499304058,532.8818706006277,426.3288111490547,623.8039376193192,730.234532502247
2025-12-12 20:45:14.315340,Right,669.3501856585499,802.5596274343552,843.1711113868514,766.6742128243204,564.7330102247652,515.7634397124639,749.2512472317321,865.6731703103287
2025-12-12 20:45:14.319348,Right,643.2655026828288,768.0183043137658,806.7375036636367,737.869406835991,546.5340694599436,495.7157429456129,721.396681762184,832.1462982352823
2025-12-12 20:45:14.323379,Right,501.09086887392914,607.0949568819487,640.7475632469868,589.5774226976791,494.1097381465952,388.1581578209298,575.8793030960951,669.1764611719409
2025-12-12 20:45:14.327385,Right,443.85899462131783,545.6361457025632,575.8499245556304,530.6199207751779,454.037177301303,349.1503938646638,523.6125315484824,606.2394505183911
2025-12-12 20:45:14.331325,Right,548.6704858493758,663.7768898661016,692.5977850599447,640.5924142475706,476.7915848152479,434.16955786175095,637.1502615592908,728.0339241459733
2025-12-12 20:45:14.336416,Right,656.6663067841437,780.2075870601693,806.2250552501064,752.3750018187566,543.2815218854812,515.9047961947508,745.2365721847164,851.0975016281009
2025-12-12 20:45:14.339406,Right,614.9027819614857,727.0529901400441,747.9929477036931,704.1121035468532,555.6927662197268,480.63326512783533,693.5443193018436,797.6514978879131
2025-12-12 20:45:14.343420,Right,496.823997351923,589.8338493135525,606.7209477298893,572.3997542165453,472.0301974694012,392.39747013285523,565.5589391567046,649.8939163624309
2025-12-12 20:45:14.347434,Right,475.5383566278033,561.4124917130684,577.7920816512778,541.973409979837,398.0039401780814,380.54419353744015,539.9146201229887,613.1555642032763
2025-12-12 20:45:14.351386,Right,567.2397593108471,659.104258149513,677.3244587273803,633.2231338671409,444.5341587050352,446.4327668904443,628.4406976124737,716.6666302063968
2025-12-12 20:45:14.355446,Right,630.2100400661584,725.7122600289294,745.6970910527743,695.9992380000185,541.644616505946,482.72396751825,685.2314297421835,794.555795105407
2025-12-12 20:45:14.359480,Right,582.6653422048548,669.191886984976,689.8586358552566,640.4582200539298,529.0848785990383,441.0360442704987,629.5876475700643,736.4452106279787
2025-12-12 20:45:14.364502,Right,498.8307869839482,569.6440084807109,590.1267197395209,544.717692488106,410.21312608604785,381.91915306274313,536.878597675357,623.0973169943318
2025-12-12 20:45:14.367520,Right,481.1381650698604,541.9042716100812,562.150167291169,520.6217301279539,355.88138809637167,369.47403161012335,509.8391741104424,589.5996771672508
2025-12-12 20:45:14.371522,Right,531.0265542524867,591.7341325131711,612.7401639129966,570.9207550629508,435.419508485822,396.2771235224791,553.4156373075675,650.7023805202916
2025-12-12 20:45:14.375511,Right,574.9580191517016,637.8836121089989,660.5246961094672,614.4372212050948,508.9889161090832,418.31415183871286,596.863887376152,709.1190025712131
2025-12-12 20:45:14.379524,Right,560.4403343811864,617.0621417806251,640.2782468547812,593.2387390688527,454.79259782726876,408.1292570285732,582.3870260602562,685.5676799658686
2025-12-12 20:45:14.383545,Right,502.05173526587896,543.1414185898611,564.5946667472599,524.8261942631798,354.7142507783137,368.99986254860414,516.6097435599659,600.7791559572797
2025-12-12 20:45:14.387564,Right,462.8964592315024,491.2426517109852,510.36505657434464,478.17532155220397,347.97558278613724,335.0427010257845,464.87099776335526,545.3779190191999
2025-12-12 20:45:14.392516,Right,492.7531606442062,521.3118510878412,539.9343074032804,504.60923990339506,415.8366162888706,347.8040196111542,487.22231637721416,579.1219500462757
2025-12-12 20:45:14.395527,Right,561.3804281103658,596.5459056105465,615.3860013745725,570.848398232949,439.289772182703,397.3732239883975,555.6891242953716,653.8826963923639
2025-12-12 20:45:14.399582,Right,576.0870317328954,608.872059778194,625.599398249411,581.5176660544239,393.57245936000254,412.57667159533594,569.1097032073885,660.0178694406059
2025-12-12 20:45:14.403594,Right,501.4918909907574,521.3362066820264,534.222772415611,502.40234162833076,354.6275036376901,355.5304430129472,489.2029609879246,569.5966547601856
2025-12-12 20:45:14.407619,Right,423.6131337797269,435.55879816645756,447.03144178236835,422.9007432445651,356.0809396310942,290.8168409203645,410.59794176381547,487.25682085903827
2025-12-12 20:45:14.412643,Right,435.819921965478,454.1465064435033,467.77627584850416,437.1695301414002,360.80075108492747,297.73624027339974,430.1799736074172,509.1803635545075
2025-12-12 20:45:14.416623,Right,499.2326299971901,526.2415401462931,541.4542500206735,502.35671676753554,352.80520895821974,346.8612519398448,498.3150983436499,580.7904980995227
2025-12-12 20:45:14.419663,Right,501.11673316324595,523.757798464736,536.6771348254988,501.03598463814706,351.52668337209616,345.3310893077869,493.7872014064342,576.6182625428773
2025-12-12 20:45:14.423664,Right,430.59318121604156,439.74022526678164,448.77281667722855,422.99289032886736,347.43991902674315,286.326761316217,413.45573985762894,490.73319697834086
2025-12-12 20:45:14.426696,Right,392.00553990271874,394.12002481822856,401.63246633904055,378.5203412541887,317.50416355842026,257.8555158516392,372.76064928562846,441.8307940795785
2025-12-12 20:45:14.430684,Right,434.48840566095896,439.7876399101224,448.0681832629489,420.9141321636271,291.57938639086206,296.45654325850774,418.4501329991035,485.722927325638
2025-12-12 20:45:14.435705,Right,476.78285304654855,485.33271491806954,493.9162895040354,466.4569251075154,311.98921694559976,330.2775212721899,460.5437708203681,534.7137240867596
2025-12-12 20:45:14.439821,Right,443.5167833472369,449.49643020611256,457.4770887644263,434.5809500463074,341.83382832229836,300.59932533686515,424.48520156822633,503.33837659377605
2025-12-12 20:45:14.443762,Right,379.40164696914144,382.0065373388352,390.07716237497516,368.6646295505343,311.4228317271918,250.65262048412114,361.53636934573296,433.92164956231136
2025-12-12 20:45:14.446773,Right,363.0224411098752,365.5927859948715,374.0195419077063,349.91424448252656,245.0139536463539,241.68946968065575,348.44754578825086,411.09710758260917
2025-12-12 20:45:14.450777,Right,384.1260578879155,386.6854672883637,393.66059362411033,369.3840236819815,233.45027966797352,255.6778904494713,367.5876847098116,430.13940017216373
2025-12-12 20:45:14.454822,Right,383.08995303697884,382.8601573314518,386.7960151429288,365.5913335662335,279.9529162090621,244.34602216735948,360.2708032114897,429.2879355046898
2025-12-12 20:45:14.458811,Right,357.1465276083909,354.14993702212814,355.8431583569618,334.78120298788417,290.0237711854279,217.30282841128064,331.48298168031033,399.37928350188304
2025-12-12 20:45:14.465842,Right,345.86301879177336,341.8485232173698,342.9288181801094,318.9752829334466,233.02684087789385,212.1778908232227,321.78067822626326,379.0254096101271
2025-12-12 20:45:14.469827,Right,346.8832496457035,340.5178015003912,341.57831606816035,318.116775475326,192.41045008198125,218.22610311227618,322.60402349510696,372.53063630114775
2025-12-12 20:45:14.472860,Right,328.1834290709812,317.272158356267,319.0533601390198,298.8686817435082,216.56333339796402,201.6574910284835,300.92245274735615,352.8824169692816
2025-12-12 20:45:14.475845,Right,300.86290759185795,287.812369916006,292.3236458048923,270.1246892645722,238.43991864222335,176.60411708801985,273.4994344302686,327.9578127358109
2025-12-12 20:45:14.479876,Right,300.1395635525696,289.11815352283884,297.39961973321624,267.58330859296257,201.99345304229064,178.10900034522638,275.8726881610346,327.0282930455869
2025-12-12 20:45:14.484880,Right,310.6437117253663,300.42529447039124,310.40249958622735,277.1854817441781,159.37064868025482,189.141822652251,285.4391764019383,333.56802461098414
2025-12-12 20:45:14.487877,Right,288.24023185588885,274.0667850096943,282.7066666124156,253.91981671570102,167.35844249493675,168.01015059050405,256.22448048449587,305.9120472166687
2025-12-12 20:45:14.492889,Right,244.98948241770267,226.79265737661626,233.5165027884068,208.38639220414916,183.6188954329118,129.3868436666089,207.9735357069876,257.35899165447336
2025-12-12 20:45:14.495921,Right,235.05111088394187,217.42326304264134,223.59530628164066,195.63151065644342,153.88267411850393,123.71210869238712,198.9675289420993,242.37616182211787
2025-12-12 20:45:14.499935,Right,259.4362909393385,243.50237601576373,249.64192986459238,218.58059695130214,118.68812782294117,147.3356059693033,224.34316982823657,263.857224390842
2025-12-12 20:45:14.502924,Right,261.2331424036529,242.9019606214133,248.59492366446648,219.89075378119014,134.15601339627756,147.2161695167306,222.96698435483268,265.79732383438386
2025-12-12 20:45:14.506987,Right,222.28886416356545,199.42282907676417,205.30854224815266,179.32198754436104,157.50683365628356,112.75950497941813,181.55431864666753,226.5070084661129
2025-12-12 20:45:14.510980,Right,191.2699818497058,166.71036039479077,174.28148084162967,145.61878911819076,121.23428055044496,90.74067203921732,152.3897497561411,190.88577658997383
2025-12-12 20:45:14.515113,Right,197.95776264480082,173.97792044800008,183.4508578609093,150.9691090041888,64.15976559690898,101.08394755912013,159.80955191655084,191.38034162286203
2025-12-12 20:45:14.518999,Right,207.9711502639111,183.10528323770268,193.38447131379507,161.67148197442293,69.40930529334582,106.8643688042066,164.72933634492802,199.23558718519052
2025-12-12 20:45:14.523997,Right,189.78383015736472,162.88656376319705,173.67173433862627,143.76166693179403,113.07892549422104,85.76760779033066,140.73297424102202,181.65892462583724
2025-12-12 20:45:14.528021,Right,164.68718383548548,137.06083966355072,148.9498736242531,116.71802515187301,101.67121252545621,66.5264728248876,115.3653387761442,152.68860548193334
2025-12-12 20:45:14.531013,Right,157.2255931564723,128.81084390811156,141.09773643530207,106.57817666005576,37.70403005182743,69.10126088175457,109.96492003311869,135.7908081150381
2025-12-12 20:45:14.535027,Right,152.8320134516689,121.32744818925858,131.94583840627456,100.92227999179158,16.359591017942876,69.80992230839911,104.07743465190288,124.82075692660874
2025-12-12 20:45:14.539057,Right,139.81822926731547,105.74907472042833,113.9698572276975,87.63732947316021,58.48631809541257,55.31310970810591,88.6746103555779,113.60849472804694
2025-12-12 20:45:14.543006,Right,137.24602921592304,104.58702383789932,111.58209045417607,84.00771189120132,77.24790915535414,50.67866242097807,88.3976439157268,115.01732380513567
2025-12-12 20:45:14.547088,Right,144.40549757989356,113.52798080653884,119.57626108475961,89.06504724582192,30.954808566253632,60.96532134327572,99.2705370298354,119.33715430815937
2025-12-12 20:45:14.552088,Right,123.14973334223032,89.21911479876144,92.85733854817227,66.02515062200837,-12.89919832313899,48.241027490847046,76.22733120864723,89.6574813820771
2025-12-12 20:45:14.556062,Right,72.20748685131548,34.615228094917256,35.66369438340189,14.957514616311528,-2.890390754386317,5.879952182294801,20.791835907497443,34.0121012343443
2025-12-12 20:45:14.559129,Right,53.74317819275893,20.707169850880746,21.42333219642751,-1.5531123989494517,17.146066920278827,-10.353582438954618,3.605609200138133,18.451635381556116
2025-12-12 20:45:14.563092,Right,93.9182614092133,71.52582999202423,73.08332619414432,41.61621715212823,2.612561258865753,25.69562921934994,49.59422416804591,62.47176356706768
2025-12-12 20:45:14.567150,Right,121.72681916767033,103.7038075258024,104.01790721656289,71.07127347111236,-16.450232951407088,51.91091698643868,78.5554164389905,87.51915932778502
2025-12-12 20:45:14.571170,Right,72.86623048532056,48.64864722802304,45.76949610709562,20.960570399445714,-11.050495534174843,11.550316257518716,25.517326314700767,30.713854137866292
2025-12-12 20:45:14.575184,Right,-1.5882642767974176,-32.5217671416176,-36.88064327696338,-56.108409311651485,-15.210365527396789,-50.47539576041163,-49.56417492288165,-49.2349884432042
2025-12-12 20:45:14.579242,Right,-11.338157455378678,-41.32700403119088,-44.03218821185874,-66.78724108787719,-49.964652477327036,-57.43445874535246,-54.39299857313745,-57.810587948566535
2025-12-12 20:45:14.584277,Right,29.59961182391271,2.602614281058777,1.773524288320914,-24.80211720833904,-68.85968882514862,-24.25653560302453,-11.969031326356344,-12.757244290347444
2025-12-12 20:45:14.587247,Right,31.00266804016428,0.3415400093945209,-0.7928558668645564,-23.597259259811835,-46.269626137800515,-26.363520582657657,-16.81809348272509,-11.892136668844614
2025-12-12 20:45:14.590267,Right,-22.328463406243827,-61.05296404968249,-63.189649063075194,-80.25168113366817,-38.67324926407309,-70.22664297331357,-76.20941865790519,-73.46716952422867
2025-12-12 20:45:14.595246,Right,-51.32858071272494,-94.14181762750377,-95.88151177891996,-112.7672075239534,-83.55573523289058,-88.18624458588602,-104.62398506255704,-112.51552644284675
2025-12-12 20:45:14.599243,Right,-19.179383235721616,-60.74282874955679,-61.431505409942474,-80.51708308939124,-118.32166630869324,-58.05170637865376,-70.35867864178726,-83.48077869327972
2025-12-12 20:45:14.603214,Right,14.070533435646212,-26.245088397117797,-26.747302631672937,-44.56788825841795,-87.70394576035324,-35.31632054479269,-39.309169586209464,-45.96226816214039
2025-12-12 20:45:14.607309,Right,-1.3993352793622762,-42.53618685505353,-43.153668683429714,-58.750602123720455,-54.2031996040605,-53.03824828672077,-57.32089971790265,-58.66574035375379
2025-12-12 20:45:14.612306,Right,-33.15759617261938,-74.51081117916328,-74.43669978901744,-91.12711818802927,-95.9375617857877,-74.45488017936441,-86.62486671679653,-94.81597229687031
2025-12-12 20:45:14.615339,Right,-38.30432102899067,-78.38545386084297,-77.4176949497487,-95.33814957288268,-161.76727612190007,-68.98796486989886,-87.50210370805871,-105.18485520465765
2025-12-12 20:45:14.619312,Right,-32.6730018472299,-71.76007819586084,-70.48469497545739,-85.90614224340243,-150.6266833036134,-61.816385376951075,-80.64306044923433,-96.49945852490782
2025-12-12 20:45:14.623289,Right,-45.7818645289226,-84.26300972120953,-82.19009771068522,-95.55414171672601,-86.04299012292176,-77.37429783208063,-93.12948225224682,-100.63475940474018
2025-12-12 20:45:14.627354,Right,-66.3548255393107,-103.8733003820962,-99.4295072907189,-115.80585712249012,-77.72971010390756,-95.61135159177502,-110.13913381431485,-117.513804177157
2025-12-12 20:45:14.631333,Right,-76.31052426929818,-114.43109434242069,-107.36798230653949,-127.38221528044232,-135.5280776839245,-98.8752118836619,-117.58104751388964,-133.30385246590595
2025-12-12 20:45:14.635385,Right,-87.97608771294472,-129.5647643248958,-121.2270627183043,-140.2254542335122,-160.35064496278937,-106.39441403525552,-132.34491896706822,-152.18503623123252
2025-12-12 20:45:14.639423,Right,-106.89289085580094,-150.60471909127227,-141.10329510298698,-159.26553147850927,-119.2402917202653,-126.55145529674428,-154.71298976752223,-171.08328869835896
2025-12-12 20:45:14.643344,Right,-108.09825574314164,-148.39407556194783,-135.98261254911267,-159.70543369091138,-92.86484664592183,-130.5085700880445,-152.2030112137263,-167.23598222420128
2025-12-12 20:45:14.646368,Right,-88.66758982246392,-124.34504264242787,-108.6241518425777,-138.58550413329067,-125.67388136939189,-110.25914660933995,-125.96991891074867,-146.1784350482012
2025-12-12 20:45:14.652407,Right,-91.05530200633802,-128.35723808026796,-111.48682454839582,-139.08312098337046,-156.3667930545962,-106.67801430085456,-128.38855317659545,-152.99307423155187
2025-12-12 20:45:14.656373,Right,-131.00403247142094,-174.33265715544258,-157.50648845737305,-178.36048862010648,-140.12268193058117,-138.7026803134504,-174.4053408513646,-198.17198238267883
2025-12-12 20:45:14.659440,Right,-156.54104380647186,-201.99280020097285,-182.75787969054363,-204.84809535935347,-124.98353047504497,-160.43338463466353,-202.5992878200923,-225.44041181764624
2025-12-12 20:45:14.663453,Right,-130.31279046064446,-174.19487234547705,-148.65706866516848,-180.23436909419252,-150.2361671825347,-137.29440538463678,-174.23244013982185,-199.39010482653975
2025-12-12 20:45:14.666433,Right,-99.60646831292979,-148.14404880428629,-113.9169384711713,-151.2793795200705,-171.43866317999345,-111.32980157103884,-144.49365214923455,-171.12910883204313
2025-12-12 20:45:14.670458,Right,-120.96087325323606,-183.78058061172487,-139.5617620626872,-175.02712831094686,-152.1311569391837,-131.70067872192885,-171.94128305745835,-197.58244949759683
2025-12-12 20:45:14.674415,Right,-162.2388794243234,-239.07709459478792,-184.0432167075196,-218.9116710635426,-137.5444956993597,-167.60841179676936,-217.23702716150729,-244.23704514482233
2025-12-12 20:45:14.679491,Right,-156.83703869254532,-238.4332010808139,-174.90747668614495,-214.36477213987382,-164.93088476356934,-160.92175252149173,-210.86575498608,-242.47721840295708
2025-12-12 20:45:14.683512,Right,-119.73648693674295,-200.16565445723245,-135.2754507852369,-175.7331470055069,-186.04817007553356,-128.3264139462699,-173.92013787478209,-206.8448933987238
2025-12-12 20:45:14.687545,Right,-121.91382399840435,-202.19011032681738,-143.6934055525344,-176.31957989776856,-158.14303237764398,-131.7111254039919,-180.2082858295762,-209.42675219717785
2025-12-12 20:45:14.691541,Right,-168.62080539997987,-248.80678200266266,-199.72098526262562,-223.4164617274655,-132.54412748772302,-170.36796897092427,-228.67766313857283,-257.23197573726065
2025-12-12 20:45:14.694485,Right,-194.1030936471834,-270.1554356799461,-229.45325484362547,-249.60974636895116,-163.88096424294054,-185.39902692688338,-249.47260469084722,-284.26189170219004
2025-12-12 20:45:14.698519,Right,-175.6510595144573,-245.76724037888926,-212.863086386933,-229.2851478997909,-203.2630534170894,-163.0720650443982,-225.35600910053472,-264.9283115519502
2025-12-12 20:45:14.702568,Right,-163.74166513274395,-231.06879454560112,-206.69465978327207,-213.58185648178915,-181.38092175801285,-151.72640648161178,-212.13989965827204,-248.81224361734348
2025-12-12 20:45:14.707609,Right,-185.00346219726634,-251.55277436148026,-235.17881981373648,-232.34245784190716,-135.893547820393,-170.11439286728273,-232.95243059517816,-266.6392174703942
2025-12-12 20:45:14.711609,Right,-200.215164023939,-263.7666615534981,-253.7274796704587,-246.99829853500705,-146.13157658165437,-178.67630994899082,-244.16222952731187,-283.155633614806
2025-12-12 20:45:14.715602,Right,-184.6231707829429,-244.26538042264292,-240.7942534465983,-230.70758547377773,-189.77928775764303,-159.38116700519458,-225.24176995072048,-271.6354558583989
2025-12-12 20:45:14.719612,Right,-172.3857070931117,-231.58632177478285,-236.8181170640164,-217.27577214167104,-183.95419759314973,-148.78301039055805,-216.03337468858808,-261.46046741318423
2025-12-12 20:45:14.723622,Right,-187.1002880122105,-247.97321576747345,-262.4589210766135,-232.16665528499288,-136.80854766190168,-165.54610121971928,-236.20720069174422,-275.8155209128163
2025-12-12 20:45:14.727667,Right,-197.53409556907718,-257.1115022233571,-279.15159569255775,-244.24269594243378,-132.03662828728557,-174.84203522154712,-247.3005894672824,-287.2831706015568
2025-12-12 20:45:14.731653,Right,-183.1870902790688,-239.07281733170385,-268.0265343658393,-230.77280064701336,-176.11583155070548,-158.36398604189162,-230.99165680710576,-276.69845758593874
2025-12-12 20:45:14.734672,Right,-179.8457078528154,-234.6068652345857,-271.7339118808741,-226.7536836556974,-189.52969370564097,-154.0734917219961,-230.01434341503773,-276.47578660206636
2025-12-12 20:45:14.738702,Right,-211.6833739078138,-267.38633825295256,-312.41713961580535,-257.8567734574026,-154.28393479963415,-184.4684006528987,-266.6094049612584,-308.0157210279722
2025-12-12 20:45:14.744702,Right,-238.3450360399438,-291.66267715595313,-341.70238500775304,-284.2837136404123,-143.06795376868104,-207.99914601675118,-292.57973540513194,-332.51506209920626
2025-12-12 20:45:14.747712,Right,-223.93326823296957,-271.81154766801046,-325.2438194822171,-268.99734271352645,-180.3648408043955,-190.91969096890534,-272.74550159898354,-316.754517550522
2025-12-12 20:45:14.751752,Right,-202.420394012006,-248.45306720817462,-307.18506294715917,-246.0649276638287,-197.37717621951015,-168.18985772045562,-249.15330023982096,-294.76967443863396
2025-12-12 20:45:14.754725,Right,-215.71305608315743,-265.3639739806531,-331.3596094294917,-259.31898270215606,-162.83005287425476,-178.8432487397804,-264.4724614495062,-307.5727606380824
2025-12-12 20:45:14.758751,Right,-237.3093772168213,-290.13370624225354,-362.12973807385424,-282.8369244094938,-142.0126368861529,-195.44229121747776,-285.3945544488961,-329.6140516452142
2025-12-12 20:45:14.762776,Right,-221.68161200446775,-273.99496893573087,-349.77685527002905,-269.1279487918946,-172.72546916553983,-177.29703400933067,-266.3335232306854,-316.4440264123841
2025-12-12 20:45:14.766782,Right,-187.95687861196348,-240.3795273739961,-320.2307894685073,-235.96419918671018,-192.08469213714125,-147.17627329062088,-234.3849961879314,-285.7449574743514
2025-12-12 20:45:14.771793,Right,-185.4231516380678,-241.4796708978247,-326.81423171650385,-234.0431180302403,-154.43162243816187,-150.28541944661993,-240.11715772910975,-285.02219968440477
2025-12-12 20:45:14.775808,Right,-207.38728362167603,-266.60036489833146,-356.76023178343894,-258.2341981587233,-121.02116144093452,-173.73071196928504,-267.9290784391924,-308.73176141962176
2025-12-12 20:45:14.778812,Right,-210.87411775259534,-269.620644493727,-362.80722584208706,-264.39630392671097,-150.64453374530422,-174.8148640396248,-270.487299241242,-315.76923787005944
2025-12-12 20:45:14.782832,Right,-198.78512614950887,-256.62013883673353,-352.8696811282425,-253.33874503150582,-191.0534697016992,-161.1062327019754,-257.3118099369458,-307.4105442413129
2025-12-12 20:45:14.786796,Right,-209.56732618587557,-268.46940120408544,-368.94942031858955,-263.7271876691375,-173.38991851228639,-172.09113461335073,-271.31036481866613,-318.6570674890536
2025-12-12 20:45:14.790804,Right,-238.09188538815943,-296.5442830315442,-400.6882721360889,-292.2242816350772,-136.84894153970527,-200.00154883775394,-301.88012193574104,-344.7096798826824
2025-12-12 20:45:14.794872,Right,-239.7413174691901,-294.2366063465597,-400.2942880000337,-294.6746134526911,-154.07240771746729,-200.26423477515345,-300.59511548338924,-345.0797797490377
2025-12-12 20:45:14.799913,Right,-212.54863227918395,-264.87296956789214,-372.8364109445247,-268.3497452283045,-196.57557646531495,-173.6576891337172,-271.6115602030186,-319.5906026100274
2025-12-12 20:45:14.802901,Right,-202.21626876923256,-258.3992462985916,-369.60513740661554,-259.22473782952875,-188.312391877349,-166.05344316037372,-265.79216569138225,-311.27006638998864
2025-12-12 20:45:14.806962,Right,-216.69896781019634,-277.70696543419035,-391.68383618973894,-276.06807115115225,-144.76773663863423,-183.42422234080732,-285.60779303882737,-325.8007700557937
2025-12-12 20:45:14.810857,Right,-212.04801368626067,-272.11117068323074,-386.7683432998019,-273.7529737095465,-140.64093918021536,-181.73981081080274,-280.4422539548832,-320.3682798350346
2025-12-12 20:45:14.814992,Right,-180.36447834243882,-236.20990888995584,-351.30954589264,-241.96754789171973,-171.90607813984388,-153.22599106302368,-245.7233711023,-288.6038607922965
2025-12-12 20:45:14.818956,Right,-172.52209931326797,-227.6777158419718,-344.9552006109734,-231.47242559416918,-169.66664424850023,-145.68371941431542,-238.49832661484834,-280.61386133520864
2025-12-12 20:45:14.822956,Right,-204.53332446832792,-261.84652107272996,-381.1359382846276,-260.6421228653053,-133.07761170875165,-172.9964756993868,-272.2173796342686,-311.28088246594416
2025-12-12 20:45:14.826984,Right,-218.98594293397036,-275.3503904636018,-393.74056440999266,-273.40021174110007,-128.19976809393847,-182.27801135127083,-283.7429739171639,-323.9243875395623
2025-12-12 20:45:14.831017,Right,-181.45659146254184,-234.02935542410705,-349.7488348198822,-234.71611034841044,-158.59668820130173,-145.5431340568175,-241.74213084683288,-285.20521141809877
2025-12-12 20:45:14.834005,Right,-143.25298257026589,-195.27921037824126,-309.46329185715877,-195.9120401351829,-157.05332796630682,-112.52273042296292,-204.5954599607503,-245.93257410556544
2025-12-12 20:45:14.839074,Right,-155.3893377922359,-210.59381027257768,-324.0750195433502,-208.81271578691667,-116.00080928148236,-126.18888457969297,-220.86081577383447,-256.04474846832454
2025-12-12 20:45:14.843027,Right,-184.5452565275191,-240.03661775391083,-351.1350581322331,-238.8506373774144,-107.08649850275833,-150.9725446992088,-248.37213122611865,-281.8037369044032
2025-12-12 20:45:14.847076,Right,-177.34237231241423,-227.9272486087284,-334.87748908938374,-229.7331618157914,-147.0682267684606,-140.16083698681905,-233.42550551658496,-269.3198980251909
2025-12-12 20:45:14.851057,Right,-153.89489824540215,-200.22451119404286,-303.4070047448622,-201.3195822564885,-162.19104545615846,-117.80999311324558,-204.3331776399864,-238.4386751035927
2025-12-12 20:45:14.855073,Right,-164.49388154345797,-210.78614883264527,-310.8782065230189,-207.21875205810647,-124.03820850595366,-128.90815929102246,-213.83944618777605,-241.86578066903166
2025-12-12 20:45:14.859062,Right,-194.5455677169375,-240.70372027682606,-336.76421987544745,-235.0726291873143,-104.7413695063442,-154.21470441744896,-241.61140102072386,-269.21985592041165
2025-12-12 20:45:14.862120,Right,-192.39754621082102,-234.7620265473961,-326.21650380967185,-231.59511130163446,-143.9143346461351,-146.76090638022288,-234.43401497008745,-269.1127632159041
2025-12-12 20:45:14.866084,Right,-162.96938471816247,-201.09884335898096,-289.78355353843654,-199.51654011075152,-171.9855171556701,-117.69239283981733,-202.68383847380755,-240.8615273835021
2025-12-12 20:45:14.871112,Right,-154.0351315800799,-190.37465262418846,-278.1220023780479,-187.34776785050053,-135.39620270894375,-112.19782865489833,-194.93281551467953,-227.73980019113515
2025-12-12 20:45:14.875116,Right,-168.9193784930685,-202.98161530285142,-288.5902164101135,-200.21154948853655,-96.02674528543139,-126.77651149217854,-207.60754012333928,-235.82883952267002
2025-12-12 20:45:14.879154,Right,-169.24828336175415,-198.5778100565658,-279.7866731666727,-199.46519626211375,-120.88607908267295,-122.7981174326269,-200.2468174266396,-232.385388005001
2025-12-12 20:45:14.885157,Right,-153.27066971058957,-179.57332278275862,-256.8405655521201,-182.2283053675783,-162.51789861702127,-103.9756666457979,-178.7493276942405,-216.10201638640137
2025-12-12 20:45:14.888181,Right,-156.14177518329234,-183.8123870442505,-259.27069870661944,-184.02435533847893,-147.36108037974918,-107.34313755511539,-182.686385746405,-217.8095810409286
2025-12-12 20:45:14.891244,Right,-174.5928815441439,-203.12047603732208,-276.58646479516756,-202.11578021693276,-107.47190418309765,-126.49580812448403,-202.30575305811362,-232.1558474097983
2025-12-12 20:45:14.894234,Right,-166.85039180587046,-191.4158925737138,-260.46086135623045,-193.61190799815813,-115.95545028679771,-118.34679427978699,-190.62510253302753,-219.79280818236293
2025-12-12 20:45:14.898242,Right,-133.13430912373587,-153.1981296497397,-216.82741066958988,-157.75307590333978,-151.04737233871128,-84.91670156188775,-153.43158192408737,-183.0625018196297
2025-12-12 20:45:14.903259,Right,-122.55191131011816,-142.93842168175615,-202.23247078579152,-144.8619802314788,-140.4924823224428,-75.03295601299033,-145.12659010419156,-169.87568103376543
2025-12-12 20:45:14.907248,Right,-147.16937851230614,-169.39973841322353,-224.55616135289893,-168.59193234134,-98.94919304852374,-98.71041774886544,-172.30839792161714,-191.09472647524672
2025-12-12 20:45:14.911245,Right,-159.42086759320227,-179.02119380282238,-228.71248210669728,-180.72777818888426,-100.39246597193414,-110.07210387400119,-181.32422518834937,-200.82808423304232
2025-12-12 20:45:14.914282,Right,-136.77941912889946,-151.93092883942882,-195.94688479584875,-157.40612771490123,-139.13784017349826,-90.64132720715133,-154.65209800651064,-178.22173524776008
2025-12-12 20:45:14.918282,Right,-120.53231130997301,-136.6946246898151,-176.34638256463222,-140.7913737440831,-140.98963442648528,-80.71533588660532,-140.73591821017908,-163.0892571292934
2025-12-12 20:45:14.922296,Right,-136.62354603904532,-158.4084204857936,-193.5180133319809,-158.44985608680872,-102.07266603584867,-100.84805128382868,-161.58183867455227,-179.089317566948
2025-12-12 20:45:14.926318,Right,-145.33149156332365,-169.75902869936544,-197.94831421715207,-169.6443778926623,-93.74108617351158,-110.52678825892508,-169.37384286685847,-186.60472929128446
2025-12-12 20:45:14.931304,Right,-116.46649398611044,-139.11761871393537,-159.26747233024798,-141.51836520270444,-126.4595661709318,-84.33637348745833,-135.87110169028165,-156.3499300114927
2025-12-12 20:45:14.935332,Right,-91.52946824356331,-113.76142148091458,-127.76032625895459,-115.07769353466574,-131.19122087419964,-64.58125967803062,-110.10351930023171,-129.18379433220252
2025-12-12 20:45:14.939338,Right,-112.62917346842005,-136.9648936081212,-146.70869569521165,-134.14908677485073,-92.8686960778432,-87.88296547075151,-132.83546876785113,-146.60770255950047
2025-12-12 20:45:14.942376,Right,-144.91121400237898,-168.11726607725723,-173.24794404307613,-164.21567716856953,-81.65159069071524,-117.3330030265206,-161.16424097085837,-174.73054374702042
2025-12-12 20:45:14.946374,Right,-136.01004335386096,-153.22033932653721,-153.61526127747493,-151.2624750813702,-120.18790420543519,-105.80175978559419,-142.71923847816652,-161.88009044958744
2025-12-12 20:45:14.950391,Right,-105.42054937026114,-117.69171140925027,-115.9325520696002,-114.62638543127105,-136.65419508874766,-75.94428650857299,-105.27830733841984,-126.93703698500758
2025-12-12 20:45:14.954354,Right,-103.72827469051117,-115.23977822472807,-114.34939006442437,-107.315569828148,-95.93735013902187,-73.8355805016181,-101.56429314170964,-120.83618200593628
2025-12-12 20:45:14.958441,Right,-121.52695656722062,-132.07061443815473,-132.31922714633401,-121.47223945066798,-66.29993994065444,-86.29289892720408,-115.92197781952564,-136.4058335321606
2025-12-12 20:45:14.963465,Right,-113.28663969421177,-120.07717459421838,-120.06358779571019,-110.47854939638637,-94.75359246661537,-72.26478294681874,-101.73244320694357,-128.96084679639898
2025-12-12 20:45:14.966451,Right,-84.74993451251066,-89.67579918564297,-89.05606207973324,-79.32533654937288,-120.55627198435832,-43.304144627356436,-71.96075620822376,-101.47803665953688
2025-12-12 20:45:14.970459,Right,-80.46380763984052,-88.45338478614576,-87.19732336740708,-73.95048706879606,-88.21639806847088,-41.54960711879539,-72.90742749045603,-95.5605709151132
2025-12-12 20:45:14.974417,Right,-98.64926305960398,-109.53577483491972,-105.8108938721125,-93.18412108696066,-50.952358971873764,-59.016530768742086,-94.31593926053029,-110.49958403396886
2025-12-12 20:45:14.978481,Right,-95.56604296612204,-104.44928925670683,-96.08170105260797,-91.06920804298716,-72.47524009426706,-52.15151039097691,-87.80331862979801,-105.51678646006621
2025-12-12 20:45:14.982537,Right,-70.8830407212372,-76.52395913464716,-63.78575600514887,-65.18573239957914,-109.62538992179907,-25.402977521065623,-59.57963359815767,-80.0193851821241
2025-12-12 20:45:14.986529,Right,-69.58148801050265,-75.59760723210638,-59.9304286124534,-61.497973309597,-92.78978912389721,-24.262680146843195,-59.64320639858488,-76.28651819226798
2025-12-12 20:45:14.991495,Right,-93.93363383001997,-101.19398450822337,-81.99262770853238,-84.30645205563633,-52.948869145533536,-47.940107420959976,-84.75988056143979,-96.53687225928297
2025-12-12 20:45:14.994570,Right,-94.17851338721812,-99.10684077226324,-74.68484485748922,-83.73475740704453,-60.46174885169603,-47.225350344524486,-80.26483785788878,-93.73448665608885
2025-12-12 20:45:14.998575,Right,-60.724877875938546,-62.671336056955624,-33.90956311754417,-49.038988906366285,-93.34667077558697,-15.538121072982904,-42.27675620961236,-59.03234678716399
2025-12-12 20:45:15.002553,Right,-45.52289091871353,-49.03319670219207,-18.875875875877682,-32.76472396950703,-81.43344839959173,-3.5706028184795287,-28.835056371375686,-42.06562554987613
2025-12-12 20:45:15.006620,Right,-68.60507208007039,-76.0278118972783,-45.29027345799841,-56.40889398535364,-40.893560976022854,-27.664646701538004,-55.1721001030819,-61.82176568248542
2025-12-12 20:45:15.010618,Right,-82.16170099648298,-90.25719325145474,-57.0442482579092,-71.77765108301537,-45.28205946664093,-41.34193997189868,-67.09210603657993,-72.76973856816767
2025-12-12 20:45:15.014673,Right,-59.25429274037015,-65.79941936020623,-29.414416545128915,-50.122095297294436,-87.12535744984052,-22.22956253529992,-41.91759312033537,-49.63779844756937
2025-12-12 20:45:15.019652,Right,-41.724045790557284,-49.26658574442263,-11.410409482137766,-32.53824974477175,-89.59236418551882,-11.047570314549375,-27.875084106839495,-32.32229620398721
2025-12-12 20:45:15.022614,Right,-59.62243091175333,-69.24123130386579,-30.528296757984208,-49.55890450091101,-47.5307583368558,-31.30521431483794,-50.01236051658634,-48.483676891890354
2025-12-12 20:45:15.025624,Right,-74.85682235425338,-81.96173594027641,-40.627643490966875,-62.91671734399279,-35.53123529063305,-42.95832061494002,-61.33217226254055,-60.57157672237372
2025-12-12 20:45:15.030694,Right,-53.399237779318355,-54.221713397913845,-9.73551677208161,-37.95166028972017,-68.43718395772157,-17.41948529263027,-30.750633419287624,-36.11333054667921
2025-12-12 20:45:15.034727,Right,-28.990245530148968,-26.80989025052986,18.298545973637374,-9.803468853555387,-74.71549113685614,7.46073742659064,-2.3683521015918814,-9.028603110520635
2025-12-12 20:45:15.038735,Right,-39.75567474827403,-39.77298401138978,4.0244287242530845,-19.5508703016676,-32.11316479337984,-4.285692582052434,-15.368563731579343,-17.72363795741694
2025-12-12 20:45:15.042737,Right,-57.122074477607384,-58.68474024994066,-14.562901294586482,-38.80586314931861,-11.119855022319825,-21.624311333638616,-33.09492977330228,-34.78504568373319
2025-12-12 20:45:15.046746,Right,-39.14188043450122,-38.45026463735849,8.55545640346827,-22.16378441263805,-43.57870608684607,-4.471632634085836,-11.423633889091434,-17.55206606988213
2025-12-12 20:45:15.050772,Right,-8.929112304147566,-6.316859933169326,43.60117914999137,9.336106006521732,-62.087088193773525,22.569641688169213,20.34662519316771,14.084943084890256
2025-12-12 20:45:15.053718,Right,-12.776062776480103,-10.982290159678087,40.52251697931206,7.317665701295482,-25.11490836853045,15.98255315629649,14.335882857820252,15.111884318554075
2025-12-12 20:45:15.058781,Right,-35.18071112566395,-32.68496047906228,20.12561453814851,-15.073680088098627,5.115536639088532,-6.769572775738197,-7.888372242130572,-2.404440092475852
2025-12-12 20:45:15.062803,Right,-28.957908033771673,-21.80913386004977,31.773651580908336,-9.717506634857273,-22.374961431429256,-1.5245618498011027,2.0951158901734743,4.83455569279613
2025-12-12 20:45:15.066753,Right,-4.8524103505769745,6.166397465887712,58.091961386293406,14.595742392062675,-53.96008119801991,18.5837482126517,26.63149774086196,26.998631344613386
2025-12-12 20:45:15.070839,Right,-11.104135389468865,-0.3584267991245724,48.39146646784502,9.469925394136226,-32.30381159496028,8.62188793218229,15.954423586284975,19.92739007723867
2025-12-12 20:45:15.074841,Right,-39.9174906500557,-29.02707776124589,19.079598602082115,-18.275522364361677,-1.3263326846936252,-20.3016475498589,-13.67788456438575,-6.810129735036753
2025-12-12 20:45:15.078878,Right,-39.07589019049192,-23.328098471625708,28.02198137054802,-16.106831582263112,-20.654240429226775,-18.896085940272314,-6.272230826842133,-2.632887165324064
2025-12-12 20:45:15.081870,Right,-9.160905195720261,12.050895934196888,67.03940933872946,15.60886681752163,-52.35103034056374,8.169777765710023,29.39552704858943,30.269652349932585
2025-12-12 20:45:15.085878,Right,-3.3992910997767467,18.481697816430824,74.68709773058072,22.161125431244727,-32.573866246879334,9.888477852800861,33.87844833472627,38.51636578675243
2025-12-12 20:45:15.090865,Right,-29.270038405666128,-8.709407319896854,47.85593698867888,-4.957931947923498,7.029263354343129,-16.563889309734805,5.423883549388847,14.086397394712549
2025-12-12 20:45:15.094885,Right,-34.425391854631016,-11.43138577992795,46.61165904423979,-11.50964231727994,-2.8817140277824365,-20.004067964386195,2.978182052349439,8.632762033463223
2025-12-12 20:45:15.098921,Right,-2.7502735232992563,24.964166376536014,84.23834718593571,21.21955917820742,-39.53395666426513,11.086239828946418,38.9931143415306,39.814627983549144
2025-12-12 20:45:15.102928,Right,15.737390471040271,44.96944125369191,103.52149374433793,42.4457657305029,-30.276900917087914,26.99109460656473,57.406327268559835,59.80635432715644
2025-12-12 20:45:15.106931,Right,-5.03431470268697,23.030054120114073,80.27648564428091,22.890710527441115,10.651977403264027,5.731006857022294,34.77663432191184,41.201846048687
2025-12-12 20:45:15.109958,Right,-22.161757210167707,6.870332864651573,64.01300785875355,4.652868645396666,7.6205667280446505,-10.098326467166771,19.42604992633278,23.492196674706065
2025-12-12 20:45:15.113984,Right,-3.9234343684947817,27.65637431248615,84.59264878886461,21.817684977911995,-34.24825894026435,6.602542287335382,40.349468102052924,38.57387619094516
2025-12-12 20:45:15.118983,Right,15.052942396447179,45.83428464314784,100.50003613948502,40.998796925967326,-36.0149471918412,20.71008228388382,57.23252351077099,55.63515604943677
2025-12-12 20:45:15.122995,Right,2.9887696406512987,30.100755153252976,81.89383223171171,29.007706043877988,9.799006068264134,5.579046829647268,41.43756520010356,44.565053778438596
2025-12-12 20:45:15.126996,Right,-9.230926862437627,16.979373090798617,68.33662146310962,16.187515411467757,25.104721553070704,-5.473241026738833,31.273093842188246,33.97101531908265
2025-12-12 20:45:15.130963,Right,10.799222444431507,39.587145929122926,92.78334245199949,36.66714924633561,-9.98215759784216,16.154696216144657,57.34045833174605,54.6689599645033
2025-12-12 20:45:15.134027,Right,33.2476527296385,62.86746979081363,117.53282129213767,61.21943012946576,-22.0807076774945,37.61873263774032,81.44019416102674,78.50142894765304
2025-12-12 20:45:15.138050,Right,21.45966100388614,48.86608185635123,104.28001168726405,51.037969304365106,17.624411621975014,24.514209531196684,66.36809557464585,69.83998460134899
2025-12-12 20:45:15.144047,Right,1.865132746490417,28.667621461267117,86.03046468296088,30.746863501306507,39.64810718728404,5.157014804470236,45.53858541371301,52.318276493795565
2025-12-12 20:45:15.147069,Right,14.897887521015946,44.03468506592617,104.21106594043158,41.76097363430745,5.786320030398201,17.561837903776905,60.15134877957462,63.74242895214411
2025-12-12 20:45:15.151067,Right,38.17542985956243,68.07329938920157,129.22252620704603,63.617707231707755,-19.89795216768107,38.296781034892774,81.5556118865643,84.0165114252377
2025-12-12 20:45:15.155096,Right,28.301962655837997,56.144424228114076,116.04174354251518,53.326404980165535,10.183310942011303,27.7080244148965,66.70099307790224,73.893407732794
2025-12-12 20:45:15.158106,Right,5.368172235946986,33.42756595421088,92.31366882074008,30.462428456063208,41.139049466190045,7.269307704598759,43.647417779720854,53.10921282451454
2025-12-12 20:45:15.162106,Right,20.659881665866124,52.9307463549776,111.54051437831367,45.973282745457254,21.321069519981393,22.484865452359372,63.667076137924596,68.30814313006704
2025-12-12 20:45:15.166107,Right,63.13484692874772,97.22093730136112,153.68926854206984,87.72628805339627,-0.6675721283536404,57.51858886417904,104.98201141838217,105.75147797376121
2025-12-12 20:45:15.170084,Right,76.0880532804149,105.2551190063823,157.03281139124738,97.44865669992578,30.17543726159056,60.39055285898212,107.35710871859919,111.18404962439672
2025-12-12 20:45:15.174120,Right,54.978592308390944,77.97625551696183,125.8143905026227,71.48734356079513,68.36707970017596,34.823717013412534,77.22861638392351,84.39459977252045
2025-12-12 20:45:15.178162,Right,49.143046433142445,71.3151274122647,118.25825015350347,62.94337055099095,50.656563048643875,30.728941134362685,72.38456284425956,76.98939875635551
2025-12-12 20:45:15.183098,Right,68.51664936142333,93.00053299759384,140.06931580931996,84.17728547064326,14.427595976929297,52.754390550420794,96.84169852142804,98.93938141012768
2025-12-12 20:45:15.186137,Right,70.07643860798999,94.92030431619787,140.90922870038048,90.33335210957739,29.508422605271335,56.582323938093396,99.84472030879533,105.86674969691012
2025-12-12 20:45:15.190153,Right,45.942612673097756,70.74546823940545,115.8102124468569,70.03635268858307,69.76934443651407,36.41822338546808,76.28171718376598,86.7902998429181
2025-12-12 20:45:15.194109,Right,42.94639300106792,70.84779168381283,116.86767112162488,68.89425887515517,63.57256759610027,36.87172844372253,77.05933948206302,85.21220876266989
2025-12-12 20:45:15.198252,Right,73.3557148980035,104.26651764510507,151.39309178994154,100.11493027087954,27.753166989226884,66.10076520322127,109.45922909847832,113.59503111949857
2025-12-12 20:45:15.202262,Right,85.70069421488006,114.58551366399706,160.50353688213363,112.80122932004497,34.47230135028076,75.19303126911245,117.39787186901412,124.26343819308568
2025-12-12 20:45:15.206305,Right,55.81629885571601,80.86857952092396,124.18170426101278,82.6978629698051,74.2322253318307,46.551703948671275,83.21767383044062,95.45189370102526
2025-12-12 20:45:15.211177,Right,32.182852307312714,58.59726938377389,100.3000833660044,59.028353769124806,73.14298007645993,28.59425263891353,63.177419698437006,74.1571977334861
2025-12-12 20:45:15.214193,Right,50.650827155630395,82.6881023666574,123.48929027137638,78.66204201947585,32.82657643221319,50.45510129560353,88.49872034902,94.41769254793326
2025-12-12 20:45:15.218219,Right,73.03287620881383,107.80318972623718,146.7241820790805,102.4762013731015,29.78971030104185,71.26748263057016,111.22466131232432,118.43958556377038
2025-12-12 20:45:15.222233,Right,60.02452575789357,93.0779419227838,129.89844755113882,88.82417309735683,73.28805580394874,55.98573733866033,92.78456405784164,106.67284922709587
2025-12-12 20:45:15.226249,Right,42.20876919152579,73.95581391641463,110.23785296952701,67.8030949126769,86.9497820701572,37.458590064385135,71.73555266032054,86.92700584377235
2025-12-12 20:45:15.230261,Right,59.44282018593731,91.09466193347544,127.09408111541416,81.00698599154566,49.86519411780955,51.6381136802338,87.91871103258745,97.35148283198214
2025-12-12 20:45:15.234263,Right,85.72692961149733,113.75134660838376,146.9539134366496,103.24738292097754,35.1494137955392,70.12524835169097,108.21723019296041,114.4005054773952
2025-12-12 20:45:15.239336,Right,80.27935032739515,101.06618741689454,129.81613476252824,93.08575135463616,74.31422523133915,56.601208759326255,92.49444980029511,101.28714053932345
2025-12-12 20:45:15.242299,Right,64.90730071385951,81.50344127630524,107.71621372195659,73.16141977594816,99.50766741016196,37.67532681733792,71.69426641166501,81.65815017058048
2025-12-12 20:45:15.245317,Right,80.28836501455407,98.27597645016067,124.31652444992505,86.62458551580494,69.90559022681919,52.518130151223886,88.7646108327026,96.16900913490826
2025-12-12 20:45:15.250316,Right,105.60480006386479,124.86329923342419,149.9803165479534,113.0302955859006,46.18536600958578,76.95178620515435,114.93693326554785,123.56345600383793
2025-12-12 20:45:15.254347,Right,95.83789453315876,112.68169608066091,135.0729308034497,104.6660020293566,75.92797319896636,66.8652688598304,101.91283255988674,117.41646798452712
2025-12-12 20:45:15.258357,Right,68.17398419319989,83.47603066213196,103.83578509985819,76.94796540198877,106.02128541272396,41.246342270729656,73.97221243931563,92.55962538786116
2025-12-12 20:45:15.262304,Right,73.95496580245253,92.01644549507182,112.24299895169679,82.78383294888772,85.69899289344903,49.20867405815443,86.07276795923826,99.41797474621853
2025-12-12 20:45:15.266372,Right,104.36391276901838,124.80040626158734,144.78427431400632,115.14594441952067,65.71421714519602,79.48158679886546,121.98168479646847,130.90492910100147
2025-12-12 20:45:15.270375,Right,104.29768434076686,122.48416989500402,140.91484325754573,117.76516541217279,106.33494977188457,79.31511602593673,120.6862534924876,133.30300554617133
2025-12-12 20:45:15.273343,Right,72.34868932105655,87.8830528564722,105.02749956476327,87.0547829054849,165.37336941279864,50.119050033150415,85.3927091647929,102.99886767052521
2025-12-12 20:45:15.278399,Right,64.21293177804637,81.6809366777743,98.58404583977244,78.79063592101738,175.4661678906923,44.70419180467434,76.59926048095804,92.44595911251963
2025-12-12 20:45:15.282410,Right,92.94916644336081,113.68773536327353,129.39482234205934,107.61811953777215,166.56899890958448,71.98459730068862,103.7497591504216,115.84181304644153
2025-12-12 20:45:15.286360,Right,107.96861373265347,128.20395024459867,140.729202057395,123.38131242757663,205.4120714679957,83.91711458630016,113.59239298886678,127.54958735122636
2025-12-12 20:45:15.290440,Right,87.08013488849065,105.7431151082128,115.57269405410625,103.40027090432704,265.92363403704803,64.22950804019638,90.2604272767785,107.95890031108866
2025-12-12 20:45:15.294458,Right,70.81202032269903,92.44705694753793,102.17800157886813,88.76297355926363,274.5009148924364,53.32521622385684,79.41149337824027,95.53045084801852
2025-12-12 20:45:15.298462,Right,81.03029714325567,108.47140195791144,118.89678171811101,102.34459115806385,246.4265288315437,67.88042948273505,97.00953842813033,109.80460692102497
2025-12-12 20:45:15.301481,Right,80.81487821495102,111.2035560557706,120.65590661065653,106.44688761222642,257.28611943501164,69.78188464036066,98.83184185608116,114.19332416541874
2025-12-12 20:45:15.306487,Right,50.52560711449041,81.62962012532807,89.52917000072193,79.44044820409908,301.7860079510938,42.63491096137295,68.44448442061548,88.95730842842022
2025-12-12 20:45:15.310496,Right,32.40135305200238,66.89173482907063,74.9197639530903,63.282074307935545,303.9282281274718,28.483940848447673,54.41558278464072,73.75787022468285
2025-12-12 20:45:15.314463,Right,55.08765295027115,94.73496498768509,103.73402265498589,88.18651856915676,260.10678832262056,52.007302625592274,82.29411286723916,95.99674186416087
2025-12-12 20:45:15.318541,Right,78.43820344017877,119.39677004424448,128.05678441027703,114.22252661119273,248.37982184985594,73.23058562760707,104.81016462130356,117.96715514760581
2025-12-12 20:45:15.321546,Right,64.05075470729571,102.64157330186572,110.30867042329919,101.17037951102247,286.0702945195808,58.91138278985454,85.7026403672644,103.37936000648187
2025-12-12 20:45:15.325551,Right,43.20096695108441,82.05753494446981,90.0226401816617,79.90763304114807,299.94861695241707,41.95685245504137,64.51106464039185,82.47878825293446
2025-12-12 20:45:15.329572,Right,57.01456288483314,100.13131890985824,108.81159655078955,93.7716987629392,262.9473585621454,58.85861121049675,82.7838947307755,95.59096684186079
2025-12-12 20:45:15.333587,Right,79.48559227350052,124.87281920312671,132.3818434553832,118.07966605797992,241.86814387678896,80.89571582161443,107.4401235786354,118.61748283663474
2025-12-12 20:45:15.338596,Right,65.75770491550065,108.97907264863898,114.21570064444677,106.50667469100154,269.4954936874201,66.92974221493205,92.3773514120694,107.8746295630408
2025-12-12 20:45:15.342596,Right,35.261384231049306,77.17024735246378,81.96258890340687,77.00641132265446,283.0933379000053,39.35639796643227,62.85349607920216,80.24618845709483
2025-12-12 20:45:15.346645,Right,35.70808660051625,80.25156285514822,86.3713600976771,77.84738163136353,244.32758691945492,42.69614870136138,66.86602874560049,80.40817830900778
2025-12-12 20:45:15.349627,Right,56.74071438034662,103.22163965280924,109.26268790492031,99.16505399585003,213.72816002368927,63.49973622208927,87.18159057750017,98.80695763151743
2025-12-12 20:45:15.353645,Right,53.20565565223296,97.19560699966678,100.61372747314454,94.52449217732647,238.0109770948111,59.36709214442817,77.58700364871765,93.0975438755122
2025-12-12 20:45:15.357616,Right,31.69418907900763,72.49402848776663,72.98870546551188,69.7954101565847,261.181424927403,39.82711323030526,52.1547745179123,69.95414078158501
2025-12-12 20:45:15.361662,Right,37.15335946965206,78.0275826958241,76.50207594894164,71.89093704873812,227.46000289767835,46.86285062368552,58.69456104679557,72.46678854117636
2025-12-12 20:45:15.366693,Right,64.74171389842377,106.19446426979266,101.87892012615339,98.1648367602902,184.64158734548255,72.21765902860352,85.99491322100221,96.55126026620565
2025-12-12 20:45:15.370686,Right,64.40039467200404,103.5596871888556,95.02633066412818,97.87760845760931,194.95742246395457,69.03322896508325,80.9655543211993,94.96106517215958
2025-12-12 20:45:15.374707,Right,33.18375361796279,70.03860554118,58.259806164569454,66.15548305820266,220.14324896835387,39.35267955942254,47.27794824879675,64.74796310554666
2025-12-12 20:45:15.377716,Right,22.615158123466244,60.54125575788203,48.09861812539748,54.755189685645746,194.82049762707538,33.006715522788,40.692563265009085,54.68196919366892
2025-12-12 20:45:15.381740,Right,45.11746964506165,84.23888372995134,71.85371447486978,77.55801687976054,150.0012692432265,57.079298932047095,67.292019838962,76.6899482992012
2025-12-12 20:45:15.385677,Right,54.00538842243259,89.93809246712772,76.49981995252892,87.0898819212307,155.76375878804174,64.79177093027101,74.42488974427397,86.18056373063882
2025-12-12 20:45:15.389760,Right,33.15974971140895,63.97251240674814,49.731755661268835,64.87131977785612,190.43638892905165,44.139236522853025,50.37718349501665,66.80569662360358
2025-12-12 20:45:15.393765,Right,26.487259201596316,55.53960488678422,42.19347510818625,54.87167381505424,180.28354580276164,39.27917200533557,44.95649019241682,59.59374893842323
2025-12-12 20:45:15.398798,Right,52.50350602047183,82.17900706968794,69.58839771679777,78.18481415804126,135.2050091028052,65.11427064469899,73.14866007080127,82.65864364456502
2025-12-12 20:45:15.402796,Right,65.47441691248605,93.30675207893364,79.28154672711389,90.26460328878602,127.86912422154182,75.98301396942406,83.23942706905655,93.23005769397423
2025-12-12 20:45:15.405842,Right,37.7142004371708,62.01507889517234,46.02650949714007,62.480080854540574,157.09166502176413,48.58641427922703,50.98480453304364,65.10630412558385
2025-12-12 20:45:15.409762,Right,10.926993494322232,35.32525780274591,19.511780047396314,36.32143489908776,151.24224810016312,25.38906624513038,25.58137335757783,38.33899257684243
2025-12-12 20:45:15.413824,Right,19.597148236131034,47.62982608558377,33.100631251727464,46.91395816611475,103.26447071482835,36.289407788674,39.69154061477457,46.47576478701376
2025-12-12 20:45:15.417797,Right,28.61687959335177,58.127382022328675,43.0546433738491,57.99323865074257,83.35761494035614,44.23954043256526,50.19419379947067,55.69730300769152
2025-12-12 20:45:15.421858,Right,3.3467355743305234,30.937918432347942,13.9361670090002,32.42626348884369,107.32910877847462,17.89168408738624,22.15864401582803,31.361870965381968
2025-12-12 20:45:15.426861,Right,-19.287076695793075,7.767470641672844,-9.346622640267015,7.0215809547225945,109.06429671855585,-4.737976636868552,-1.1076401048339903,7.92043884130544
2025-12-12 20:45:15.430820,Right,4.919465495644545,34.15700514175114,19.274832503535436,28.959215244321967,68.07160755450604,16.907018921730923,24.63379472233646,28.811767994295224
2025-12-12 20:45:15.433893,Right,44.74322702792415,74.43409044545842,61.42706283571897,69.18202970677521,50.77030508071766,50.96668057781062,62.284915662705316,65.96632595428673
2025-12-12 20:45:15.437933,Right,45.49042803622069,72.7971897742973,60.2862422492035,72.0922282692336,85.57412433629361,48.444210191693855,58.270958601060556,67.77208508309559
2025-12-12 20:45:15.441848,Right,21.44824784523007,48.61348104936769,37.02461570187006,50.600698962880415,105.20921540194831,27.44168186974275,35.15652853024949,47.6549028326117
2025-12-12 20:45:15.445917,Right,22.78183822486244,53.75963951651647,43.84361393924337,55.04372169361159,66.93099076858925,34.10368202631798,44.069906033662846,52.91416132735321
2025-12-12 20:45:15.449950,Right,42.19379295884937,75.27019686014683,65.50377106042288,77.81649443185597,29.08649376804533,55.763509358032024,68.46131390388473,75.219656177258
2025-12-12 20:45:15.453963,Right,33.56068858141953,63.88715906745347,52.325357576002716,70.80764870517305,42.291554973096936,47.23546714614349,57.811883716494776,68.83776061497338
2025-12-12 20:45:15.458976,Right,3.3147834573683213,31.26460827194387,18.869202708272496,39.51021950939321,57.79321952996543,18.24255607509258,25.360227497527376,39.31984289940738
2025-12-12 20:45:15.461996,Right,0.36874537213225267,30.493623540605768,19.79265147668775,34.6805525788659,22.111021514210734,16.21927607968246,24.74828333129699,34.50318487390177
2025-12-12 20:45:15.465987,Right,23.286588110051525,55.66196469013812,47.048307387085515,56.83085207617842,-20.582012650338584,36.88389438850572,49.397765470988816,54.83987466851249
2025-12-12 20:45:15.470033,Right,21.010320407513063,50.66890912048984,42.74580000463175,54.37020816117001,-10.030926896070014,31.84905080194585,44.40163679291436,52.31297910163994
2025-12-12 20:45:15.473965,Right,-11.275319347307232,14.086974800404278,6.735325043802732,21.094528634508606,17.603026269192924,0.5705168289350695,10.01474926478113,21.282904733277974
2025-12-12 20:45:15.478033,Right,-19.86475122028787,5.104269542396651,-0.795844767082599,11.032490965371835,-2.5593498493981315,-5.495232939290872,3.650617907071137,11.743198556869174
2025-12-12 20:45:15.482071,Right,10.689783269732288,37.036580005908036,31.516567049955484,40.65528129808081,-42.81105381814996,23.558750452786626,35.105333472864004,38.61618420679588
2025-12-12 20:45:15.487078,Right,29.67977622850958,54.1099866337463,46.30052477981371,58.60309840842092,-35.5540014453145,37.457722322542395,48.54657111396955,54.31050727426191
2025-12-12 20:45:15.490067,Right,11.797141688741249,32.879322657739976,22.105993218516232,38.384041960249306,-1.669919691135874,16.269486346376652,23.984829279535916,34.73498680141347
2025-12-12 20:45:15.493091,Right,-1.6052898547895893,19.891921410278883,8.037940488473396,22.405017185839824,-13.687553615600336,2.932949183996243,10.099287473320146,19.357507707507466
2025-12-12 20:45:15.498091,Right,16.15062462939386,40.062748427313636,28.180117853640695,39.34681645898672,-61.24029581746436,20.95894379731908,30.803255939652445,34.34423666226212
2025-12-12 20:45:15.502054,Right,28.714942495349533,50.904147908237064,38.087249551404966,52.11579759349115,-69.52726252537104,33.06849317943852,42.60439759196015,45.419644296969636
2025-12-12 20:45:15.506134,Right,10.24839998047537,27.097572624668828,13.480179457765189,32.075529045047006,-36.96722632367164,15.913539523928193,20.762174911869806,27.216127364896238
2025-12-12 20:45:15.510137,Right,-1.4643681698325963,12.549791333105532,0.5787591346743284,16.461090316064656,-36.67606641573366,6.695289960189257,8.671848529731506,14.804106705298182
2025-12-12 20:45:15.513170,Right,24.49170809543284,38.62846003504819,29.99514058715431,38.36220860143658,-80.60010246068123,31.6262958023799,35.105322632109164,37.51852619663987
2025-12-12 20:45:15.517273,Right,49.986996035564516,61.28666909193271,54.95279876909626,60.51700533888652,-100.12175376026426,51.21541441108275,55.20774072079803,59.266224784980295
2025-12-12 20:45:15.521216,Right,33.361791287272354,37.540240099377115,32.30518568835396,39.58540653872478,-77.6254377462028,28.282135908535565,29.053452058084076,40.09659482011921
2025-12-12 20:45:15.526220,Right,3.9396950413502054,2.53976798291842,-0.5981352545932168,4.431605504389154,-80.74771122733364,-4.667703023755166,-5.5716563676833175,7.880491463656654
2025-12-12 20:45:15.530219,Right,8.74973963071534,6.191476439380494,6.452307293533522,4.8095866300864145,-133.92108576119062,-2.4184685413056286,-0.10929892639978789,8.807983412611065
2025-12-12 20:45:15.534233,Right,29.60965532498085,26.28280626006017,29.34337557559047,25.067144349217415,-168.19741643898305,16.071285918536887,21.261954951143707,27.645406688505318
2025-12-12 20:45:15.538239,Right,21.10498860986627,15.46132075892092,20.478006542143703,19.19192819696036,-145.57068528790842,9.097487456645467,12.379479371717025,21.69469411247701
2025-12-12 20:45:15.542243,Right,-4.425687478251348,-9.538056521581893,-1.742857506564178,-2.4859149460098706,-127.56470481673023,-9.525712905458931,-8.631644948291068,1.037212863113382
2025-12-12 20:45:15.545263,Right,-3.249073144950671,-3.2675302909701713,7.655372087931028,2.7090551521541784,-160.60215770467767,-1.510281954833772,1.3415559103668784,5.053211104779621
2025-12-12 20:45:15.549291,Right,14.827974275594897,18.518997557039256,29.944865305616986,24.159753973930492,-191.37502154425601,18.033907521858055,23.630874392343685,23.305249551762245
2025-12-12 20:45:15.553283,Right,5.215777851122766,7.011868231595145,15.586739002930699,15.84777787879284,-168.67775352025637,6.871333251801843,11.153331903624348,13.5516570933396
2025-12-12 20:45:15.558292,Right,-24.476759527149625,-25.624163117288845,-20.399514593606,-14.880625393889204,-140.5811351921293,-22.233173667373194,-20.001601826195838,-16.347364350847783
2025-12-12 20:45:15.562310,Right,-24.77920592836199,-24.72798261709977,-21.75559955961944,-16.524358530412428,-165.34091117131175,-20.413007696835848,-15.600951646665635,-18.86298545518366
2025-12-12 20:45:15.566333,Right,4.731788459397649,7.3277119923805,7.164167424962216,13.176310196395207,-202.66782509107725,9.19624552228197,18.02719998844259,6.808746346549015
2025-12-12 20:45:15.569336,Right,13.369652879129717,15.029383661181782,9.784227291165735,22.764319688583782,-188.66753059541225,17.433332852306194,24.704313593407278,13.005377008070354
2025-12-12 20:45:15.573340,Right,-8.367182104393578,-9.194638604327338,-18.72938722089748,1.045235247402161,-154.30135047610383,-0.9590204852574971,0.2508371243675356,-8.774628940605908
2025-12-12 20:45:15.577299,Right,-13.708507419072703,-14.443722480165889,-25.3154724105043,-5.019715051741514,-166.43896043411223,-0.4936840107839089,-3.2086205302839517,-14.062098818314553
2025-12-12 20:45:15.581363,Right,10.47251939393027,10.110430073094903,-1.2030346428146004,18.80457251320331,-203.05118193107774,26.596867720894807,22.37705552494299,8.73349583667732
2025-12-12 20:45:15.586391,Right,17.349057715526214,12.912462057611265,-0.19321000564377755,24.932289134965686,-196.5438400277053,32.62737653639488,24.054929120800807,14.006076665995352
2025-12-12 20:45:15.590399,Right,-13.182969584586317,-24.266904198841075,-38.63636598292578,-8.717843931677635,-163.19068945088657,1.1521519550369703,-14.241568495366664,-17.676589272829005
2025-12-12 20:45:15.594405,Right,-34.12742805115158,-49.10938913458813,-61.71574622704429,-35.27922093705274,-173.98785802713246,-20.859196677185537,-39.349643858244235,-41.2649511477357
2025-12-12 20:45:15.597417,Right,-11.736640115112095,-28.55124371945567,-38.141838932278915,-18.954535418037267,-219.34457060997374,-3.579505908448482,-20.699707653220685,-23.921915433820686
2025-12-12 20:45:15.601424,Right,17.756005066594298,-3.5284528548472736,-12.232559418262099,5.620225335478608,-222.30447241972433,17.81615823953325,0.1361808558795019,0.9034301070205402
2025-12-12 20:45:15.607537,Right,15.450063639077598,-12.012422102576238,-21.68641534861672,-0.34683548680186504,-179.52517317276215,11.248780227913812,-11.034757629837259,-3.285404286463745
2025-12-12 20:45:15.610466,Right,5.209500529091201,-24.498236910643755,-34.58647877147814,-12.645917158610246,-168.70655770564917,3.1426936029311037,-22.012522355398687,-14.285890608043701
2025-12-12 20:45:15.613513,Right,19.4047100439102,-8.578263164901728,-18.88717270768757,1.7775108898495091,-208.0421927285497,20.623891886494675,-2.9935996011045063,-2.1602106179998373
2025-12-12 20:45:15.618481,Right,33.67072819225723,4.781452296982025,-7.616585749150545,16.871141113137128,-227.47228155424818,34.68679818269811,11.458454677158443,9.145620578638045
2025-12-12 20:45:15.622508,Right,16.652647580477606,-18.348978813311987,-33.84154917478372,-2.4800598309375346,-201.38488447695272,15.20447125803912,-12.131879593012854,-10.956886317122553
2025-12-12 20:45:15.625524,Right,-2.38261226913437,-43.569128838502365,-60.4938521048025,-28.09159956424992,-192.94400341791334,-6.909882628908235,-37.333159831025114,-34.71881070995005
2025-12-12 20:45:15.629481,Right,16.842380126565786,-27.514947920786653,-44.67526327376254,-16.617797940780292,-230.15028410439845,6.440758713648393,-21.35547614404277,-22.762830009618483
2025-12-12 20:45:15.633534,Right,47.50664057530639,-0.8978269399740384,-20.017414293388356,7.957853429870738,-249.8035517128883,27.726094200534135,3.7288803848059615,0.45708118848415324
2025-12-12 20:45:15.637571,Right,39.42666780092213,-15.693000679930265,-38.488342384504904,-4.353758072902565,-215.5815038374276,11.868526849408227,-12.576569713175559,-12.41089742265467
2025-12-12 20:45:15.641603,Right,8.974984265636067,-50.09098887114487,-74.87493208432079,-36.9965557446194,-188.28255097329384,-20.191036899461324,-45.94147805167813,-44.9064779979999
2025-12-12 20:45:15.645588,Right,9.692780679272346,-47.08155078754862,-70.77964985550352,-35.05207946409428,-215.10942955256905,-17.57791686938799,-40.158939317007025,-44.577299223656155
2025-12-12 20:45:15.650561,Right,37.09485137922945,-15.856672234052894,-37.963124204279666,-3.3555794477470045,-243.2905765027972,10.387646907009184,-7.490010307443299,-15.450746704675112
2025-12-12 20:45:15.653610,Right,40.47536971538295,-11.704982989795099,-33.61293809121298,4.025901871318638,-219.0759045323939,13.835403740016773,-3.5056200731778517,-7.498247917726985
2025-12-12 20:45:15.657636,Right,15.874561881752697,-35.75659682914011,-57.376754088901635,-19.43096977969617,-187.86658110725693,-7.6709215068221965,-26.712264262234385,-26.30589790848171
2025-12-12 20:45:15.661666,Right,8.780418103765442,-39.00450464777168,-59.05684934904866,-26.66260777681964,-208.72648449090775,-9.719907969039923,-27.395343623142253,-28.991314528906514
2025-12-12 20:45:15.665618,Right,26.497468232852498,-17.418731156013564,-36.403836803890044,-7.370018096164131,-242.8762268179562,11.404703833464737,-3.5741187166568125,-8.370579535738216
2025-12-12 20:45:15.669667,Right,26.312279944771944,-17.63204194514401,-37.46577214262561,-4.293798336166219,-224.58905974857043,13.561122211034672,-2.657164949709113,-5.423588405101327
2025-12-12 20:45:15.673624,Right,0.22556639862887096,-44.17697784719621,-64.96529367687253,-27.598567015043955,-182.43696394131985,-8.590451892167039,-27.825738794415884,-28.304519659126527
2025-12-12 20:45:15.677692,Right,-6.3226614632831115,-46.64774026719988,-66.65491150253729,-32.20669424758671,-185.5853592204512,-11.359928731108084,-28.635890838202613,-33.34568357518401
2025-12-12 20:45:15.680802,Right,19.934983340398503,-14.448246443897006,-33.4934994650248,-3.3715744037690456,-216.6691312000621,14.839821868221406,3.5679182710264286,-6.650640965968705
2025-12-12 20:45:15.685707,Right,31.696208451940947,-0.532052337481673,-20.582010068594172,11.510464740928,-207.88699678704143,24.416354659620993,15.501277483050217,7.141781916920081
2025-12-12 20:45:15.689727,Right,6.939910980241621,-25.96358899294836,-47.834529980778825,-11.786069727206268,-170.2872597342357,0.11207728645240422,-11.522389328052668,-14.354546844064316
2025-12-12 20:45:15.693743,Right,-9.797578414352756,-41.62512213515504,-63.87909736753318,-29.67923202367274,-172.57808531197952,-14.48897008541826,-27.126642180266572,-30.305937767037904
2025-12-12 20:45:15.697769,Right,10.12021017135703,-19.955732851033872,-41.62934181370838,-11.855496096372917,-209.6653422205709,3.721387367844727,-5.389072711759582,-13.061781949996657
2025-12-12 20:45:15.701725,Right,25.041622596001616,-7.321472752646514,-28.850945478081485,1.4848230091447476,-209.7827037156385,12.894131367329464,6.543387566676756,-0.529010181949161
2025-12-12 20:45:15.704704,Right,-0.14806324291021156,-37.38173771796937,-58.0038166454342,-25.066888987138555,-168.9356741286465,-15.869031528052801,-22.8905593934669,-24.969538436713265
2025-12-12 20:45:15.708776,Right,-26.92516127340241,-64.80755132785725,-82.03344077806833,-52.711718452569585,-160.3409677350137,-41.32922764174964,-47.58783225404932,-49.52179480610539
2025-12-12 20:45:15.713832,Right,-11.33744441091585,-44.544163894332996,-57.757086731024174,-36.138380328348376,-199.0451655650977,-24.033809218711212,-25.861552419050895,-32.802263534626945
2025-12-12 20:45:15.717800,Right,17.430287900137046,-12.03137302189225,-24.107060873979208,-4.999654624032132,-213.24232260228018,3.5558753232362506,4.130264809230084,-3.678825444150789
2025-12-12 20:45:15.721820,Right,11.480666772946279,-17.712222653090976,-31.314206986782665,-9.530252704716304,-176.012932568643,-3.337148222250107,-5.4557636091494714,-8.534405771794354
2025-12-12 20:45:15.725817,Right,-11.572494420150178,-39.07578400624698,-53.62484401983966,-32.58304065131847,-153.09211417575716,-24.3565489565367,-28.10688742572529,-30.011453943585252
2025-12-12 20:45:15.729860,Right,-8.659816372353816,-30.981061306367337,-45.10647336485272,-29.143490766477044,-179.38715087238234,-19.410666063721465,-19.129424258993026,-26.10574901181377
2025-12-12 20:45:15.732790,Right,5.079035772218049,-13.858180346589506,-28.369887375927647,-13.710517693009933,-195.4403362419107,-6.257589158009637,-1.9354641987060006,-11.405580812400785
2025-12-12 20:45:15.736862,Right,-11.958083587647707,-31.993912131621983,-47.89786559960703,-29.639603784021347,-161.1516070216603,-23.311757581905994,-21.03123195950866,-26.49439371820199
2025-12-12 20:45:15.740863,Right,-42.91576893342062,-63.29382551168601,-78.83646497188238,-60.93966965955133,-132.22130228835158,-50.84861367591168,-52.58103002947246,-55.77865135452612
2025-12-12 20:45:15.745817,Right,-38.29566324341067,-54.611125581952365,-67.1369314599724,-56.35783483307023,-155.39106215460924,-42.963652299684554,-44.11035870904152,-51.63050688023304
2025-12-12 20:45:15.749881,Right,-7.619530060666875,-19.758913390671296,-29.09640149912957,-23.637093869179807,-178.9491583944182,-12.986565751094986,-11.48146065504443,-21.91946255397488
2025-12-12 20:45:15.753834,Right,-5.379040593459649,-17.005111530281283,-24.240889324511954,-17.93500786926961,-147.626299074298,-11.968384463190432,-11.830172174207291,-17.38063889712248
2025-12-12 20:45:15.757920,Right,-33.83784373349408,-44.84493438982645,-49.075568777308945,-43.32388825833732,-105.73884232249111,-37.2515100924511,-40.48699620970092,-40.30967943900487
2025-12-12 20:45:15.761920,Right,-39.65428053474534,-46.36764284030869,-45.95605785098087,-47.35979228638644,-115.28995247377316,-38.449739423531355,-40.792696752683696,-41.92419594060266
2025-12-12 20:45:15.764878,Right,-10.204342981403897,-13.583187903092039,-9.916659004578833,-18.014055058401937,-141.26229817880085,-9.891448907573249,-8.17640744687651,-12.87525953419572
2025-12-12 20:45:15.768942,Right,5.48887305606695,-0.9471682839684945,2.414536319036415,-5.186143056707806,-118.69208889311994,-0.42689063451507536,2.208179827636741,-0.8785563405017456
2025-12-12 20:45:15.773975,Right,-13.473619598404184,-25.501618337821128,-23.89481696209259,-28.952173382935143,-76.09650826273719,-24.026431136874635,-23.650403972544154,-24.062530563947803
2025-12-12 20:45:15.777924,Right,-26.46244541525448,-39.155943483579904,-38.433253330673324,-45.39299885991204,-83.63235641238862,-37.03711401034707,-36.55065493035363,-40.57914394145155
2025-12-12 20:45:15.781991,Right,-12.443236360908486,-21.4343982938517,-22.139123995893897,-31.08553471907362,-122.01527091435855,-21.67297952089939,-18.722296894542524,-28.456571798869845
2025-12-12 20:45:15.786013,Right,-8.831907871306612,-15.666212263964553,-19.979546606311487,-24.815146861779795,-116.48905782325892,-16.73172244075613,-14.73615363364297,-23.490425519124983
2025-12-12 20:45:15.790026,Right,-35.730184913860285,-42.273059989340254,-50.05715219162812,-49.43486639548428,-72.92293659696588,-39.722205103829765,-42.192705400830164,-45.844688551347645
2025-12-12 20:45:15.793013,Right,-52.48218778982846,-56.10003700563175,-64.27982753152173,-64.51065900982576,-63.87724965863163,-50.54115442665716,-54.17056569766464,-57.71762753349867
2025-12-12 20:45:15.797083,Right,-31.36183778499253,-29.860601636184583,-36.73978848957631,-40.685511370607855,-92.2591828686709,-26.43918711153856,-26.37862431870417,-33.75517958704586
2025-12-12 20:45:15.802019,Right,-11.039809164438338,-7.3649075845387415,-14.469401984159049,-16.799358438973286,-87.51046831376152,-7.323748343080297,-5.809939260483588,-11.826106166994578
2025-12-12 20:45:15.806207,Right,-27.622347833646927,-25.02331809588577,-33.61005196470069,-31.25532989117346,-40.41084080180735,-24.571056415974454,-27.314420189633893,-26.643936191834655
2025-12-12 20:45:15.810064,Right,-48.99057695430383,-45.82550526170962,-54.617884537845384,-53.082950719366636,-22.65727523523674,-44.23489855592925,-50.750164263534316,-47.32070321014908
2025-12-12 20:45:15.814113,Right,-34.44063641674438,-28.59219404245232,-36.4953138768833,-40.281717524783744,-53.49846342939418,-30.422735171239765,-35.229764944018825,-34.731034637690755
2025-12-12 20:45:15.818094,Right,-9.472665498724382,-3.9591851574587054,-12.179529455159354,-16.98541986690907,-62.9910817942,-11.091352015719167,-12.944313865880758,-12.768693863108638
2025-12-12 20:45:15.821099,Right,-17.283297251779004,-15.963172476833279,-25.439422762952745,-26.54764579417315,-21.395197236459353,-23.905610574016464,-26.589651458092703,-21.962717003072612
2025-12-12 20:45:15.825057,Right,-38.2162589903528,-38.96355814308117,-48.16904263953256,-49.21941498979504,6.47821286378894,-43.7062046840656,-48.6417940947249,-42.92257249133763
2025-12-12 20:45:15.829097,Right,-27.85526485599985,-25.896605871268548,-33.44318761359318,-38.92099961142958,-17.011202826630324,-28.387602566795977,-33.6269625206769,-32.9492289789996
2025-12-12 20:45:15.834140,Right,-2.4652632867291686,1.8530856990437314,-5.40305332529897,-11.020541886486171,-32.743613972270396,0.6239681306342391,-5.530199159677068,-7.456637023726216
2025-12-12 20:45:15.838219,Right,-10.780314671937958,-7.813091006959439,-16.477377397761302,-16.177959926346375,2.5380627051054034,-5.778432424094717,-15.632106005701644,-13.020464819306653
2025-12-12 20:45:15.842223,Right,-42.95276690486935,-40.758267908066045,-49.732928048637405,-46.84307402288323,33.35797390268999,-36.050844760336986,-47.54458317048193,-40.8053239406654
2025-12-12 20:45:15.845159,Right,-46.36682412934897,-40.87600887311419,-48.28384901883328,-50.0002133552116,9.035292950720759,-39.505396568754804,-46.214956565472676,-41.53189181916241
2025-12-12 20:45:15.849237,Right,-19.430977471041842,-10.677788460699958,-17.49771567418793,-22.60353722848231,-19.39739644083602,-16.374107340532646,-17.038603709253948,-14.386199584841961
2025-12-12 20:45:15.853224,Right,-9.724288217315916,-1.9257649197643332,-10.761719109545083,-12.781412487740454,9.089083273625874,-10.188667515001725,-11.172831845502515,-5.021159564523259
2025-12-12 20:45:15.857286,Right,-23.815653785233735,-17.908874800683407,-29.18647993696868,-28.362271362631873,54.28518799524318,-22.79488920352378,-28.39767798007233,-19.587279048839264
2025-12-12 20:45:15.862228,Right,-19.957666778711427,-12.652298362179863,-24.85897611506516,-26.550583709158673,49.08519756501482,-15.174388328661735,-22.12015001326654,-17.74570428772131
2025-12-12 20:45:15.866233,Right,5.496737399051199,14.698808015215036,1.8174224864851567,-1.447974720667844,20.209590465557994,10.371579492402816,5.64110530864491,4.950693806877098
2025-12-12 20:45:15.869229,Right,5.804016247355321,13.304048501533543,-1.078547942932346,0.36698799371515634,33.11378861842968,7.638486482210283,3.2341521589332842,4.96721413492196
2025-12-12 20:45:15.873295,Right,-26.98087427760038,-21.82619800734392,-36.51743748164881,-30.581126480548846,68.03552946370837,-26.241647251314134,-31.872723801880056,-25.110692824619036
2025-12-12 20:45:15.877233,Right,-39.67358596142731,-32.62700400007088,-44.84017891261101,-41.49087159971168,59.68542026103023,-37.92207808417879,-41.174029520454496,-35.74593181795353
2025-12-12 20:45:15.881354,Right,-10.271676760326955,0.4318352985465026,-8.943332825314428,-9.809289707402058,23.856215717029045,-9.8080220411357,-8.168009062908823,-7.4897220248458325
2025-12-12 20:45:15.885311,Right,12.065811827516882,22.387703792785032,13.273957684727065,14.437770254022325,30.988510201354075,8.947318934686336,11.220798011738225,12.324919197897543
2025-12-12 20:45:15.889337,Right,-6.898371274051897,0.24920311829191633,-9.877203059622843,-4.574615273242671,74.58758872501619,-10.700301625944121,-12.699095575353567,-8.09979980994467
2025-12-12 20:45:15.894330,Right,-29.710934157432348,-22.458038381879305,-31.830786413982423,-28.920691448536672,81.63324782351992,-30.07883679238148,-34.4092405901647,-31.81624037208894
2025-12-12 20:45:15.897378,Right,-19.05452786897513,-8.447387351734506,-15.66435136781729,-19.26949414673072,47.9531479405905,-16.90444432269578,-19.18516568486666,-22.50715753404802
2025-12-12 20:45:15.901294,Right,-2.9864397905112128,8.436382567731926,2.3089958879136248,-3.2255664040603733,46.663068945486884,-1.4537168182359892,-3.0952543287239678,-7.002088716009894
2025-12-12 20:45:15.905366,Right,-16.287548692409473,-7.36372116982966,-13.251973132541025,-16.808997421267122,92.45733829976234,-14.352464718042029,-19.62576552722021,-19.026022121332062
2025-12-12 20:45:15.909361,Right,-32.71946386729542,-24.16762893714622,-28.4848841918174,-33.87358208221485,113.0245810431079,-27.368841447827435,-34.77108358901387,-33.90528433863801
2025-12-12 20:45:15.913429,Right,-15.722732149195508,-4.031373845780763,-5.897951187802391,-16.357950104746124,80.97055138756696,-8.491286366817803,-12.464066251090117,-16.77201197792965
2025-12-12 20:45:15.917393,Right,10.237117583063082,23.243539263305138,22.01963224532301,11.443299370221212,62.23465620874049,14.660813024380332,14.628998287953436,8.667521957821009
2025-12-12 20:45:15.922438,Right,3.632968801262905,13.737827624427155,11.257192190840215,5.864241692532232,92.87524666561512,4.223689978629409,3.6065026450742153,1.8119425838267489
2025-12-12 20:45:15.925431,Right,-16.7877823278468,-8.954590295448725,-11.747623098850454,-15.494754527680925,114.63807793864544,-17.1581206425617,-19.293579969784332,-19.63067347571632
2025-12-12 20:45:15.928457,Right,-7.903795133657695,1.6758825635261019,0.47244010463509767,-7.5761102308788395,87.08900129396352,-7.99249264863829,-8.020529678309686,-12.639285428169387
2025-12-12 20:45:15.933416,Right,13.872704668145161,25.504242362814693,25.652093318760308,15.26614158639859,63.56137084054353,13.667079768485564,15.677039183170564,9.512509844451415
2025-12-12 20:45:15.937484,Right,-0.3586242429446429,10.41206149795471,10.799726770390407,3.5200279946948285,88.93517352174968,2.564702728690463,1.5543848771885678,0.6103141151106684
2025-12-12 20:45:15.941443,Right,-40.17746147393336,-29.61705434502437,-28.13098814125624,-33.76998518077016,113.42001072736457,-28.59940587303936,-33.6325098970774,-31.05899375626541
2025-12-12 20:45:15.945528,Right,-49.41165487388935,-35.195540146843996,-31.081112485495396,-40.4424505210809,86.23154545656871,-29.858158174731216,-33.139347077118146,-34.46373893833879
2025-12-12 20:45:15.950534,Right,-22.645090522295504,-5.021557995718467,0.7842095273081213,-11.394459572326014,53.8409380052035,-3.2572943721170304,-1.7710201102345309,-6.934368156405981
2025-12-12 20:45:15.953533,Right,-9.690206602092076,6.62348297225617,11.85458841293621,1.6939501520173508,76.49044852616498,3.6448848561885825,5.067530074171373,2.9825639601076546
2025-12-12 20:45:15.956545,Right,-23.76918392709922,-10.152049514137616,-5.317862133812014,-15.154233116576506,116.52239375236968,-14.363662049152481,-17.304029985854868,-15.64655596609009
2025-12-12 20:45:15.961513,Right,-24.23907569151197,-9.74532195937718,-3.0541968533452746,-18.908489663896034,106.86883949254116,-14.818594008895161,-19.279211631048383,-20.723064657962823
2025-12-12 20:45:15.965623,Right,-1.0207616945772315,15.524339202351257,24.39907302703068,3.3117093946348177,73.20008456542564,8.11092468224524,5.7523950354316185,-0.43488956236251397
2025-12-12 20:45:15.969588,Right,2.6191236890736036,17.581886247233342,26.54978559227675,8.08035258216114,83.45198333953158,10.38746867372538,8.025010531331645,3.5216909586924885
2025-12-12 20:45:15.973605,Right,-26.364231559513428,-14.465471603372862,-6.153111543600971,-19.57101608200901,120.48943660635268,-17.72225909943154,-22.67864856039523,-23.233618109017698
2025-12-12 20:45:15.977621,Right,-39.95073301980301,-27.171197973751987,-17.8800310875622,-31.98615741825415,115.78906724731496,-28.58738564413943,-33.15036903238979,-36.07628540263249
2025-12-12 20:45:15.981631,Right,-13.975093555774947,2.522776564794185,13.444699706476968,-4.031163804553216,79.4097263909498,-2.0050035491040035,-2.8464278116443893,-11.372179043526558
2025-12-12 20:45:15.984633,Right,6.8969012401939835,24.37095771911845,35.296793163358416,19.02770826019696,81.69866352128156,17.60614356222868,17.615179318563605,9.3583524002388
2025-12-12 20:45:15.988654,Right,-10.879594695514243,4.6661361720834975,14.777813978110316,1.6417254260377376,120.87168751325225,1.0049335552903358,-2.1061264023283,-5.970124920229864
2025-12-12 20:45:15.993644,Right,-31.34267966659536,-15.819238706066244,-5.114606365639702,-20.367504473277222,124.80030588642694,-15.894431317487033,-19.521026249198258,-24.069067984022695
2025-12-12 20:45:15.997700,Right,-18.367881843783834,-0.6427780053236347,11.26708565698209,-8.732048995039804,84.46438986077555,-2.260267676003423,-1.205408504949446,-10.985792770668922
2025-12-12 20:45:16.001692,Right,-2.2216515456384514,15.152674070523062,26.52403410869192,7.246186986743851,70.33547099141288,9.888001831572183,15.04106118630989,4.672378385443153
2025-12-12 20:45:16.005674,Right,-20.249919883201073,-6.455502432818321,3.472864137384022,-11.302136857968435,101.68433359303162,-12.134955936980987,-6.9421320245983225,-12.530304669184261
2025-12-12 20:45:16.008713,Right,-44.494609308712825,-32.61133949441137,-22.149886020360555,-37.38036638905396,113.11159054524614,-37.337132043179736,-31.61505930056228,-36.0290064823821
2025-12-12 20:45:16.012689,Right,-32.5999676165884,-19.495609804664127,-6.899986600059947,-27.255650888630043,79.83351888557081,-26.420169429748057,-16.48860172287641,-25.246052140988468
2025-12-12 20:45:16.016701,Right,-6.664540478668641,6.5703030508339,19.734753771988153,-1.6683865062623227,65.90384961507516,-3.57339506569042,9.57249579067684,-0.4847258490808599
2025-12-12 20:45:16.021745,Right,-12.821055187290767,-1.5470950519738835,10.295924970917895,-7.082455624626164,103.82752878536121,-10.746728036490822,0.6245519737713039,-4.843062869906134
2025-12-12 20:45:16.025745,Right,-37.0547173377272,-24.73891685912895,-13.096159479227254,-29.809423574577522,130.68519511228078,-30.555253653623367,-21.47678575630198,-24.88520095626518
2025-12-12 20:45:16.029799,Right,-33.24054771885858,-15.228188659963052,-1.7442964992390557,-23.147533415540238,102.16571699065389,-21.267686417089863,-9.664424611910363,-17.727265169709426
2025-12-12 20:45:16.033734,Right,-10.069101273133128,12.095500105067913,26.991532963534,3.774713618277019,73.61190522788092,2.8757199990504887,18.66566228377087,7.187771199267445
2025-12-12 20:45:16.036753,Right,-14.176499174238415,6.503196551126166,21.368422803983776,2.304683868384018,97.40437598805875,-2.636356280396285,13.344541100133938,5.3841889209797955
2025-12-12 20:45:16.040842,Right,-41.470181844895706,-23.079218894057703,-7.556204943736702,-24.4422464221243,127.44323566826642,-28.753368613262865,-14.591199168042294,-18.73290716667907
2025-12-12 20:45:16.044843,Right,-43.12360689714842,-22.788300794029055,-5.035724483688227,-26.09808721833906,107.60501680252491,-28.149082551841275,-12.494449452999106,-18.784465024014935
2025-12-12 20:45:16.048860,Right,-15.385010670201154,7.994215389233432,27.109623556621045,2.792804721841094,77.88069781061495,-1.5965145809259411,17.222674464986994,8.260587544948066
2025-12-12 20:45:16.053873,Right,-6.159966813233041,16.663752209995437,34.59701006327623,13.663665905525704,99.30465754194302,4.499657329548427,22.641564600320635,16.60290066386915
2025-12-12 20:45:16.057895,Right,-26.157696177557227,-5.222152141181141,10.914086376706564,-5.939788413546921,138.39816701464588,-15.689948023898978,-0.8823997816234623,-3.7166282587822934
2025-12-12 20:45:16.060863,Right,-30.406467473287194,-8.602437657882547,7.185828849019799,-11.106454925167782,127.97265831552795,-17.887848165863034,-3.324754871413461,-9.472575131099802
2025-12-12 20:45:16.064841,Right,-5.349649030111323,17.67433371430525,33.334260376019756,12.971077312624402,90.51048175207688,7.023616902612048,23.692087404568156,12.835731979890625
2025-12-12 20:45:16.068888,Right,2.0648310516189667,22.323812737406115,36.441982154658035,19.49528092215769,93.82231693240465,12.857332118263002,27.85861553271934,19.223953434113355
2025-12-12 20:45:16.072910,Right,-29.919686405221,-13.86949574522805,-1.2219390171221676,-14.082083714863984,123.37471097710659,-17.348774437723478,-7.636434788455517,-10.767867819351522
2025-12-12 20:45:16.076863,Right,-56.075581043020065,-40.040244107360195,-26.908060962140553,-41.9362261972783,110.85809357088874,-38.83119379269738,-31.157005010854846,-34.58878691776408
2025-12-12 20:45:16.081944,Right,-44.395178561870125,-25.22053057015728,-11.091385796573377,-30.32196575609123,65.16878166928655,-25.076733878546293,-14.569105019774724,-22.357468648599024
2025-12-12 20:45:16.085892,Right,-29.551910421490902,-9.634428249535631,3.7063269815653257,-13.969942179941427,59.5104325102875,-11.757911561464425,0.3536816816276769,-7.127512824083169
2025-12-12 20:45:16.088905,Right,-42.43611169603537,-24.18682196435475,-12.389758205973521,-25.961478201461432,97.00931970382226,-24.953085391183777,-15.08540450775763,-18.25645513504969
2025-12-12 20:45:16.092955,Right,-51.02727790066274,-32.093962955223105,-20.157280259209983,-35.479940451752555,105.05128925648751,-31.236443469981168,-22.612213002394128,-25.85667240793009
2025-12-12 20:45:16.097032,Right,-24.38017810218298,-2.776347806928243,10.246413969626701,-10.570114290560014,69.00624384707771,-4.61009589803507,6.141869668571417,-1.349476575058361
2025-12-12 20:45:16.101004,Right,2.6919186966188136,23.529685453397178,36.06797327744516,14.992551843382898,56.59052383663948,17.879965900159732,29.220452298338387,22.189171133248237
2025-12-12 20:45:16.105016,Right,-10.105154826524085,6.421002038870938,17.58745153563177,0.9163259739016212,89.17378865371575,1.204425038098634,8.768913969681307,7.769927214269046
2025-12-12 20:45:16.108978,Right,-33.31027283291769,-18.44562065923128,-6.441620948977288,-22.88761769786106,101.82755009506945,-21.101429078920773,-16.509115517839746,-15.03732393159953
2025-12-12 20:45:16.114074,Right,-20.421306070806168,-2.928886231922661,12.278888649467262,-8.795489954940422,66.24709252556204,-6.229524165451949,0.24133462278223305,-1.567658639714864
2025-12-12 20:45:16.117049,Right,6.063603159276681,24.65688185590807,42.396064556794954,20.305805468258768,44.874423803266836,18.995548020333445,27.71846833249674,25.74081489317541
2025-12-12 20:45:16.121054,Right,-3.4979196077656525,11.773512591422332,30.31866700190585,12.34379691520735,74.27376727439696,6.950791425517309,13.861647888400512,17.9246450972787
2025-12-12 20:45:16.125067,Right,-32.189971000469086,-19.88555459505733,-0.11748333385548904,-17.315298156243443,96.76916984160198,-22.583946600880154,-17.340546130991243,-9.988703687140514
2025-12-12 20:45:16.129091,Right,-26.479303661802987,-13.547148614721664,8.708970436759046,-13.888551059289966,68.69393431034405,-18.49657773013496,-9.883762974563979,-6.669073102520997
2025-12-12 20:45:16.133090,Right,5.409381329336611,18.407085841354274,42.53271850343663,16.256952205052585,42.478031567443395,8.40761167164601,21.355874048048463,21.31111221172432
2025-12-12 20:45:16.137111,Right,9.011809973730124,18.166222095776902,43.00163095680546,18.690119332070026,68.51944446205744,6.991474696170371,19.271820642803505,22.96723176724663
2025-12-12 20:45:16.142125,Right,-18.18007738273809,-12.654150790034691,13.845999329316328,-9.646928432588538,99.66144660624559,-20.860101904654584,-11.476851734115371,-4.16007644084857
2025-12-12 20:45:16.145116,Right,-26.5332116530044,-20.17984051385065,9.394714503683645,-18.223693802954585,77.40053481017821,-27.2288751786964,-16.899858433312147,-13.279438451375427
2025-12-12 20:45:16.149087,Right,-6.92521398275494,1.502640396640345,32.56297195746083,3.061566328358822,40.37956413408392,-7.295487507091821,6.007668961437048,4.086997585312929
2025-12-12 20:45:16.153217,Right,-2.7565651413533487,4.579311670055176,33.63812024303297,9.540776836296573,53.12523698527366,-3.5180903322116137,8.803365235823094,6.7721605166671
2025-12-12 20:45:16.157228,Right,-22.71199838690154,-17.104668753119768,8.754012407709524,-9.633702938891474,87.77711186814122,-20.92869670395521,-12.170740708464564,-13.23919575736545
2025-12-12 20:45:16.161212,Right,-21.65184150053392,-14.226882042326906,9.827229795871972,-9.378521508928316,78.73216124853934,-16.110841701378376,-7.075041823211905,-12.86032424178211
2025-12-12 20:45:16.165230,Right,11.980330738799239,22.03727656272349,44.63167132142735,23.41661818943976,46.33021652215393,17.77485416177751,30.250830976730867,18.943083288419075
2025-12-12 20:45:16.170219,Right,28.358901118881477,36.75898073805547,56.4865749995588,39.17824633953842,57.82080800193944,31.927185717245266,43.896049215948096,34.601125812540886
2025-12-12 20:45:16.173215,Right,5.605807794454449,9.856077933287452,26.812604688559077,14.816618050662328,99.94416498107603,9.482155438201062,15.923459126560147,12.593720751279761
2025-12-12 20:45:16.176155,Right,-8.279495382432287,-5.328551411581429,11.164083408206352,-1.7514184593364917,102.73057236871682,-1.635418838343412,0.4508923979597057,-2.161829885457337
2025-12-12 20:45:16.181258,Right,19.17863754328573,22.691645553228227,39.92119230111348,23.382283239330718,70.18987264871248,26.34292958658193,26.90222748423116,21.46300233176362
2025-12-12 20:45:16.185241,Right,46.647143870974105,47.09432845754236,63.99674974556365,49.33361517743788,72.34582071527257,51.52725107906349,48.14747933643662,45.07469808594351
2025-12-12 20:45:16.189187,Right,32.46946309989835,26.589486576511263,42.94771974218747,33.542899127873625,112.04295312060276,36.86020960998576,26.28861767129979,29.670980773792053
2025-12-12 20:45:16.193266,Right,5.386729561818356,-4.0372086336410575,13.822392996647977,4.995178465026129,116.02635999178165,12.385571107287745,-1.8415638928015596,2.86343993386663
2025-12-12 20:45:16.197390,Right,7.477269049244569,-1.645688315953521,18.818410016187045,7.248811498065606,69.53807726383093,15.640570546250842,4.073982045874914,4.685309445530947
2025-12-12 20:45:16.201294,Right,19.707181863184815,9.220599614118328,30.401937662149066,21.12210833273548,45.286884012341034,25.541650276129644,16.23131537671918,16.45282179867263
2025-12-12 20:45:16.204296,Right,6.496958339824232,-8.74390301715357,11.154188072619945,8.88173992458428,72.77922961319564,10.951605538908439,-1.5721107917995596,3.5260220372940694
2025-12-12 20:45:16.209259,Right,-10.4879427107644,-28.841218237237626,-9.773998386983294,-8.872598126454022,89.53524975996697,-3.7653891064603613,-20.147328247407586,-13.62254031909356
2025-12-12 20:45:16.214382,Right,7.033545982309079,-10.632039917594739,8.372400922717134,7.5232309653831635,61.31667719696998,15.444869560650432,0.04701956128258189,2.09233834703673
2025-12-12 20:45:16.217315,Right,35.363478603278054,17.663558122010727,35.25018304528203,35.6059118267309,44.253962595394114,41.56493302262902,28.612321564613126,28.860543005645695
2025-12-12 20:45:16.220347,Right,26.549253541829785,5.8820833729705555,20.62732890370353,26.551042581445643,74.67874409630895,30.299437375621892,16.330436067132496,21.083790238255915
2025-12-12 20:45:16.225334,Right,-2.530948200434068,-24.539492178091677,-11.412538591650446,-3.701662481834461,97.28994554918609,2.1825242608274493,-13.265567530170927,-5.90600205770545
2025-12-12 20:45:16.229304,Right,2.341032287244161,-16.70371795041774,-3.250419429251451,0.18560060705311798,68.67455124884145,8.424580844103275,-4.437835630831728,-1.1712893828459983
2025-12-12 20:45:16.233384,Right,35.14031296002577,18.60504578056043,31.93749514186402,33.57049461004448,41.3430830896541,39.33625156128801,29.661739486481224,29.715903778332006
2025-12-12 20:45:16.237381,Right,40.69566475507861,22.10104617883735,33.93794108102702,40.32797365744989,67.84220599313267,42.43542994455902,30.982866438251733,34.59672978037409
2025-12-12 20:45:16.240392,Right,13.950928978276261,-7.79798376713552,3.3992715396707354,13.325948793887392,102.05270358701819,16.392555785178047,0.9723803322129925,8.165134807489878
2025-12-12 20:45:16.244412,Right,5.063326970205026,-16.61897557658085,-4.065789632282758,2.608077467141811,82.6059795152978,8.710866353609163,-6.401363032114318,-2.3440288173039434
2025-12-12 20:45:16.248410,Right,24.757662035202657,3.954399446755815,17.741724481310484,20.492812333280654,44.94179838389391,25.674359254593583,14.11722118237202,14.33657243309932
2025-12-12 20:45:16.253424,Right,27.68792990411248,4.932025052130484,18.25571203051095,22.03422322390952,54.81796543300152,23.827782046090306,13.413510101842917,16.78704584216314
2025-12-12 20:45:16.257392,Right,1.20684479890906,-23.497251861625955,-10.74841697845568,-6.343311957338528,87.42372404702473,-4.4020609178110135,-15.429489178413803,-6.952573791629902
2025-12-12 20:45:16.261482,Right,-9.468208763812527,-31.739996945188068,-18.31294311131478,-19.03581560735529,76.22582128437352,-14.023471351551507,-22.146135652127214,-15.29479109413171
2025-12-12 20:45:16.265494,Right,13.239745482297621,-4.913221123235417,8.584230906248195,3.2070006807653044,38.41566935789888,8.401199549978628,5.680281816705644,7.651711954986695
2025-12-12 20:45:16.269427,Right,24.697511845255576,6.643715059970418,17.760959891047605,15.72220860694415,41.921523757249815,18.245056889798434,16.902910829425934,19.57358264715606
2025-12-12 20:45:16.273482,Right,1.6004851833304201,-19.27234852890433,-11.217895183397104,-6.798904098436196,77.03671418965678,-3.8676676673576367,-8.457960391995016,-1.734626146910955
2025-12-12 20:45:16.278503,Right,-12.387965542212442,-33.35865188530988,-26.6025735581793,-21.4370837434426,74.27417326127761,-14.123723939984302,-20.387115295556782,-14.916066854809856
2025-12-12 20:45:16.282529,Right,12.931969924467921,-5.4237271084703025,0.7458795135403307,3.3476414748361094,34.96051486770739,12.995188955532285,8.620743911284364,9.11239555364864
2025-12-12 20:45:16.286528,Right,36.202641005080295,18.022705701439918,21.97649213532577,26.61116291979033,29.103645396215143,34.07263715884437,30.44814311021804,31.29043240116266
2025-12-12 20:45:16.290531,Right,18.277756113315263,-2.5250670697628266,-1.578234555024892,7.759375952859955,63.811998370452784,13.33201419721081,7.862239058359023,13.849937801116994
2025-12-12 20:45:16.295488,Right,-7.179393668244302,-28.28908088730941,-28.391379373178097,-19.92850464133744,69.00789127397002,-13.334491154492753,-18.196623894758375,-11.766721009893217
2025-12-12 20:45:16.298556,Right,4.382089164137142,-13.956858547208412,-12.88992673005123,-10.062024396114793,28.641014979191823,-3.7725301018854225,-3.6330952935732626,-2.6253681451364628
2025-12-12 20:45:16.301569,Right,28.28172799398999,10.59814583840489,13.048125541079003,14.016608892050954,12.42328863943112,16.512480435235375,20.369631929375828,19.27487575697046
2025-12-12 20:45:16.304575,Right,18.008704811201824,-2.2703225093264336,1.124040955087878,4.955232595792495,47.17792879336048,5.0990596576866665,7.64112406098053,10.44892943009404
2025-12-12 20:45:16.308576,Right,-9.39213178288992,-29.85448309779713,-25.24672382491348,-21.229115115607783,66.78746533612139,-19.042869455032815,-18.21552038094734,-13.919136301991784
2025-12-12 20:45:16.313637,Right,-7.117316986308651,-22.923441280528095,-17.85416623066277,-17.283414269468267,34.35103403610992,-13.749980124638569,-10.68987890311405,-11.021748430452135
2025-12-12 20:45:16.317593,Right,14.493969438894055,3.001726655053062,5.682786853540961,6.694637948413856,9.539866083359811,6.758679799093443,12.277161832621175,8.859208725496956
2025-12-12 20:45:16.320584,Right,10.722044215703136,-0.5199727824824549,-2.0681888261724453,4.411235647989997,36.75194011395797,0.8687376013986068,4.740009214289728,4.278549472020359
2025-12-12 20:45:16.324619,Right,-10.96765013629738,-22.586929591916714,-26.41666548112562,-18.11918419205631,63.36415007361211,-20.00514550741991,-18.408132041147155,-16.685563596056
2025-12-12 20:45:16.328627,Right,-5.093451301287132,-14.605117577947055,-17.725345117330107,-14.304145118477209,39.8067386384937,-12.748896673211675,-9.178056219805399,-10.959433380539394
2025-12-12 20:45:16.332639,Right,23.787446580327014,15.575291595375386,13.131792572120048,13.481280409333522,13.015252212964697,14.323780721495496,21.135512879091095,16.6201792448378
2025-12-12 20:45:16.336601,Right,26.037287309822204,15.17317813660975,11.615900248455091,15.549174635804775,37.79299976560287,13.676196257756601,19.250043109014655,18.500210931071933
2025-12-12 20:45:16.341650,Right,-1.7199605176319892,-15.710669566656861,-20.020065849891125,-13.39896033781315,72.21569188122521,-14.534057265470437,-12.984237396119738,-9.27859307143035
2025-12-12 20:45:16.345673,Right,-9.10123891508374,-22.55963596472793,-25.43012678148034,-23.392077249161048,53.69185236826888,-22.275327017604468,-21.661979761703833,-19.138120007203497
2025-12-12 20:45:16.349683,Right,15.651733241320471,4.150032292227934,3.3201794420451733,-0.7329846413203995,14.506132103444543,-1.4541459315605607,0.8315542958596325,1.685530843105198
2025-12-12 20:45:16.353706,Right,23.543480173670105,12.025413470748163,12.087521165678936,7.375654667948766,21.498618332028855,2.4515948769667375,3.7332537991449044,9.010350442742265
2025-12-12 20:45:16.357651,Right,-5.025324341517262,-15.7690219014803,-14.842259709792415,-18.527195908883186,52.82221141163609,-23.83000199669823,-25.803879518204553,-15.340061863082155
2025-12-12 20:45:16.361729,Right,-23.05564577329278,-28.294930044285138,-25.38698212178133,-32.14562573663261,41.79267253531725,-34.98592514279062,-36.75502846187533,-28.590169009954025
2025-12-12 20:45:16.366730,Right,-2.2985736069131235,-0.8083023109206806,3.431974783747137,-6.430197639483595,4.196383729955414,-10.2954844432561,-8.483004714801154,-5.984142609189803
2025-12-12 20:45:16.370692,Right,16.61784641844133,19.342747366461936,22.608521545279473,15.777155717977621,9.441009924717946,7.936501687348937,10.013454166427039,13.057428183885804
2025-12-12 20:45:16.374707,Right,2.917884037411568,2.117082081949775,3.9403060799913874,1.8520794277528694,50.098182241490576,-6.083418060319673,-8.449723409833894,-0.45625010860703696
2025-12-12 20:45:16.377721,Right,-5.862860652017844,-8.337804674234576,-6.11132904490114,-9.60543566715478,54.939866706263274,-13.324165105872453,-18.07618627437057,-9.957911260736637
2025-12-12 20:45:16.381785,Right,22.552783139697567,21.789106266621275,24.832996817536696,16.884978585479985,21.026949561550282,14.415094768261042,12.473933092684433,16.31899011161977
2025-12-12 20:45:16.387746,Right,49.37291789817391,49.05068503966959,50.61811648151888,43.78433518415932,17.785432369011687,37.2981757877742,37.94596960407668,41.63912249015357
2025-12-12 20:45:16.390815,Right,33.398665405729844,30.893135327496566,29.70157800751349,27.841578420305268,55.71224157200777,18.527244337966295,18.100282268509588,25.612345070560423
2025-12-12 20:45:16.393827,Right,5.907816739767441,2.5960201524612785,0.6363367208268755,-1.3913137348990858,65.05132082180353,-8.670510629031924,-9.449629425930581,-2.906157906467797
2025-12-12 20:45:16.396888,Right,11.51298622734248,9.737424896523407,9.076574917459766,1.935544572170329,24.593217006942723,-3.2294029408249116,-0.7990174650878998,-0.4768774077406306
2025-12-12 20:45:16.401888,Right,27.228632796555758,25.254639190562557,25.036633852469095,16.74112963792504,1.2059774899389595,10.246374269745502,14.761651239944037,13.032977544499772
2025-12-12 20:45:16.404801,Right,11.127728815128648,6.509744382993631,5.283915220925337,1.0729960486496566,27.251469527138397,-6.120230470459319,-3.856236834600324,-1.2466246848143783
2025-12-12 20:45:16.407861,Right,-13.18124061202252,-18.145051436349604,-19.296552786105167,-22.354154065043986,44.168849763664184,-26.633610524439064,-26.138135048780406,-21.61582645306771
2025-12-12 20:45:16.412883,Right,2.7440430760689196,0.7732036057277583,1.5196978280928306,-5.241421680086205,15.347400557657238,-7.6957702921727105,-4.5490232016333145,-3.8227441393310073
2025-12-12 20:45:16.416895,Right,40.80846288013345,39.40444739628856,41.25034637928184,34.07220208465151,-4.635850967024453,28.721500496533736,33.97205180867548,33.39477341631846
2025-12-12 20:45:16.420840,Right,45.13234674488922,39.05992291358416,39.613380138058346,38.38362235751447,25.80548874773376,30.598882483428497,31.74225821003926,36.42241526322732
2025-12-12 20:45:16.424930,Right,19.541751903583645,8.99867840801744,7.493529804431091,10.673501167084396,53.64509819583327,6.424393227922337,0.716884866081287,9.266715578681215
2025-12-12 20:45:16.428953,Right,16.039037075821398,5.992276926328486,2.8953563545201177,4.311063814888257,26.976350778873893,5.555265101155783,-3.2279835650880457,2.460054389433026
2025-12-12 20:45:16.433957,Right,38.506890316071804,30.76187391950043,25.24521084252956,25.059100992588355,-9.135286758260918,26.830270082131392,17.975519143686824,21.276057624172154
2025-12-12 20:45:16.436950,Right,39.87267828817494,31.883762936489802,22.685032990499167,25.533796335819716,4.151826304121641,24.149966790422695,14.14606557585659,21.840361134562045
2025-12-12 20:45:16.441950,Right,14.275428847126022,5.6517491953873105,-6.025327749117423,-1.4178732793861855,31.60731289195246,-4.160045833995355,-14.186649433409052,-1.9872431405101452
2025-12-12 20:45:16.444962,Right,9.893314127471967,3.7259395972596394,-7.786197284793161,-7.058414278169948,11.872139250743203,-10.020357445810077,-14.378487538306103,-5.435892158538081
2025-12-12 20:45:16.450029,Right,38.78478487134271,35.314312849923226,24.05636102888093,22.008561715181713,-26.45462915004464,16.21348749507615,19.67073462487592,22.533719853260664
2025-12-12 20:45:16.454982,Right,52.8104679937278,47.683985092084185,34.114936290628975,36.87554702690613,-17.809185675927438,28.269881799065843,33.544104406037235,36.09554339212218
2025-12-12 20:45:16.457990,Right,30.762134411535953,21.799481829308206,4.79150625047987,14.499825779395906,17.29734504414955,8.687615563263535,9.748150477152052,15.022683522372517
2025-12-12 20:45:16.460931,Right,15.381466441220255,5.798886793798374,-13.056855005524994,-1.9451523776315298,9.781136145975324,-1.7195244488648314,-3.2103396028068687,0.22380239403310043
2025-12-12 20:45:16.464027,Right,32.31962256601764,24.517380203340508,4.918342307362764,15.35655721285184,-29.455677203644882,16.938201399259015,17.085697339699493,16.62653974771206
2025-12-12 20:45:16.468003,Right,42.37760360640095,33.683292183168305,12.430992368836087,27.381878045624035,-30.285952353588073,24.909412974850056,25.669885738653193,26.83537836275059
2025-12-12 20:45:16.473019,Right,17.319597916688508,5.441070613620468,-17.97401440991598,3.6916194967270712,5.629127289910684,-1.3404129156024283,-2.6781116837133823,2.8642729117593717
2025-12-12 20:45:16.477015,Right,-2.6988916629015876,-14.877958324270367,-39.43647734989281,-16.620928707905477,8.697897909369203,-20.762643332137486,-21.751327340320813,-17.97896077632072
2025-12-12 20:45:16.481052,Right,19.062802801880025,9.5588270487915,-15.910493957358995,4.461568451693893,-27.941220734232047,-0.7177246465262215,2.528799542337424,0.005085146978672128
2025-12-12 20:45:16.484057,Right,46.685320713571855,37.405402188876906,9.669554654432432,31.989879984515937,-35.79585298598249,22.661392521834387,27.933161599052823,24.438478872601763
2025-12-12 20:45:16.488049,Right,34.755035172915086,22.407787710762932,-7.7430739394440025,20.019540451186913,0.3059317605366232,9.520721809059978,11.722173852966762,13.047626777048777
2025-12-12 20:45:16.492016,Right,7.8255582631718426,-5.517722206903272,-35.89602059032404,-6.960352606171,13.132002174621448,-13.532089225172967,-13.795049747440999,-11.521125011560912
2025-12-12 20:45:16.496091,Right,11.477293786374503,0.7677635725867731,-28.503956519452913,-2.23196962795555,-21.5709595696826,-6.0061023343423585,-4.144784493208363,-7.164438092847831
2025-12-12 20:45:16.501104,Right,30.021982262434904,20.471191195125357,-9.322746788937366,18.607797188940822,-39.06787610260653,12.585571795729265,16.44669069761585,10.53677759368901
2025-12-12 20:45:16.505069,Right,23.34321342633484,11.167891442952168,-20.95268772761483,13.294383212363755,-5.491483428842912,4.567331460025343,6.098103641467787,3.063049742822784
2025-12-12 20:45:16.509112,Right,7.365396140234225,-6.712452720215879,-40.27830394135526,-4.122078068801784,18.915165651982534,-11.876658990046053,-12.763708882544961,-14.776822137229829
2025-12-12 20:45:16.512062,Right,22.37129898569765,9.8562855642067,-23.555380526140652,7.619200198483668,-9.819988130475394,1.0855336734493903,2.2523648304463677,-3.9958563024244427
2025-12-12 20:45:16.516214,Right,50.23342440669148,38.92761610487105,5.005704750299628,32.762659656715186,-40.77239463845763,24.20198135446026,27.976978491017235,19.981847571652793
2025-12-12 20:45:16.520209,Right,41.33411434416848,28.323679511269802,-7.470647350302897,22.57800074691295,-25.549318867320835,12.582832835710178,14.074110689086183,11.134524338813776
2025-12-12 20:45:16.524207,Right,5.909865704834374,-7.666697985820065,-44.25271012498342,-12.978998479991787,-7.480775404917949,-19.67075892664343,-22.589058069725525,-21.26567480375047
2025-12-12 20:45:16.528216,Right,0.24351840169038041,-9.743976359908629,-44.9521973676965,-17.440352880857972,-35.92776094232613,-19.915827740081113,-23.787926729299215,-24.719927683627702
2025-12-12 20:45:16.533209,Right,28.79718955901626,21.93394212876956,-12.175559939449158,13.203836981831046,-68.6050163926775,10.796795316174212,7.40211508770517,4.183699144283764
2025-12-12 20:45:16.537179,Right,38.16147432416983,28.944780444498974,-6.0260274478496285,23.113222209058222,-48.14930776026449,20.117209375401217,12.890544707161098,13.619944784738436
2025-12-12 20:45:16.540211,Right,12.401000144109275,-1.4180795433385356,-37.28768383050556,-5.3240525130577225,-11.42351983320441,-3.5289182106989756,-17.169854320964987,-12.258439188545253
2025-12-12 20:45:16.544204,Right,-3.027826596160594,-17.60260358206142,-52.638804084090225,-24.32222040326087,-25.210252947244953,-15.4548824517924,-31.135440633793678,-29.12523317222667
2025-12-12 20:45:16.548213,Right,12.150764725953195,-0.2539472873431805,-34.36807215376393,-9.785075886270533,-64.90198893673369,0.5237251534081224,-12.741260925682127,-15.573663959308305
2025-12-12 20:45:16.552154,Right,18.731519255547028,6.329898408201188,-28.589233813865576,-0.8080391726125526,-61.06596807761616,5.765846476828301,-7.258743270152081,-8.342427570864402
2025-12-12 20:45:16.556239,Right,-2.6391304287426465,-16.98527559754075,-52.87598244540641,-20.163685159228407,-27.391467748941977,-15.12845219278097,-31.162751472688797,-27.29943924263398
2025-12-12 20:45:16.561229,Right,-11.601351071250974,-25.82692704996407,-60.8493308908146,-29.643049097033327,-32.92223475429,-22.204938526966544,-38.729267918064124,-35.524004597307794
