timestamp,label,FC3,C3,CP3,Cz,FCz,FC4,C4,CP4
2025-12-12 20:46:12.537156,Right,1765.6359058342903,1970.86490391579,1997.8976782047482,1851.625763477986,1632.6317197741976,1417.6578324262268,1818.35573475626,2095.559847930561
2025-12-12 20:46:12.554161,Right,9509.876437714593,10613.294913371788,10757.401307770397,9970.537309766889,8793.173294016722,7633.7748537943435,9790.354693309897,11284.683160297542
2025-12-12 20:46:12.557164,Right,21795.471777992745,24316.501762010586,24640.8391112596,22840.956917234405,20147.420332442583,17488.853278322484,22424.71073066156,25853.57101694045
2025-12-12 20:46:12.561230,Right,27278.81278801663,30413.539016358216,30804.310676260924,28559.937960421215,25189.80574234629,21873.153571345738,28032.150408163943,32330.470086950307
2025-12-12 20:46:12.565247,Right,18548.25973957849,20637.819471553914,20873.56174241998,19363.767977831834,17056.968016348263,14845.232769163915,18993.173689554293,21922.905790571684
2025-12-12 20:46:12.568256,Right,2289.030018349251,2465.189789551703,2437.3041757819155,2283.4764915122796,1962.854038781632,1782.2275270967948,2214.687564687425,2584.7439939639444
2025-12-12 20:46:12.572256,Right,-9965.750319531246,-11221.742959372146,-11440.00634214349,-10573.827661965857,-9374.070802436472,-8058.458148916659,-10416.34202659785,-11974.31955225169
2025-12-12 20:46:12.576290,Right,-13087.490370921616,-14697.96173945471,-14956.106222953298,-13833.764598494454,-12212.997449297342,-10564.191098908952,-13620.46692911064,-15662.636511871708
2025-12-12 20:46:12.580288,Right,-9365.69657731743,-10526.446199303551,-10713.742195045226,-9910.222161273996,-8733.99303544627,-7570.666963710333,-9762.824849553406,-11215.707137978286
2025-12-12 20:46:12.585306,Right,-3999.3349595717737,-4521.486340127536,-4613.424287815869,-4266.034032674856,-3776.251841841964,-3251.1634036353207,-4210.887911187136,-4826.2778215867
2025-12-12 20:46:12.589302,Right,-1061.96548112866,-1236.110333431745,-1275.6810260501807,-1176.2329734558589,-1067.9626223844825,-884.5123576624319,-1172.578956768557,-1332.6646345430054
2025-12-12 20:46:12.593338,Right,-1677.4303243259783,-1921.0164368918631,-1967.898288748227,-1816.6675050529884,-1617.9876799876802,-1378.2565361276502,-1803.9999320607749,-2057.9221569327638
2025-12-12 20:46:12.596360,Right,-4134.734297056915,-4659.696901632124,-4743.08382365189,-4388.987844650168,-3873.7072593872435,-3351.0714392840746,-4330.369130074396,-4967.090628415463
2025-12-12 20:46:12.600357,Right,-5698.4218122652965,-6398.063638428459,-6503.45487349038,-6022.213347759447,-5330.604659550241,-4599.125604056637,-5929.045225631911,-6818.14917872462
2025-12-12 20:46:12.604366,Right,-5061.056595118716,-5680.178292411147,-5774.849067787756,-5345.358746857266,-4747.952642441844,-4078.5243815439753,-5260.78055956657,-6058.19997255702
2025-12-12 20:46:12.608382,Right,-3310.8247541688615,-3721.584628644283,-3789.967201785301,-3501.5863261967897,-3104.523237526184,-2671.3399210084463,-3451.4429428905714,-3972.027375756181
2025-12-12 20:46:12.613395,Right,-2417.5032303394983,-2719.7677291367436,-2773.966797304107,-2558.77910648589,-2254.9054990276927,-1954.7029803713085,-2525.027415404329,-2899.862277370761
2025-12-12 20:46:12.617427,Right,-2973.528526684735,-3337.0165913514793,-3397.045822789776,-3138.3154370214324,-2780.818621729035,-2395.681520078797,-3088.5656846907223,-3554.820037779631
2025-12-12 20:46:12.621426,Right,-3789.1421832555206,-4246.883426313754,-4316.722875113483,-3990.376986512216,-3550.7582959203282,-3042.4875362456078,-3922.1760248744395,-4524.601541897282
2025-12-12 20:46:12.624443,Right,-3612.446301506483,-4049.813515988528,-4115.787004573271,-3800.5970863514813,-3365.509831995936,-2898.996063806233,-3739.6834484516876,-4311.950001288322
2025-12-12 20:46:12.628459,Right,-2668.8723331934307,-2993.9004882813897,-3044.1438486521365,-2806.2180047376314,-2459.2277645048453,-2143.7908734788653,-2766.6956838421756,-3181.126396129257
2025-12-12 20:46:12.632481,Right,-2158.040261013084,-2419.130833086674,-2458.881435581483,-2266.6030846282374,-1989.4400149742141,-1730.6070765807526,-2233.5293086192105,-2566.1300365638454
2025-12-12 20:46:12.636441,Right,-2572.132610809058,-2878.8189402702264,-2922.469349687104,-2697.423163673724,-2394.572057222482,-2055.723484376911,-2652.5142287752824,-3056.4719918338815
2025-12-12 20:46:12.641496,Right,-3105.7601172510767,-3474.0578440827085,-3524.804253365146,-3252.6305990546243,-2878.401093732333,-2482.0187155599706,-3199.9931294776034,-3687.8701549554244
2025-12-12 20:46:12.645512,Right,-2830.98406989465,-3165.576382945059,-3210.5163197298534,-2959.449576201616,-2589.827446832438,-2264.6663896448445,-2915.982178642298,-3353.4807989671826
2025-12-12 20:46:12.649524,Right,-1964.6666177200386,-2195.4200261267833,-2223.6202314329566,-2047.5835105462465,-1781.102997166803,-1568.396322934772,-2018.2771137825912,-2319.3803486099932
2025-12-12 20:46:12.652536,Right,-1533.135194820352,-1713.0408224448329,-1731.4831316685304,-1594.2336119174724,-1403.5440502746496,-1215.6818480739603,-1568.0712320229504,-1810.8921444887528
2025-12-12 20:46:12.656542,Right,-1952.2311234021327,-2182.7344465509523,-2206.769794385298,-2033.2696428409545,-1792.3694859632524,-1549.4875753624365,-1999.5071811439702,-2312.711796934018
2025-12-12 20:46:12.660560,Right,-2477.3907533860765,-2768.3104895582655,-2799.749881866155,-2581.3045486657647,-2249.654362970148,-1974.8585611830931,-2541.2349616716383,-2929.961278437404
2025-12-12 20:46:12.664521,Right,-2247.4597286302596,-2506.2730162596563,-2531.0286677284166,-2335.301353661809,-2025.2220006106654,-1791.6712122765603,-2298.584107124014,-2645.226682682289
2025-12-12 20:46:12.668589,Right,-1461.6513375327922,-1623.18139824213,-1632.0216770666884,-1506.0136909257853,-1318.6921431694645,-1155.8361202775268,-1480.0128317581257,-1706.3890023787972
2025-12-12 20:46:12.673545,Right,-1073.477061479236,-1187.1312629590975,-1188.9972139721503,-1094.7937155904947,-970.2413185031619,-841.0768327749101,-1077.0650156274205,-1244.824351470219
2025-12-12 20:46:12.676598,Right,-1458.1611107651843,-1615.351062419475,-1624.3247482993174,-1495.819841183722,-1308.2582742039813,-1153.6168705243617,-1476.0122245759703,-1698.6393439926906
2025-12-12 20:46:12.680590,Right,-1921.498023616965,-2130.7216038540937,-2146.959147557267,-1981.5681135305203,-1728.6169398443308,-1528.6378981525777,-1953.354989750078,-2245.654192408663
2025-12-12 20:46:12.684598,Right,-1698.886462761322,-1881.2592549625551,-1893.3123619463295,-1749.7831090427935,-1543.9475357037736,-1346.7257211438846,-1720.067425494315,-1984.6782052664785
2025-12-12 20:46:12.688607,Right,-1001.530405177502,-1103.9034752369625,-1106.5773257078836,-1020.0060479087988,-911.7889740110841,-784.3034309162758,-1000.226352589787,-1162.1592454630882
2025-12-12 20:46:12.692620,Right,-668.9734489411348,-732.7939146459103,-733.59041653038,-670.7151943481294,-584.1172914054478,-521.3872424304718,-659.2338718280662,-764.8069258000469
2025-12-12 20:46:12.696615,Right,-992.024685303797,-1089.7674590519164,-1096.863989515463,-1006.9062740792288,-865.5024651875719,-784.5861644425895,-989.4504539731424,-1139.646912345197
2025-12-12 20:46:12.701665,Right,-1369.6337149444735,-1506.3567195817595,-1517.3862579616252,-1399.8392983304802,-1229.4044419254642,-1083.6160001874086,-1370.528308975161,-1583.9261110861553
2025-12-12 20:46:12.704595,Right,-1192.2773249211023,-1306.2095458285185,-1312.2982528610155,-1211.7557526592864,-1080.3558997954242,-934.6728503929917,-1182.8537784938235,-1375.4589232750004
2025-12-12 20:46:12.707669,Right,-646.4339337691199,-697.0483943902655,-694.0590570149943,-639.0784101114841,-558.608691914822,-496.590093642124,-622.373345187516,-727.1266814571572
2025-12-12 20:46:12.712672,Right,-378.5979023077525,-397.4737925073132,-389.722228347091,-360.0040535655571,-291.7085531981429,-285.32552145654336,-348.3138995381887,-404.9509688599501
2025-12-12 20:46:12.716672,Right,-599.3032252780977,-642.4649330318207,-636.5543540866347,-594.156144100125,-511.6744822569308,-461.5763602592051,-572.6911063878215,-666.5730611119652
2025-12-12 20:46:12.720703,Right,-868.5825181154651,-943.0940946181654,-940.4147734469734,-878.0413232645951,-786.5108108235872,-674.7499563777237,-847.3468571492122,-990.6437590392306
2025-12-12 20:46:12.724720,Right,-745.2026691352366,-806.1105329636484,-801.7242900955025,-748.104759503738,-666.3274760139757,-579.2112252358347,-722.0034396833507,-844.2495730600203
2025-12-12 20:46:12.728681,Right,-345.32438011997147,-358.296436956909,-346.7987217117916,-327.60178450512467,-277.46813120204024,-265.8592148734024,-311.01698583725374,-362.6554177531507
2025-12-12 20:46:12.732762,Right,-120.0796387817245,-103.85290345415706,-85.98151462135138,-91.39302045170916,-81.350330594345,-86.58350382465869,-74.30448043439537,-91.30641067627585
2025-12-12 20:46:12.735703,Right,-249.4789227967267,-247.4068311243318,-229.51591963501414,-227.98693900124636,-230.31834833009634,-185.6581317629316,-202.73906738799997,-249.40563616895815
2025-12-12 20:46:12.740766,Right,-456.42288056382677,-479.7283220355166,-465.8343931932468,-444.9252612940618,-419.9770384133444,-350.356484254502,-416.9398886169074,-499.16771236778004
2025-12-12 20:46:12.744776,Right,-404.7036915078643,-421.341350723058,-407.79622397001367,-388.68874642264564,-345.66196087328717,-312.78983952564886,-365.94554859405616,-433.7520499396487
2025-12-12 20:46:12.748732,Right,-119.10424813249847,-98.61080323450733,-79.27730237331707,-86.2751732923789,-79.333262845641,-84.7853205758438,-68.40392473508837,-89.02201904181857
2025-12-12 20:46:12.752805,Right,83.71503618688439,131.3992616891337,156.434833537729,129.05710324458778,84.70644075862947,81.05587010845193,146.10410049179336,151.48283293040004
2025-12-12 20:46:12.756803,Right,18.937519586645067,60.6250970607216,85.66024271806236,63.49376388124074,23.03567327914061,28.10536180555937,80.30415250867372,73.8069001895783
2025-12-12 20:46:12.759874,Right,-143.76111873288755,-118.80822616646765,-96.28275239924551,-105.09492439994938,-100.593319817679,-109.19205948480521,-88.46555621456355,-113.523035924125
2025-12-12 20:46:12.763893,Right,-127.53715949403704,-96.89371994134854,-73.05476262388402,-87.43696615379304,-76.94159661012236,-99.19046391753363,-68.50165920004656,-88.24699467606843
2025-12-12 20:46:12.767875,Right,83.96659267184441,141.08621932874667,169.38707902787428,133.29331612598617,96.37957790039945,75.23875869238691,154.19166841579136,159.69295011811482
2025-12-12 20:46:12.772872,Right,252.0003540347825,327.01682719275414,356.9331676607835,308.41693708217645,243.85631850802747,213.95606359062367,326.05997410164855,351.8460650014604
2025-12-12 20:46:12.776905,Right,225.13288601905515,295.85424086498824,323.0779481840982,280.98701981837803,244.3658651593505,190.0034605392575,293.3156690363139,319.7514591952058
2025-12-12 20:46:12.780883,Right,125.14359083087766,186.75288099438876,211.638061133498,178.44966978146476,168.14133596349387,108.22085191710357,190.5583434841019,206.49567618619403
2025-12-12 20:46:12.784891,Right,143.32711043616655,210.38638314339187,236.10170570359332,199.749514800591,167.48244587199224,128.02262046769556,215.03740788671712,228.89162375480373
2025-12-12 20:46:12.788861,Right,278.6233936365534,361.68152648958494,389.09276091981155,342.9188927947034,279.7501555775598,242.0697244412804,356.7293339815078,385.632962337404
2025-12-12 20:46:12.791904,Right,382.68226426081674,476.4081663249235,504.78629375963646,452.7197394733812,396.78132701999857,324.49004797545786,460.7551638884761,510.1148976816621
2025-12-12 20:46:12.795972,Right,387.35611894447356,481.9060965161334,512.8011497705011,458.0912867780571,421.5115168129705,326.27615572561626,464.8952033815294,522.5384291606169
2025-12-12 20:46:12.800925,Right,359.97127801796887,452.72522801576997,488.7085961714911,429.8823436712555,384.04427130156546,309.0581145928154,441.45630155759864,494.08834842950455
2025-12-12 20:46:12.804941,Right,364.6592517156678,457.80255647504237,498.0390328776848,435.6670036604337,373.89615751150995,319.26925409831165,448.94586137408623,498.67129418445984
2025-12-12 20:46:12.808952,Right,394.81807534446125,490.27262224280275,531.2340111393714,468.05205746841966,419.35894672980066,342.79088157013757,476.1719119238842,534.8867190177261
2025-12-12 20:46:12.812971,Right,441.5223916172108,542.1866098483442,582.4235003840295,516.1283537922718,484.19516411650693,375.83052703211433,519.9250539333443,592.2123132492998
2025-12-12 20:46:12.815999,Right,513.881611294375,622.5906218246091,663.0647067821119,588.7184368237213,538.1863556096796,434.6714167596947,594.0151041013305,673.4700081893243
2025-12-12 20:46:12.819951,Right,574.8399699488655,687.7646948455949,727.6794205420883,648.3972743817721,571.3981742421165,487.4601729380083,655.0410562040051,734.5738178278552
2025-12-12 20:46:12.824029,Right,562.3917326110532,670.0300530147506,706.5931991182733,632.0393805532949,570.2848996428074,475.66973429036443,635.0615240167244,712.7515628655674
2025-12-12 20:46:12.828064,Right,505.38107015937567,605.2059762121644,638.2063954510959,569.9597944739508,544.061324963579,424.0552712486824,569.6898114368669,646.3750623419182
2025-12-12 20:46:12.833055,Right,516.9964320243453,618.9803951426293,651.5413966713822,579.4793411754654,551.1074357305188,432.6687891050824,580.8059077442158,660.0431607223
2025-12-12 20:46:12.837079,Right,624.8221785529167,737.78687002277,771.3380998856155,688.7531071853591,627.1907764225616,522.8482177840197,691.1165537342313,779.605504862091
2025-12-12 20:46:12.840119,Right,704.4222796130343,821.9001200221246,854.0561705673463,767.827935150126,704.0263436803361,584.8436568840407,765.8782821954228,864.6525286249234
2025-12-12 20:46:12.844096,Right,656.2098517176346,764.3074440695345,793.2766943788156,713.1643813733826,685.4459119068342,538.1882423225325,707.797275417659,804.9931039125076
2025-12-12 20:46:12.848085,Right,566.3468768026214,663.4424314339994,691.240723378316,615.6830787046347,604.1224555197987,462.6753346226178,614.3585980543285,698.5722142561572
2025-12-12 20:46:12.852100,Right,589.3492540193838,689.1762919278117,718.4129660153994,637.950293578906,600.7454012485687,485.73649597814074,642.2257632787805,722.4933088234393
2025-12-12 20:46:12.856079,Right,719.726726308174,833.6032723844983,863.6441893782467,774.6846727230586,716.375334285025,594.0616238099174,777.4006259542657,874.9088281247532
2025-12-12 20:46:12.860090,Right,797.012671192002,919.8144350798102,948.3442944564158,857.2526795956073,810.2533335220651,654.4705872539198,855.2907837065868,971.8009261534316
2025-12-12 20:46:12.865127,Right,733.0212274584919,850.3781888658414,876.8058330437634,791.9579973830841,755.6279013572494,603.4700299382675,791.803742757882,903.1349986131536
2025-12-12 20:46:12.869145,Right,627.9133692336036,733.7142486246303,758.9906543294201,682.8932714866241,632.2623363972525,525.1135676568374,688.4589496511035,778.9006759282202
2025-12-12 20:46:12.872162,Right,626.2443492935272,728.8603017430287,753.708066232386,681.4962728804676,618.1898848671699,527.0594006009051,685.8713060497539,773.3734160936438
2025-12-12 20:46:12.876159,Right,731.029555813293,842.1145995387342,867.3000742525328,790.8005237871548,734.9603957986692,606.1393865960417,787.1715324462857,898.0519971740432
2025-12-12 20:46:12.880199,Right,813.8282556945924,933.2999882770237,959.7147669101832,875.7468011856545,821.4042866859818,666.9996058202814,868.4822324148845,997.7292153992457
2025-12-12 20:46:12.884174,Right,779.621579309809,894.6421043934533,921.2702800781699,837.1136631399859,765.3431203048676,640.650911223318,833.6555667381035,951.3148158213589
2025-12-12 20:46:12.888195,Right,677.8380203323904,778.6506159205455,802.6426712600514,728.2440414967714,652.478816172923,560.8608480496332,726.5826025550487,820.948488656315
2025-12-12 20:46:12.893215,Right,642.4088867218234,736.645337095717,757.3883132319897,690.5033049372723,636.8586139519466,528.0558023353806,684.0547520969994,777.1474639425287
2025-12-12 20:46:12.896207,Right,729.8313063845271,834.6109612217406,855.3403916758252,782.1506583947921,734.5638656985248,593.3444515431765,772.153826013091,886.8625060142949
2025-12-12 20:46:12.900238,Right,837.5064766618889,956.1977926787222,979.2002826032694,894.1277020075358,815.0912622604519,682.4884602708044,887.3847035792423,1016.5141931851394
2025-12-12 20:46:12.904251,Right,821.1602126755752,936.7117373608053,959.4062792479526,875.2471950417385,776.1543733951403,674.6254517157795,872.6177492322167,991.5040702911792
2025-12-12 20:46:12.908204,Right,691.3387659383006,789.0413466984173,807.9284228543984,737.5672966196435,668.0496703898534,568.2824590796372,734.0656696094666,833.8280548892217
2025-12-12 20:46:12.912274,Right,620.4470082157059,709.5688827259,725.8862888568547,661.7862856358988,625.4741576883243,504.02361895143986,656.2081965523539,752.339178482187
2025-12-12 20:46:12.916305,Right,711.0519012541045,812.4247323462041,829.9365627703955,754.6446226013359,698.9090270374436,573.497842060402,750.164589168271,860.8164818759542
2025-12-12 20:46:12.921249,Right,836.2216947303386,951.9045346493367,970.3700961135328,883.3442714632256,787.6206417483045,674.5411371869268,879.7563730878755,1004.3400983299362
2025-12-12 20:46:12.924319,Right,809.135280744289,918.9609696671832,934.3285089838319,853.1920629661763,763.499525478459,649.8179744901136,847.3097985974746,968.6185075396206
2025-12-12 20:46:12.928367,Right,659.7108451118693,750.5761355502764,761.6705699405866,695.7706808021758,644.0295222976711,524.4920019542333,688.7969562670914,793.5438105032081
2025-12-12 20:46:12.932336,Right,600.2199798993533,684.5082222502679,695.0482488729758,632.5634986293735,582.4070672333473,476.9113528340822,628.4634980123956,723.3422188875265
2025-12-12 20:46:12.936342,Right,712.6924935037969,808.9358601069544,821.7914420833113,748.8566746470751,661.470928685274,571.8353269349318,745.9151703630341,850.167370025767
2025-12-12 20:46:12.940383,Right,826.1120429957518,931.9189828113886,945.3077894269954,865.7949693908449,766.7172052924288,662.5725769811543,858.6675729030976,979.121865544701
2025-12-12 20:46:12.944396,Right,771.5066722662887,868.1012934239116,879.2943283588393,806.6693772900617,737.9727515388513,612.8047983198194,796.9491270353319,916.7093026291113
2025-12-12 20:46:12.949343,Right,625.9549666807288,704.8420581308892,714.3427989730844,651.9678782686824,600.3569220104255,494.1151908800239,647.2456301212078,747.3344874128234
2025-12-12 20:46:12.952339,Right,585.59945693193,658.1471646460705,667.8833456386346,607.2416058648378,533.6096127745695,466.44609397347085,608.1847387177404,695.3868452325696
2025-12-12 20:46:12.956391,Right,680.0590988991316,759.9565586879617,769.8656931110891,704.3364599627675,613.0667952419026,544.1493539705407,702.4077944633318,801.3821652523475
2025-12-12 20:46:12.960399,Right,752.7750792234438,838.9715496846475,847.8412637156434,779.5909523084993,703.3588159864303,597.3044072986813,770.705254145083,888.2165100033162
2025-12-12 20:46:12.964415,Right,699.6523172352463,780.9035637001507,788.7606714530848,723.0855619458016,661.4641515130643,550.8911411674926,713.997248816886,828.0675112862373
2025-12-12 20:46:12.968431,Right,596.84540246916,667.2550901063951,674.7380637909519,613.790635797428,541.0650068804389,471.5835777983302,610.0304161356762,702.0014830417931
2025-12-12 20:46:12.972379,Right,569.2094599180855,634.1381931650685,641.0081711001694,582.9917220810894,500.84924432553817,452.39097394398414,579.4433268256253,660.9058961374685
2025-12-12 20:46:12.977440,Right,628.2825828165514,696.5910926063079,702.7273881620495,643.6095440343488,573.6047187017975,496.9124644168187,633.9778342716163,727.8374562661629
2025-12-12 20:46:12.980448,Right,685.8127177983988,759.472861729213,765.8102345298976,703.0592578620417,638.6079949093983,541.3857062628958,691.1132225926267,797.1697643613443
2025-12-12 20:46:12.983462,Right,672.3479085427243,744.4191258884966,751.0706918410724,688.2948442425113,606.1898278482258,536.6497566781472,681.3665650453186,778.9299113020534
2025-12-12 20:46:12.988460,Right,601.1831376409391,664.2740507322596,669.4277457208373,614.0151058101328,525.4490972930798,486.497816513991,611.1211138168583,691.2983414579649
2025-12-12 20:46:12.992479,Right,540.6266530343564,596.9910115345847,599.7560423172545,552.4071733303135,489.2588698719628,437.03772091132123,547.7223470599856,624.4534178300528
2025-12-12 20:46:12.996493,Right,543.1725749867037,603.1936562854098,605.7154246474383,557.1632256096927,511.32992926007137,434.7813061175402,550.8253835791256,638.0182297945721
2025-12-12 20:46:13.000449,Right,587.2397937264759,655.7437383888755,659.9056942055468,603.6123777048197,535.4582410576986,470.9821843005484,599.7307756214868,693.1670260474784
2025-12-12 20:46:13.004517,Right,595.1452606522944,663.51681377145,667.2528766815085,610.1850500261644,519.0824020511936,480.3169952951139,607.2652020751266,694.8745330941165
2025-12-12 20:46:13.008525,Right,532.8649852579692,589.9792858137516,590.0796347558498,542.9819361534901,471.5089429541258,427.4953145630425,535.724607198732,614.2365989113459
2025-12-12 20:46:13.011537,Right,466.998934557545,514.587746268604,511.91611441911664,473.12848478381056,432.0877291770885,368.95358631398994,461.9148274923209,536.4501402407186
2025-12-12 20:46:13.015545,Right,474.799269566196,524.2519827825017,522.4512613376137,481.317672674777,429.9841486456571,375.53728423547,471.04405809124,545.9830966673326
2025-12-12 20:46:13.020530,Right,524.4004590697587,579.6034439140931,579.2167289794888,533.3970609771786,452.33731445716694,419.69508718454745,524.1643506330438,600.4867695607245
2025-12-12 20:46:13.024590,Right,518.3181238011457,570.8801543173613,568.7687646091217,526.9880013104994,452.1047912304057,414.0970003361581,514.9650542031741,591.243419748731
2025-12-12 20:46:13.028573,Right,444.79968153347727,487.8902734857984,482.6487986803986,449.70625766785815,406.2876563317841,350.7482410296798,436.6522819327656,508.5127730665263
2025-12-12 20:46:13.032692,Right,396.1771684923442,434.0625073866686,428.0237234287197,398.1680449346313,355.6444889594568,313.78360365645494,390.556159940199,454.2226326059317
2025-12-12 20:46:13.035642,Right,422.3648718626937,461.90425984340254,456.89472045295406,425.0524345935555,353.8653453346342,343.02868803509045,422.9204806047492,482.05006419029087
2025-12-12 20:46:13.039615,Right,457.11788962152787,497.15896127873566,491.98137026443146,461.59606264159083,386.63712722610217,373.7773350130301,457.49645258672535,520.4613186827628
2025-12-12 20:46:13.043629,Right,430.62230441730935,465.9122808697866,459.52990055654664,434.5403022050159,388.1765522819478,346.5529739308404,425.2838229201734,493.09808214532677
2025-12-12 20:46:13.048607,Right,374.6951728663407,405.29882869462017,399.12828311685007,376.53572954714764,339.66596891498193,296.76648733380716,366.88206877943594,431.04428776097484
2025-12-12 20:46:13.052662,Right,355.48794472240843,385.7159220898757,380.718126099091,356.920800908003,295.80880573391914,283.14647680183407,349.0203710498754,404.83853841596283
2025-12-12 20:46:13.056695,Right,366.1999637900153,397.1924869209761,391.71401475404855,369.3675856300397,297.2320194231579,293.5045341051882,357.96786141523626,412.06837086600717
2025-12-12 20:46:13.059689,Right,358.5654613005463,388.22721842548344,381.0519289955264,363.3060576606076,312.6643967968412,284.5957059881184,345.88381633372046,405.12230402673595
2025-12-12 20:46:13.063708,Right,333.4078964367509,361.65901748416945,354.48673635872547,338.25742438295856,299.01999203593004,263.39681505056797,321.14276842959225,381.6815135438228
2025-12-12 20:46:13.067668,Right,323.27744758839253,351.1125024793437,345.61274881113786,327.29271871305536,268.04325799364597,259.886350471701,315.7936453947332,370.4571256604977
2025-12-12 20:46:13.071745,Right,318.514862307813,343.24263091455214,338.10289120848756,320.7902341891313,251.5715885781683,258.7775944843888,310.89649976126384,360.9010118349688
2025-12-12 20:46:13.075753,Right,288.00784051953815,305.8048086860217,299.25194436730817,287.1865487297764,243.07914385391632,229.48366651986726,273.5925467371708,324.64387026487384
2025-12-12 20:46:13.080771,Right,250.7415272492217,263.37569578608964,256.42234152404126,246.74352200434078,221.52909428876592,194.22597971378127,231.96840996935498,283.9150005845586
2025-12-12 20:46:13.084736,Right,249.8955146202352,262.84633111418225,257.1239595914958,244.75181033823173,199.69397428416414,194.6910056915367,232.97330095560756,281.98394691746216
2025-12-12 20:46:13.087743,Right,268.4705821640091,282.37664096045773,276.6281895247521,263.71253990975674,197.13680558564374,211.5205924762413,251.94321335630957,298.8098945390666
2025-12-12 20:46:13.091858,Right,248.4639027522644,258.4779929985525,250.45258012937848,242.90930819429923,191.89841925626388,190.67803811607882,226.59877159667667,273.8659477852052
2025-12-12 20:46:13.095880,Right,193.58823215519078,198.00847978168167,188.40362609550357,185.43247552099638,156.0485628747847,140.44148035702528,167.71500871278113,211.76898332161363
2025-12-12 20:46:13.099872,Right,172.8997871229658,176.3422473660903,167.53633463860024,162.8429887171369,118.22189895738848,125.19809928000905,149.4135863474803,185.3258396500023
2025-12-12 20:46:13.103873,Right,207.2894596735714,213.21428631502204,205.09784999547992,197.6056497885147,126.20673116104444,158.2276765141869,186.46901122218696,218.66657073481474
2025-12-12 20:46:13.108871,Right,230.9124179595965,236.20588530343957,226.64148101815954,222.00365489849355,159.7761054657749,177.35747504082974,207.63476633059327,244.79896844457835
2025-12-12 20:46:13.112890,Right,195.0412072300678,194.7398322179797,183.6578706751461,184.9978676949395,151.048811237677,145.1830461685895,169.6792183459038,209.66922295989934
2025-12-12 20:46:13.115895,Right,139.40674590144772,132.8219903781428,122.49181531660724,127.10076730430592,91.96107643854339,102.20051598577993,118.11405840981752,149.8645796464989
2025-12-12 20:46:13.119892,Right,121.02881026553223,110.67446884681704,101.82001024583587,107.65982182166772,50.532593251613434,92.70676219026791,104.62365168204997,126.24813259934308
2025-12-12 20:46:13.123898,Right,131.29554535116768,119.10156196751632,109.94225090119289,118.2463638286572,64.61609763465822,100.60257255315082,113.41487590858014,135.9595791408792
2025-12-12 20:46:13.127906,Right,127.68691096722614,114.56791190447984,104.18831300921738,114.42668894148665,85.78069742966909,92.21076676971279,105.62827081925934,135.06319922045805
2025-12-12 20:46:13.131931,Right,101.5595194430789,87.66232689382741,77.19609050371218,86.4125790973194,59.71470487600891,70.08152677555336,79.51562285941327,107.08203317894368
2025-12-12 20:46:13.135956,Right,71.54946390318219,54.99962359899655,44.6778470488498,53.53066523862071,6.821430677024182,49.90899137541419,50.603092433011625,67.7384870047681
2025-12-12 20:46:13.140973,Right,47.05724592652405,25.642514724459033,13.887542848940939,26.41864673490636,-18.34040170139633,29.649224099237472,21.460715882189106,33.94789676996879
2025-12-12 20:46:13.143978,Right,35.35213768092217,10.861434075806756,-2.4912512246519327,12.911856549559161,-7.270047766738571,12.96002385742031,2.2598809946211986,20.511327315471135
2025-12-12 20:46:13.147942,Right,48.115763600333594,25.046676409430802,12.24775672936812,24.3159027066431,5.420922187098768,18.484304110403173,11.957655970123596,34.86904608318582
2025-12-12 20:46:13.152006,Right,68.41793619078817,46.64311779505806,35.00073089019861,42.610258807835635,-1.7694865610392299,36.4596060529002,31.33572068536887,49.72069320373703
2025-12-12 20:46:13.156018,Right,53.38929169299081,26.869090929045342,13.845688363187946,24.11145158391446,-21.540021084656473,24.64200704608811,10.237386586144567,21.28996653208742
2025-12-12 20:46:13.160031,Right,3.7019207451376133,-30.309017548104748,-46.11465165996924,-29.417199831048492,-40.0522819054313,-20.285844085883582,-47.72384976106696,-38.95941398263676
2025-12-12 20:46:13.164051,Right,-18.972304622700904,-54.30779803072801,-70.34185772924684,-53.569397901010234,-45.880004749807995,-40.82796878393856,-70.90179761571926,-61.40196964732604
2025-12-12 20:46:13.169066,Right,12.978788417356554,-17.207179830118548,-31.05462436148082,-19.774438356835162,-34.338177126977826,-9.820111704757437,-32.00332409021212,-23.631038197956514
2025-12-12 20:46:13.172084,Right,34.878707076539285,6.633255877852207,-6.892820266919443,4.577922219206812,-24.29286237168708,12.989210539468331,-6.458241647429531,-0.8762854954693466
2025-12-12 20:46:13.176088,Right,-13.470628359296825,-47.3481660168909,-63.497400064894464,-43.42801047931425,-46.225737062690314,-27.60728925120202,-57.60841784841614,-55.319752548239194
2025-12-12 20:46:13.180091,Right,-82.8609135094448,-121.72598448599456,-139.6050466838642,-113.2347728626919,-92.20014364339295,-85.99793280364247,-127.53340031695552,-130.05091059277765
2025-12-12 20:46:13.184118,Right,-85.3236854384595,-121.00442351659876,-137.84306535462383,-113.8414906138496,-110.51960830335156,-84.26307247637305,-124.37825119565241,-131.1249040106195
2025-12-12 20:46:13.188115,Right,-35.904666526737856,-65.59835679526441,-81.67201696985285,-60.84988011952373,-81.10374923743075,-39.552019379043486,-71.2033779232006,-76.89402909384808
2025-12-12 20:46:13.192148,Right,-30.54759187059244,-60.82767802578746,-78.61524409198319,-53.713351579004666,-58.634606667706976,-36.378799447760684,-68.69050978822634,-70.53740413003834
2025-12-12 20:46:13.196183,Right,-92.2158382985217,-128.2264818829717,-147.92812576713914,-116.14616921360721,-94.14134231343633,-88.3851008333877,-132.03526713732572,-136.31400308571756
2025-12-12 20:46:13.200167,Right,-138.40466527655371,-176.53071242340957,-196.07429024473822,-162.42338913865387,-149.34553601602966,-120.98469642535201,-172.3394636081648,-185.55308453185717
2025-12-12 20:46:13.203201,Right,-117.3776312500413,-152.26236734683334,-171.21849736417062,-139.028437281464,-151.72601807885803,-97.00309408498288,-144.36763050727313,-161.28117305260093
2025-12-12 20:46:13.208216,Right,-82.56545257670223,-115.49290653382195,-135.6644450374297,-102.14035929137026,-109.80960431994754,-69.37066600704566,-109.47234991086589,-120.36017813306535
2025-12-12 20:46:13.212209,Right,-95.3465456768754,-131.41316622054728,-153.6063959985404,-116.33346928432002,-99.62714744889672,-85.29220774832356,-125.63865931658074,-133.15223242684442
2025-12-12 20:46:13.216222,Right,-134.22323888073151,-175.3420361003955,-198.5451793164757,-159.20176848939445,-143.80363552815106,-117.67301996028255,-165.08396539996465,-181.51828009050223
2025-12-12 20:46:13.220252,Right,-149.29465832289134,-193.76788162720186,-217.70373259371627,-177.45452581089194,-181.5653829980547,-126.94702885776496,-180.57699145057632,-208.09434089271235
2025-12-12 20:46:13.223250,Right,-143.2112200151314,-189.03844054431102,-214.59065085691145,-172.32242668696563,-171.18892165632315,-124.12204124302662,-179.2523358252547,-205.83768899563438
2025-12-12 20:46:13.227268,Right,-146.10310562754603,-191.52678306203597,-218.10093356329526,-175.1245146346664,-150.43903554191138,-132.88187939557974,-186.56233587173938,-204.80475340943667
2025-12-12 20:46:13.231293,Right,-158.25829668861843,-201.8439607239386,-227.26580001486582,-187.30446774431948,-165.62099761118225,-143.78299670933666,-196.5007239886054,-214.1253031859103
2025-12-12 20:46:13.236282,Right,-165.46160953653452,-208.5799629638641,-232.51985061718005,-194.95563603792107,-199.30181029915184,-144.56064768944088,-199.37762341998678,-225.27031464122774
2025-12-12 20:46:13.240281,Right,-173.98483550271703,-220.4891050502083,-245.03058186371345,-204.93868991275303,-209.65592539915815,-150.43867449011577,-209.88871257327264,-240.26024623464036
2025-12-12 20:46:13.244318,Right,-188.73812415925022,-239.44143341742165,-265.09747370437253,-222.532077717653,-198.44449581488152,-168.5893236734737,-230.48718035927595,-257.0352674399037
2025-12-12 20:46:13.248325,Right,-191.26880414902826,-242.16240773761092,-266.3622021704796,-228.28035817186174,-195.82784300211642,-175.1849757686614,-234.1310817238409,-257.6964245015042
2025-12-12 20:46:13.251306,Right,-177.85042542236988,-226.79920038499404,-247.6958243157569,-217.19448226413806,-207.95617578773818,-162.5644078147743,-218.17017110071902,-244.9775113419455
2025-12-12 20:46:13.255277,Right,-181.36960302960506,-232.1298699081526,-250.73906740034,-221.93987670636852,-219.85243473430455,-164.0367182328555,-223.4519813861407,-253.591927561778
2025-12-12 20:46:13.259338,Right,-214.9846637786759,-270.32339268350916,-287.14006703466293,-255.40221506659873,-228.07073155204125,-193.91048190744914,-261.87628125966876,-290.7852435449313
2025-12-12 20:46:13.263370,Right,-235.44715507375804,-290.67381000217574,-303.3842911836982,-273.3140179627371,-235.53901328745997,-210.16307194525143,-280.88163936561614,-308.3644818286557
2025-12-12 20:46:13.268385,Right,-210.4643701675377,-259.5099605121359,-266.6745864370314,-243.75353545874532,-233.49949341580214,-182.75377267309523,-247.64755871141097,-276.9401440504298
2025-12-12 20:46:13.272377,Right,-182.48490376102563,-227.22703218043898,-231.7854175810062,-212.11141894002503,-221.34951077293954,-154.26346923336678,-214.34347000651178,-245.22596141742542
2025-12-12 20:46:13.276337,Right,-205.9626439254207,-253.0831629059976,-259.31018875419977,-235.0795355013397,-223.6255563198647,-175.43485235796834,-238.4352216582338,-269.28500968473963
2025-12-12 20:46:13.279356,Right,-254.274742437221,-304.8051764020347,-313.6409119324235,-284.16589561710134,-252.31180955533637,-217.91541835038515,-285.006248976395,-318.98884147475474
2025-12-12 20:46:13.283408,Right,-260.154251874279,-309.0111156643543,-319.24782406617305,-288.4835860374151,-274.98161789157894,-218.92669766762992,-283.0782353139948,-324.08342668093974
2025-12-12 20:46:13.287395,Right,-226.44872056120948,-271.6835294305056,-283.81956637915573,-250.58513892628253,-260.29068312360323,-185.1610124194267,-243.45282062672777,-288.03732539800694
2025-12-12 20:46:13.291485,Right,-217.09262730175396,-262.5913829319179,-277.95020703514456,-237.49585330064292,-232.70338658354012,-176.353054940555,-235.38305455088266,-277.1412018223782
2025-12-12 20:46:13.295483,Right,-246.96920071032946,-295.20701862947317,-312.52233993750997,-265.97268979321234,-236.12906183538144,-201.4764528289379,-267.61025051318575,-307.71093736673356
2025-12-12 20:46:13.300462,Right,-264.02192078519147,-312.69360719810356,-329.2360067073314,-282.8223811232019,-262.0971075336565,-211.54002223003772,-283.0115179931745,-327.38722027730546
2025-12-12 20:46:13.304478,Right,-246.6153764607734,-294.4538688699249,-309.90712658769917,-265.34034481827985,-266.5710176944849,-192.9626974669518,-265.7479183784744,-313.0170251841191
2025-12-12 20:46:13.307444,Right,-236.7334052202641,-286.99358186052996,-302.8139857487986,-256.5812636827468,-246.39237020010478,-187.9522210135474,-263.092595660768,-305.2757543147891
2025-12-12 20:46:13.311516,Right,-256.35881024520495,-311.6631051239092,-327.03314197278814,-279.32272150885547,-240.83171930073877,-210.97237057122402,-290.79060667468,-326.53093888191506
2025-12-12 20:46:13.315502,Right,-267.275374901772,-325.58558376535075,-337.6450300174183,-293.52222807030194,-258.45334774893126,-220.74908880301518,-303.0291678539361,-339.9734143661335
2025-12-12 20:46:13.319574,Right,-245.21278844584594,-303.8184371868265,-312.10045339073986,-272.5058204632951,-262.13989852028317,-197.5429011756205,-279.12589712790214,-320.9746545202215
2025-12-12 20:46:13.324524,Right,-226.06769092087052,-285.31746734667104,-292.4140442434582,-252.1044745161198,-237.22876174587873,-179.48450762990979,-261.69612863392103,-302.684881698573
2025-12-12 20:46:13.328579,Right,-240.3362578379747,-300.3461668184027,-307.59282305213856,-264.26382522122003,-218.64319704624359,-192.88026927327155,-278.22054827492684,-314.1531906364835
2025-12-12 20:46:13.332553,Right,-260.46569564021775,-318.4644208557438,-324.441827111179,-282.12102258531377,-230.02970903384266,-208.26237185645732,-295.02223729528487,-330.39698503445834
2025-12-12 20:46:13.335551,Right,-256.4378559734032,-311.3920585223823,-315.613037276431,-275.9893659344525,-246.37900865467964,-200.66483050119132,-286.0291166807874,-324.94233414629707
2025-12-12 20:46:13.339569,Right,-251.45670785199036,-307.73675103049027,-312.2484426369192,-270.42486016015755,-244.31440385209862,-196.8571361277136,-282.57081963540986,-321.13686052703997
2025-12-12 20:46:13.343582,Right,-272.1844245179673,-334.0229433658533,-339.7588433261262,-293.0234191758209,-242.26604901487008,-219.56278495903825,-308.66272681270493,-343.0027771106106
2025-12-12 20:46:13.347577,Right,-290.5454753221711,-355.5581577462726,-360.34138403780526,-314.0795773186255,-257.49216808128403,-236.72901672672015,-326.66324419231387,-360.75881669693626
2025-12-12 20:46:13.351582,Right,-273.64016810589237,-336.528520053369,-338.8534855893813,-298.2715734508238,-267.9109633094631,-218.39980890942388,-303.8114936928032,-341.948134271719
2025-12-12 20:46:13.355607,Right,-251.25883414543932,-311.2703091802541,-313.3465671209851,-275.41099180391757,-255.3567088425625,-197.79136911500245,-278.95039955718676,-317.19771930010756
2025-12-12 20:46:13.360640,Right,-268.9833740371978,-328.45229982346063,-333.00872800068464,-292.5262049805606,-246.18408428836847,-216.8780791455938,-298.85041752265533,-332.4217241931474
2025-12-12 20:46:13.363630,Right,-306.24496757471934,-364.36147757503204,-370.7652228905936,-328.89740397647256,-265.7605194839998,-250.73318643067614,-334.70068148407154,-367.8945819339133
2025-12-12 20:46:13.367647,Right,-308.41075120616006,-362.5116754248156,-368.6938745357329,-328.9599694508943,-287.24044377496466,-248.7244735994609,-330.44732121459674,-370.035805469146
2025-12-12 20:46:13.371611,Right,-276.87469491921365,-328.2762365977396,-334.30111104628304,-295.0754283859278,-272.7828049262753,-219.00624909606995,-296.0562452322338,-339.45455127203604
2025-12-12 20:46:13.375668,Right,-259.46699447219726,-312.15614453336457,-319.0624932111823,-277.10785676329397,-238.906711121439,-207.51385127013782,-282.0983952606912,-322.04030344547937
2025-12-12 20:46:13.379638,Right,-266.05508426122833,-320.50321101094596,-327.6095910357544,-285.11212353786686,-229.96671799523756,-216.69296980532818,-290.5219215946854,-328.09272498462815
2025-12-12 20:46:13.383713,Right,-262.4180459838244,-315.94437908171676,-322.3224507102277,-283.0841452263994,-245.33309015247505,-211.69317502592457,-283.5517661315389,-325.8845280171954
2025-12-12 20:46:13.387725,Right,-242.88100096327253,-295.2274997548666,-302.2698825523257,-264.0784175916342,-246.81444797030417,-192.94981646013912,-262.55232254817383,-309.32348453905433
2025-12-12 20:46:13.390723,Right,-239.58929103665287,-292.5397743458743,-301.89594399090856,-260.51003009529086,-227.52708907035412,-194.2450930053601,-263.1669958140701,-306.35389375005616
2025-12-12 20:46:13.395727,Right,-255.52323221362894,-307.22038486466045,-317.2685519574443,-275.7768684468465,-218.3242119367933,-213.56089732737746,-280.8384479454253,-317.96490808634553
2025-12-12 20:46:13.399688,Right,-256.06371733825654,-301.62354122282704,-309.2628227341338,-275.1705845053075,-228.73686229612213,-213.81351290160092,-276.0088415807113,-313.13274900981924
2025-12-12 20:46:13.403759,Right,-237.36200253287097,-276.1108498944668,-281.4101445412962,-255.40095029806253,-234.5598335172399,-194.41563318122644,-251.94214498478686,-292.1032852642238
2025-12-12 20:46:13.407751,Right,-236.32196920423303,-272.9324090318987,-278.64834087732015,-254.5424114591442,-227.3384676805581,-194.27751543349586,-252.01368025608826,-290.81748602417065
2025-12-12 20:46:13.411784,Right,-257.8374452503049,-294.8864919904154,-301.67172904353356,-277.231856171391,-226.707961982931,-216.26272614760092,-275.43893320520874,-310.7799324639491
2025-12-12 20:46:13.415796,Right,-259.72290703153703,-294.7301795324893,-300.3729707557941,-279.3300181753584,-236.32415544358082,-217.74387621157803,-273.2370460307575,-309.9790849821875
2025-12-12 20:46:13.418862,Right,-230.70815335103543,-262.6721115668188,-266.2333975515794,-248.73264178162208,-233.92340998724103,-190.0600147312507,-239.1298246483202,-280.33527169312583
2025-12-12 20:46:13.422821,Right,-216.66082572558662,-249.67596819455503,-252.67156077100663,-232.82557597383857,-216.52537340519484,-178.77983365318505,-226.46152481762692,-268.19594769726973
2025-12-12 20:46:13.427866,Right,-240.08506326563656,-276.7515130044194,-279.5191557839862,-255.17357949377038,-211.05217951908708,-202.40236856159754,-253.51753302267753,-292.580715515418
2025-12-12 20:46:13.431820,Right,-256.9939995644381,-293.21350891684415,-293.6888277779217,-270.4772506125155,-224.11476674006553,-216.573442480003,-267.69729575287784,-306.90209454577416
2025-12-12 20:46:13.435883,Right,-234.32215790031478,-265.2882804273395,-262.6316387442639,-244.64268483169144,-226.23228380759247,-193.07181773910997,-238.45324235444423,-279.42955404683016
2025-12-12 20:46:13.439872,Right,-211.5870046460186,-238.85441023035673,-235.14409067906672,-218.96581675152993,-207.13492308423156,-172.99536073510535,-214.2845212125685,-252.5752885757247
2025-12-12 20:46:13.443898,Right,-232.10245632793522,-259.55039420502726,-256.3283286310616,-238.74041586584644,-199.5925622311188,-194.70393027405953,-237.65402192162583,-270.9054758552229
2025-12-12 20:46:13.446979,Right,-263.53877723781625,-289.8881972769741,-285.9288396772463,-270.4271430518129,-219.5685000619269,-223.4549843284185,-267.6156048934208,-301.5919051786768
2025-12-12 20:46:13.451984,Right,-251.02299056819174,-272.3998720240197,-266.8560922119068,-256.9545259432052,-229.8218014560407,-210.0938266690937,-249.38851110410178,-289.01364054577425
2025-12-12 20:46:13.455889,Right,-210.0299592105439,-227.62953411357012,-222.6509206328774,-214.707197994343,-201.05832874699263,-174.76886335475137,-207.36067244579317,-248.29229242069414
2025-12-12 20:46:13.459917,Right,-196.72797664115205,-215.69660404737806,-213.46878482407192,-202.36838951753452,-166.56432866043178,-168.40751731424825,-198.87323686952004,-235.64715233811876
2025-12-12 20:46:13.463931,Right,-213.09691710711922,-234.79971892212052,-234.27630579064135,-221.4411495702807,-169.38487815856934,-185.41049053007737,-216.81363730016164,-253.12888598890277
2025-12-12 20:46:13.467944,Right,-214.06179517367855,-235.13940367026953,-234.2613869413035,-223.73257995361928,-191.04726673697587,-182.58989833056694,-212.86742203112226,-254.47986160195433
2025-12-12 20:46:13.470950,Right,-194.01022474997444,-212.56242713989923,-211.55172078806208,-202.3880318418378,-186.7497680230299,-161.52672998578055,-189.05619023641339,-231.548622860224
2025-12-12 20:46:13.474933,Right,-192.03068229235942,-209.16921090055257,-208.63711735291872,-198.32446523208637,-163.35039461456472,-161.43979001429398,-188.30989780271193,-222.631876940839
2025-12-12 20:46:13.478933,Right,-214.34249461704167,-229.8504576360574,-227.47732313274173,-219.52541935408954,-162.93319246644387,-182.7785937654553,-210.5724744980689,-237.58310780668398
2025-12-12 20:46:13.483976,Right,-223.50848041771678,-235.56282595713856,-228.25239339948166,-228.47361678769812,-186.65063065721188,-187.80461715965066,-215.40136648144107,-244.05403607251355
2025-12-12 20:46:13.487968,Right,-208.77188678778475,-218.31812194827944,-206.65844454907347,-214.05209312669467,-194.9415282587288,-171.6348797561368,-199.1426361729391,-231.89802095317282
2025-12-12 20:46:13.491947,Right,-200.21996680583106,-210.43713610328268,-197.61094873584807,-206.71262330713216,-176.99858357576886,-166.04866546427365,-195.84692131349584,-226.71327521081548
2025-12-12 20:46:13.495978,Right,-205.576453505666,-216.21608296764316,-203.35989619290922,-213.710943143873,-163.3677229261375,-173.71951367740985,-205.48761261149775,-232.38842853344977
2025-12-12 20:46:13.498997,Right,-197.12628458125982,-204.32010829413775,-190.50097364757676,-205.4607501833234,-167.3998493484105,-164.00361042638542,-193.71999814675655,-221.90299653384136
2025-12-12 20:46:13.503024,Right,-173.69955772027606,-176.60342985281022,-162.70688755298033,-179.9857686214964,-167.59871183894575,-138.91234176710714,-165.2658487681183,-196.5910176183679
2025-12-12 20:46:13.507114,Right,-170.93920382816577,-173.40289022191428,-162.13243084243732,-174.4803801352973,-155.3479961734265,-136.6417911533499,-163.28184056497412,-192.38804461393738
2025-12-12 20:46:13.513090,Right,-190.99522442329908,-194.71446725085843,-186.569051709841,-192.42649523122236,-149.16947310854448,-157.30296192475362,-185.84570699062897,-210.1933096019784
2025-12-12 20:46:13.516085,Right,-187.7959580195602,-189.34809955890523,-182.19374029996106,-187.15364008810138,-151.33515740273288,-153.54301632702118,-180.00598747906042,-204.4188160148915
2025-12-12 20:46:13.520112,Right,-148.6343866842799,-146.31030964583624,-139.5196445993497,-145.86876275768736,-139.40338989376323,-115.26082708622562,-137.31185295322211,-164.65281662438065
2025-12-12 20:46:13.524103,Right,-124.47693063993938,-122.53477822919376,-118.10773120989325,-121.49310568522196,-113.65113877755357,-94.4838456052239,-116.66618190932786,-142.7609725749353
2025-12-12 20:46:13.527126,Right,-144.2241138878744,-146.28296427731402,-144.9127257623477,-143.86555860179942,-105.13687669468345,-116.84745722980006,-143.5340490816743,-166.0079767528805
2025-12-12 20:46:13.531147,Right,-162.49019816640066,-165.62979163834825,-165.03496360074496,-165.19097180425888,-119.87770460639149,-135.59247360186419,-163.29756878636545,-187.05765587603673
2025-12-12 20:46:13.535133,Right,-137.28643212921452,-137.4015884542605,-135.95139397209277,-140.69060114648892,-121.7660124017857,-112.25077802414307,-134.84260310867103,-163.0465704757371
2025-12-12 20:46:13.539168,Right,-101.9777455329313,-100.77471777511528,-99.591103054001,-104.22802198951831,-94.03877151483903,-81.28581883345032,-99.64612283278257,-126.95441568200476
2025-12-12 20:46:13.544178,Right,-105.53631569788558,-107.00834400160238,-106.77768806106178,-107.11156297882553,-72.25094287312822,-86.42331600416219,-106.51208218710963,-127.93869506003102
2025-12-12 20:46:13.548191,Right,-130.22327647730708,-133.51785698154708,-132.35584273037966,-131.99730569071835,-85.65442762483144,-106.79761398764094,-130.1395535399788,-149.60623699007556
2025-12-12 20:46:13.552212,Right,-130.80551337025827,-132.1789051606902,-128.97091114823706,-132.35653647535946,-108.44408515945543,-102.52092252869625,-125.43568136723479,-148.18489266256802
2025-12-12 20:46:13.555220,Right,-115.61010377039202,-115.05775141791673,-112.1868078286061,-116.58124319749186,-106.05320684134495,-87.82929333241191,-109.03692741296254,-132.03235190949636
2025-12-12 20:46:13.559224,Right,-121.01333945803344,-121.33231458789669,-121.397412392369,-122.38969282753533,-91.68401162442751,-96.71135587920435,-118.60765236627776,-136.86755888536572
2025-12-12 20:46:13.563226,Right,-135.92539991694503,-136.92284866888076,-138.99973286187742,-138.6871509948396,-94.45114701619605,-112.90191676811082,-135.303901115607,-152.13523074641125
2025-12-12 20:46:13.567216,Right,-121.8046244183206,-120.91297497111373,-122.76234006456798,-125.57260647497606,-102.90081325254869,-99.45267003955087,-118.72012520959834,-140.27540835679974
2025-12-12 20:46:13.571240,Right,-87.51582334248815,-84.96329000568949,-86.8056897300994,-91.52815656346502,-87.86837403010577,-70.04817279824056,-85.07593676663237,-108.93689802021254
2025-12-12 20:46:13.576247,Right,-75.66267661668826,-73.64312667754712,-76.8196442022454,-79.9193417361821,-59.60476702975575,-65.5973526595917,-78.82167662569555,-97.79342721833382
2025-12-12 20:46:13.579250,Right,-85.86909008951625,-83.18743162421742,-86.99890436325222,-90.23808095580898,-51.6124097793363,-79.49892717777402,-91.1501593151479,-105.73520218505291
2025-12-12 20:46:13.583239,Right,-79.29331432201434,-72.45462456368841,-75.66077348298859,-82.54857730603544,-61.10548297793139,-72.18592905663536,-79.40127413277514,-96.41669854347128
2025-12-12 20:46:13.587283,Right,-55.752561287081335,-45.617840382270515,-49.66013995412504,-56.770288860599976,-57.41503438190557,-48.22184622118948,-51.316787998133805,-71.32000599434832
2025-12-12 20:46:13.591270,Right,-56.62092844513245,-48.29584386944771,-55.408827919571195,-55.77036715298891,-41.43060381314717,-50.00021839697729,-53.69249339494854,-70.20716347440612
2025-12-12 20:46:13.595298,Right,-85.45006256329361,-80.6388380228891,-89.63313037675107,-83.54462108464213,-43.05952801936655,-77.38577386946417,-83.54983191896463,-95.14737866731593
2025-12-12 20:46:13.599303,Right,-95.09630916506285,-90.1328303765622,-97.74805710621877,-91.61443888570648,-61.428961811063346,-83.14250312684453,-87.89309919252992,-100.71492544771172
2025-12-12 20:46:13.604313,Right,-69.0331368111074,-61.89443472767016,-67.79479197459295,-62.854025722597726,-61.88445534443599,-55.50546103558736,-56.130568227672484,-72.60544685675995
2025-12-12 20:46:13.607325,Right,-49.60890473204199,-43.19253996468615,-49.92675248289015,-41.01446132257115,-38.447744959790725,-37.944738562073326,-37.47814666200429,-52.47635672870092
2025-12-12 20:46:13.611314,Right,-61.284536446095444,-57.369187810632866,-65.70083864137996,-51.54156955098733,-25.886256839119596,-50.17123885045294,-51.66001596284332,-62.888655685062986
2025-12-12 20:46:13.615353,Right,-69.14609613077482,-64.53560163103975,-72.58361316670198,-58.42200169956777,-37.2076850271842,-55.452178785461,-56.50921272492269,-69.00300798664102
2025-12-12 20:46:13.619350,Right,-47.454324065940455,-39.39690273371525,-46.55412577959942,-34.86765379982535,-41.706306212960044,-32.642187887773616,-30.144076726748608,-46.06620666250819
2025-12-12 20:46:13.623344,Right,-28.78837794633,-19.498300857434515,-27.476322922448162,-14.52245200931793,-23.588626724958885,-16.612208989768988,-12.778352740016999,-26.041721203248017
2025-12-12 20:46:13.627334,Right,-42.22950206766836,-34.35994424717501,-43.501233508985024,-27.98829642610508,-11.415081874787575,-31.872761915205047,-30.512483159458498,-37.08134293183684
2025-12-12 20:46:13.632408,Right,-58.227799520711415,-50.08002743005636,-58.045967649202794,-45.23238110233797,-24.448610751365777,-45.902152981987456,-45.74725274054799,-50.83997646556236
2025-12-12 20:46:13.635436,Right,-44.23073610989377,-33.559102410741616,-39.0281827437866,-32.19790215123794,-37.05555448058294,-30.665445610211464,-27.848678093025228,-36.56394860817818
2025-12-12 20:46:13.638369,Right,-25.205065545334946,-13.89791745133698,-18.4242144455784,-13.649904436111683,-26.390996938891476,-15.191288173169596,-9.824756146903383,-18.30011919233948
2025-12-12 20:46:13.642466,Right,-34.378016788628884,-24.563662477768958,-29.060031206608983,-23.30376200817409,-12.82114199156058,-28.82356835581595,-23.436398838093737,-26.54506831432809
2025-12-12 20:46:13.647404,Right,-48.14438860534574,-36.93908663932234,-39.3718565767922,-36.97587581828702,-18.784694540983764,-42.947187298879726,-36.47713252232643,-37.42567762424005
2025-12-12 20:46:13.651465,Right,-29.86814821747248,-13.37704657073482,-12.153907004219946,-17.36187512255856,-25.507339698728174,-23.399155540013453,-12.982149464194663,-16.990517780999653
2025-12-12 20:46:13.655486,Right,-1.2813021552283317,18.592181166895898,21.743286033626646,12.687101791700115,-9.60344757011626,3.3765387457387988,15.911731568718096,11.83719792420743
2025-12-12 20:46:13.659500,Right,-5.602939136209898,12.665331884665648,15.731935461779358,8.218908270617248,10.01727336802287,-3.9733105426712427,6.017018572951201,8.022311928041745
2025-12-12 20:46:13.663498,Right,-28.34081632163725,-12.006766665639589,-7.930467294616392,-15.908133362041553,5.1921900326851755,-26.26804248476401,-18.408903368981555,-12.206689838407328
2025-12-12 20:46:13.666504,Right,-23.12317695011734,-5.100768173695542,1.6837379159405828,-11.275511938787531,-8.849063823668985,-18.14749967661919,-7.4920989670208655,-3.98269981550402
2025-12-12 20:46:13.670542,Right,3.9311415683478117,23.96489901296445,31.980317927984288,16.606496909837006,-0.5774590121873189,10.108619879931211,24.331164916366106,24.591413483401993
2025-12-12 20:46:13.675489,Right,7.1393005862191785,25.891295361652737,32.37920413550455,20.659236639301525,20.26357752480544,13.538988979242276,26.588373999955365,28.415512381703593
2025-12-12 20:46:13.679569,Right,-13.009552005125443,4.339477689587511,9.443512891040882,0.8166732458630577,21.841884493624093,-3.8584002576826606,6.193403548473725,9.543336508184439
2025-12-12 20:46:13.685561,Right,-11.340087219432462,8.43692190971342,14.371793948259437,3.507742640300421,9.93897971464321,1.4309823227813467,12.611114902567351,13.171528572624084
2025-12-12 20:46:13.688616,Right,16.149262258200906,39.17915518261725,46.37272426439449,33.107128160307184,15.92209533235291,28.786326098255813,43.54392457543872,42.57953275489854
2025-12-12 20:46:13.691615,Right,23.566931149340235,45.83349988568807,53.10775022971211,41.86415120901074,36.145653617044445,33.40107774526405,48.33569844654994,51.75503759653657
2025-12-12 20:46:13.694647,Right,1.6034352531423792,20.9419462721562,28.743933716817992,18.888250302436063,38.12493070261553,10.891338825327693,23.460323203064036,30.741907075687777
2025-12-12 20:46:13.698645,Right,-2.258581074536778,16.864004982518964,26.830583912844304,12.399255513882963,22.978543229633942,8.012767176434863,21.466977417265298,25.534928833163576
2025-12-12 20:46:13.703660,Right,29.92952312505804,50.752113568014465,62.21635929858894,41.872973796125734,25.806717920975643,37.428782494942425,54.82704392969026,54.39265127904946
2025-12-12 20:46:13.707615,Right,51.89736735948827,72.1229875057179,82.47063573579362,61.510082843800774,50.346741473840666,53.652330298602465,71.81209639257577,73.99750578193925
2025-12-12 20:46:13.711716,Right,34.28775084557128,52.378997286985395,61.04550767164619,42.20728042551491,58.87230800141697,34.65995166207722,48.90154764603358,56.95544476350187
2025-12-12 20:46:13.715713,Right,13.762001272349153,32.486768980306806,41.2275028215081,21.60691613481322,38.78480349165329,19.115330836517387,30.215903801756212,38.24491160456091
2025-12-12 20:46:13.719702,Right,23.909677152725635,45.49977009743452,54.30640204176598,33.39424447220517,25.31586853603949,33.55691124977602,44.90767396782758,48.80951328334049
2025-12-12 20:46:13.722736,Right,38.66342706489377,60.653099929972086,66.92411401764548,49.43756729950837,38.996324130625,46.772602703014854,58.1833509736025,62.600146515571396
2025-12-12 20:46:13.726756,Right,29.071744267319445,48.76782617341087,51.590092892889515,38.90202382019197,52.06678581121378,33.34399249801936,43.38123763396288,52.38254385405162
2025-12-12 20:46:13.730758,Right,19.955089322073036,39.4020738935651,41.36663840798428,27.706258670281386,42.325117118496564,22.785319919887115,33.99291120679118,43.37364675813296
2025-12-12 20:46:13.735769,Right,39.462418297844124,61.95457581336086,65.15494626802683,46.55147417356784,32.93553904914006,41.91721903742291,57.57002126936277,63.035972291065264
2025-12-12 20:46:13.739850,Right,61.92508717725286,86.68287279600918,90.02100018077181,70.19756712242088,47.50465065322351,62.411920559592545,80.52555658454366,85.97405887370405
2025-12-12 20:46:13.743846,Right,54.15018064035394,78.65626442735083,81.05248738316004,63.83851324689749,66.01240844039421,53.17182546459662,69.41272007011867,79.54963283687539
2025-12-12 20:46:13.746863,Right,36.99070872888842,61.88551698184165,65.00978362369642,47.542292410027585,61.70493393504876,37.6932712305279,52.34321359176829,63.54345954932796
2025-12-12 20:46:13.750796,Right,45.82487711797876,72.73003938137845,78.0112080310646,57.14182610299031,48.82903963588615,48.58294922354253,65.12412783170294,71.9182874904509
2025-12-12 20:46:13.754860,Right,63.60568757103465,90.2710992325301,95.95989331119199,75.42302285457845,53.36250676865893,65.09102045014879,83.24585291426774,88.56588287572959
2025-12-12 20:46:13.760810,Right,53.074594648045604,76.02960411429376,80.01548546328559,64.45931693346938,64.11231210857659,52.26046464612591,68.41490175395302,78.42013982636126
2025-12-12 20:46:13.763877,Right,29.77055635213037,50.392862730404886,53.646308250914444,40.30095397360128,56.98642931514769,29.837195046253328,43.99349081535911,56.83018242484104
2025-12-12 20:46:13.767866,Right,37.56497218798904,60.036428959225304,64.42472982168692,47.92257866622822,44.6234485357345,39.82929292006884,55.890912531962385,65.00111688643665
2025-12-12 20:46:13.770900,Right,68.7252403845996,92.82239535103872,97.51666450390621,79.1802988072086,54.72488737638923,69.60016399584856,88.27589288701711,93.91144962627732
2025-12-12 20:46:13.774913,Right,76.48514867714402,98.05187688893784,101.27982718856947,85.90522149952449,76.35060422710376,73.11595277280503,90.93579206617142,98.79517342927284
2025-12-12 20:46:13.778869,Right,58.368524430123216,76.81713962432696,79.56437761400957,66.00647675161599,76.98249203173691,52.80346575414296,69.51406903751922,79.891842867386
2025-12-12 20:46:13.782931,Right,57.34997471483803,76.91776090551139,81.38277049057251,64.73963633958556,61.50362178632349,52.05470710643931,72.60651552226773,80.65865665857928
2025-12-12 20:46:13.788896,Right,79.73176812238671,102.382257825946,108.01261170323778,89.21387968386989,62.82773916527003,73.4393295259506,100.14510580296701,106.19241727265398
2025-12-12 20:46:13.791964,Right,82.93019842501963,105.58110759394549,110.3612440056936,94.8728947270356,80.05797781401634,74.9296086624272,103.3818790342084,113.21888239136388
2025-12-12 20:46:13.795980,Right,56.066972793290915,76.54096331400615,81.32115117843273,69.08482538638054,79.59716952848976,50.37100318013836,76.24313434383112,90.55070868993789
2025-12-12 20:46:13.798994,Right,42.43725194472063,62.6671104465986,70.27736289443419,55.60569495036361,57.92214813041301,42.621575867589854,67.13275907052503,79.97970191629247
2025-12-12 20:46:13.802938,Right,60.76515311154799,81.74097676004385,91.99475462448208,73.81907056587079,49.000266987876785,63.86908765758926,88.86565191801013,98.53359036608708
2025-12-12 20:46:13.807002,Right,72.34006937349113,91.29529935041535,100.68376060723494,84.3788939892147,62.8100237791848,72.89602234487211,96.00187729614663,107.99813704509415
2025-12-12 20:46:13.811022,Right,55.68736380092014,71.43165937833965,78.25786195675391,65.79832803571799,69.85774322412453,53.01444890846733,72.53010266283673,88.8938787934203
2025-12-12 20:46:13.815032,Right,47.5492291951723,63.80565451800976,70.12184639725456,56.715637677774794,58.73665875572078,44.13170692483254,64.09557892813245,79.04865555042306
2025-12-12 20:46:13.819038,Right,72.61750083897277,92.52933244326414,100.1927983393798,83.32767445595528,57.25530660040749,68.010030013289,92.98363763872112,103.49971052744877
2025-12-12 20:46:13.824027,Right,94.46989355920323,115.87614624667549,124.18326717809396,108.07233706117768,77.88262156379824,86.56367703364594,114.88376242150844,126.6340856554416
2025-12-12 20:46:13.827068,Right,80.39416346332132,100.22033164674212,108.64789661311806,95.95525742161044,90.71925252864457,71.122305783505,98.30697754242283,115.65416774370533
2025-12-12 20:46:13.831120,Right,59.88135157189345,79.24301839698455,89.05710411989276,75.63839370230562,75.99599706982917,53.71933911843735,79.18478488234541,97.46338649022073
2025-12-12 20:46:13.835079,Right,68.56279149060356,89.22267516502689,100.57099093101715,83.08655922906837,59.46011470225858,65.82746587051952,90.87133053985599,104.93136461593531
2025-12-12 20:46:13.839097,Right,83.22159271213786,102.68160266157793,113.10047958664654,95.08455598507862,65.46025793670196,80.28097518330833,102.59753828863904,115.49614116673911
2025-12-12 20:46:13.843134,Right,69.11966261274029,84.21208396565635,92.04852013116033,77.09523847173841,75.03686709939939,64.95678243599832,81.40783978397667,97.27462581212603
2025-12-12 20:46:13.847143,Right,48.5715609173094,61.13889114453923,67.84980563724093,52.951670707981975,65.03319958892098,45.5284640692189,58.46721703418007,73.43853945386945
2025-12-12 20:46:13.852176,Right,60.792523077125225,74.84692235347029,81.80020374462038,63.53600777039537,53.33934531317209,58.44959750180715,73.30129816171393,81.97073621309391
2025-12-12 20:46:13.855099,Right,88.80695439651754,104.1978383520036,109.68960706001963,91.58397747053823,65.91071615921828,83.0592671627528,100.43094446163013,105.94442893892119
2025-12-12 20:46:13.858116,Right,89.51554382920585,103.47087103429658,105.6125418991578,92.47776576434262,86.9270591679815,79.50605349313264,95.23223730283644,104.16818521929235
2025-12-12 20:46:13.863188,Right,70.72950549110828,84.04188650858123,84.6215069572063,74.05466729198815,85.50757814578537,61.30198778482736,74.11052646653116,85.6553873357625
2025-12-12 20:46:13.867191,Right,73.62586480526807,89.81388345730375,92.08176433626795,78.87286249578756,70.99372350583872,68.29301831770135,81.49939518011524,90.8606823169539
2025-12-12 20:46:13.871216,Right,94.06242244776513,113.15844042864046,117.24183880504279,102.46106783957657,74.02071344985598,90.36742439095542,105.27621302313491,114.44800366861455
2025-12-12 20:46:13.875180,Right,90.56484393285791,109.2705867880577,113.22582829545718,101.02989642621833,89.14283455814439,85.22404631639802,99.19109432917321,114.30435059929732
2025-12-12 20:46:13.879259,Right,66.26480155801255,84.19102071200905,88.28910694703518,76.6372794299532,87.81317989051604,60.07760597701417,72.8112594379345,92.45038370492694
2025-12-12 20:46:13.883251,Right,68.79414125227049,88.91923731238057,95.11488188468502,78.36696256280993,75.73647897912451,63.001754959259415,78.5306555689167,95.01592935656663
2025-12-12 20:46:13.886260,Right,102.12235446826526,124.39856829617929,132.46117078296083,111.59508677700069,82.7611436541847,94.48659513451275,114.3018446121423,126.47592582460493
2025-12-12 20:46:13.891282,Right,114.30357359330083,134.58656899470952,142.56603125859692,123.94214674487012,103.10412156338862,103.23043652802153,123.19361406576354,137.63050656304404
2025-12-12 20:46:13.895331,Right,88.09737397258868,104.96824036777252,113.03905399581708,97.63145742022607,101.05720611634024,76.93666505880537,94.08926762126794,112.63695494289277
2025-12-12 20:46:13.899295,Right,69.7566556419115,86.8027099762694,96.94342508989212,79.60980452099466,75.56199232113431,62.00196992227575,79.23956765529874,95.78195509800571
2025-12-12 20:46:13.903312,Right,85.60002762982913,104.84466786419216,116.77588030956395,96.45738242512743,65.15888404195721,78.79757280522608,99.30314938173979,111.18553239600442
2025-12-12 20:46:13.908351,Right,100.02741289665573,118.54123221906775,129.60793047671905,111.49091974800103,82.09025077088154,89.817981186221,111.6983994882321,124.20567878680595
2025-12-12 20:46:13.911363,Right,86.59490166022442,102.25815621750371,111.75195513553626,97.84492306994798,93.509421804265,74.17820665141335,94.79516198521014,110.56141213192313
2025-12-12 20:46:13.914350,Right,75.81684554963431,91.2898614070873,101.45640823876602,87.38848058524309,81.93345285617397,65.58832380105741,86.90108156975475,100.52985611947952
2025-12-12 20:46:13.919384,Right,92.50008301067282,110.07170572364703,122.00656620194786,105.71316836419282,73.4599202448444,84.38092106620024,108.98823923853342,117.36738242326828
2025-12-12 20:46:13.923392,Right,104.5374416084669,121.58850689815881,133.45633194138645,118.97763724264223,84.77512025370379,94.62510184003622,120.09327574344934,129.0856727011269
2025-12-12 20:46:13.927387,Right,83.11744324091705,96.84160681678622,107.48683449535747,96.46655135591573,91.31987771914282,70.60954604508879,93.41007599930163,107.76692042959621
2025-12-12 20:46:13.931377,Right,61.445819183514686,74.22197608389251,85.42151552032738,72.41318341964507,76.14068570846575,49.08668511061114,71.29906994046178,85.99999425304122
2025-12-12 20:46:13.935409,Right,77.18543630136992,92.67516096339386,106.07390297712118,87.06095266673947,64.58286540080735,65.46087914575764,91.4818027394358,100.70462559646694
2025-12-12 20:46:13.939448,Right,102.52974555594847,119.83672764246876,134.54945395616232,113.25683070445666,77.18854042736348,89.24870533309877,118.12772333509929,125.67013239448715
2025-12-12 20:46:13.942425,Right,92.89563640180859,109.58049599874357,124.87477405194659,105.1228598090529,89.13969965507567,78.88611360017967,106.16362367566035,118.51651698905334
2025-12-12 20:46:13.946437,Right,65.59787648667407,83.53476003823744,101.08891317492817,79.46501764353889,74.01558935429784,55.261530326431966,80.65203264610318,95.8613660766714
2025-12-12 20:46:13.951401,Right,65.29945048873196,88.05233166605467,109.01692972185265,81.77033989399206,52.772753422977985,60.27937575751275,87.16479313025775,99.59573158361309
2025-12-12 20:46:13.955458,Right,83.21883942504064,109.65118900565722,131.90493888316269,103.3386005453358,57.69321951032907,80.58879517839523,108.78619906140375,119.95651782897767
2025-12-12 20:46:13.959474,Right,78.15570879915322,104.16792570395046,125.38716488449427,101.74671319653862,76.05174655158771,76.3786016827653,101.81801250088029,117.03557006533083
2025-12-12 20:46:13.962437,Right,55.12317703475128,80.36016869469313,101.99061718943994,81.19906219981203,74.71014529983222,56.381103824911406,78.21016150570358,96.18506193658686
2025-12-12 20:46:13.966499,Right,54.85508762342215,82.23975370597327,107.58836601383518,82.52787669286772,59.42087429946696,59.05253445993003,81.02812663279474,96.62795316407573
2025-12-12 20:46:13.970535,Right,77.35273805566248,106.9851686079055,136.89146995999909,105.44421278696973,61.29047813336365,79.28302591791726,103.17661425468395,118.09685960377101
2025-12-12 20:46:13.974534,Right,82.2464021173073,111.44199937292433,144.79149925886304,109.07511233841069,77.37153302511433,78.50184450262168,101.91794018457585,122.55348454846535
2025-12-12 20:46:13.979531,Right,62.931988926036865,92.08198213520518,129.30693874727876,87.90541384265816,75.76371490089514,57.17347159171186,79.4574578373431,105.08797086523555
2025-12-12 20:46:13.983559,Right,55.778387808051775,88.63881313765887,131.18173486518208,80.71982834172377,55.18839384344756,53.17187463516893,77.71522948083293,100.77062724430289
2025-12-12 20:46:13.987577,Right,68.97352334119205,106.42374851528439,153.14102973665285,96.63255547288281,47.402127511028084,69.56832333387865,97.66426092883921,115.93154535572103
2025-12-12 20:46:13.990592,Right,66.59945566450187,105.06272073161381,152.5643959728477,97.96983142531826,57.872623868548544,68.4893493901618,96.15215693473874,114.72232483023254
2025-12-12 20:46:13.994581,Right,39.00897840774269,76.2445394489041,122.85309353221965,72.92194763361476,55.838958722233656,43.86728240145021,68.0050918620982,87.87273281306261
2025-12-12 20:46:13.998597,Right,25.637824353936594,63.20577628216415,109.32720397401135,60.522466229478596,31.749051632839837,35.693432624524576,58.68472171219764,73.65135122636275
2025-12-12 20:46:14.002624,Right,43.88884563551983,81.98360683546343,126.3948350846913,78.70576295463252,14.094367598561803,56.489353622018825,80.88745259070129,88.62173835044086
2025-12-12 20:46:14.006622,Right,55.94713763060281,90.84050414747617,130.33475707848265,89.67176797952561,15.57192057139764,66.87584330640675,90.0428739128256,96.64895032400091
2025-12-12 20:46:14.011681,Right,37.68254350528878,67.28824611657183,101.05069347664539,69.4426183890173,11.524321137010702,47.75991628624615,66.2586849227664,75.90990797805716
2025-12-12 20:46:14.015668,Right,23.229566150315804,50.597932641685475,81.49979481370247,53.22476564263343,-8.696697384439176,36.08649987357785,51.389050602025236,60.248484251249465
2025-12-12 20:46:14.018695,Right,41.854563669869094,69.58042785293947,99.77050587747362,70.77914068373502,-16.178033723088447,56.850243207256426,71.5306883919693,76.84264294047898
2025-12-12 20:46:14.022708,Right,63.629163884645095,88.97912488032307,117.46219339010713,90.85481734566565,5.750975276212557,76.68011597839359,88.43476261658361,95.29566821763001
2025-12-12 20:46:14.026685,Right,54.7243769053166,74.34059283220267,100.43242251116317,78.47144346412097,27.862716289644595,65.11728155355377,70.3216196721769,83.21710332292423
2025-12-12 20:46:14.030832,Right,38.76342514407588,54.3035512087954,80.05622505725478,58.39690071705263,23.97808732892736,49.14438125012384,49.65834529272979,64.6126015435002
2025-12-12 20:46:14.034652,Right,49.84561720128113,64.20357506000437,91.13767040027597,66.49022212078853,13.715919441732694,59.79578222981945,60.187911767483456,72.25706151688064
2025-12-12 20:46:14.038712,Right,66.27737743794569,77.59923097545106,103.89451956361881,80.90807015185419,21.790620331725222,72.43749385910633,72.19953261149931,84.25321758876089
2025-12-12 20:46:14.043743,Right,50.72196943272138,55.51664769320632,78.932588530457,63.22473077000177,31.490567136206664,53.89675528444059,48.55668127161334,64.94291204333422
2025-12-12 20:46:14.046721,Right,23.20185132016195,22.757276539472514,43.808563067766954,33.65609585486527,19.58682803667034,28.491258878915687,17.686429029505234,34.843348108857754
2025-12-12 20:46:14.050718,Right,29.195566317124758,27.36669944228197,46.990451774414396,38.469536963879364,5.727215930441162,37.31675446113513,25.533231055931537,37.60639606571931
2025-12-12 20:46:14.054772,Right,58.63163847348187,55.16131080544437,71.70734894940688,66.93106740027724,20.085421162293642,63.52913271532452,52.76876965898555,62.174348661559634
2025-12-12 20:46:14.058741,Right,64.71170118625741,56.43768042749434,68.10039059896371,70.95221401813615,47.037357571331086,62.23251769717899,50.397792753065005,63.48157966326107
2025-12-12 20:46:14.062779,Right,47.55572813053732,35.124550168722635,43.50319672822661,51.27529127211892,50.84284850649419,40.64984020347765,27.93338506994769,43.517365840263665
2025-12-12 20:46:14.066860,Right,48.476814025460044,35.95453126386565,43.954613746362156,51.07918054917536,37.77586229503504,40.898026571565424,31.094330583611736,43.24099504863261
2025-12-12 20:46:14.071845,Right,68.96715161440079,56.9664159068343,64.45431192826072,71.76342238424695,41.07339338908787,59.428042962783366,53.261166330528795,63.126213601542986
2025-12-12 20:46:14.074841,Right,68.22519393463153,53.302147132752,58.09911411933717,70.52603151740914,58.37762449074944,54.692050297453534,48.22209486493375,62.50677287932194
2025-12-12 20:46:14.077848,Right,43.424653096779366,24.82546252112661,27.02306486813177,44.09492401371244,58.495179118050146,28.30983991609537,20.38167175152921,38.34113522771804
2025-12-12 20:46:14.082832,Right,39.965955690917326,21.11205286870245,22.804475878117955,39.58101596143388,43.238086026438395,26.0752017742343,21.30056779512961,34.105864943398046
2025-12-12 20:46:14.086792,Right,69.50217225868255,51.42092506166955,52.62054523715051,69.00634888373315,46.525010236233356,54.344613364257384,55.50361433130456,60.14143402641639
2025-12-12 20:46:14.090832,Right,86.52588970887882,65.35387620169786,63.90817686841183,84.70269165474747,70.34186608152231,65.91669722041115,68.97996165489894,72.46756127040135
2025-12-12 20:46:14.094853,Right,67.45077867900545,40.82662175896985,36.45192549069179,62.02341979983612,77.01851078277105,42.153469230019255,42.644894844153896,49.83564083764213
2025-12-12 20:46:14.099852,Right,48.20784911380906,19.27218177386385,14.040310828015208,39.041464765628916,54.873424870791496,21.851125546527328,21.014720470266184,28.358941155252978
2025-12-12 20:46:14.102867,Right,53.896004007867305,25.953765053971438,20.34822709709988,43.046514388377545,37.65505598670279,27.07608808692021,27.37758690470946,32.29293740328285
2025-12-12 20:46:14.106884,Right,54.25353867805097,26.109792824703618,18.11774446553318,43.360422496290994,43.42458366861683,26.501136478880653,26.029667357055587,32.40395320855896
2025-12-12 20:46:14.110878,Right,27.88245779677527,-1.9486472747666994,-13.033066378266085,17.442267650476424,46.80976758591714,2.6088436606369214,-0.722878744956688,8.844856510258978
2025-12-12 20:46:14.114839,Right,10.319527460058453,-18.695459274953464,-30.953951512259664,0.8759927103528753,32.64938129860093,-8.977017961937236,-11.7586502799968,-4.398289804594242
2025-12-12 20:46:14.118907,Right,31.3995477786666,5.576378577577998,-6.9653230900730705,23.462924914972973,26.97585173949483,14.847494678775547,17.441657635979936,19.346637687878683
2025-12-12 20:46:14.122905,Right,58.21094811841613,33.39178500970593,18.697158357637818,51.06930268924043,47.02890903396474,37.82522114992025,45.122228691296186,46.92608880161424
2025-12-12 20:46:14.127882,Right,51.27918188320473,24.74727467421326,6.777626556213363,43.413894092693226,65.03993286078912,26.125860312298755,34.1724976159021,40.7886788797623
2025-12-12 20:46:14.130948,Right,31.363919513154542,4.977222792163957,-14.340400148037588,22.347623785419273,55.26349630006007,5.922778507199837,14.144722634213394,21.579012551912456
2025-12-12 20:46:14.133957,Right,35.77030337236647,12.459929645148804,-6.311338185805653,26.506260069654672,38.50574011776189,11.607729888797621,21.83473125414457,24.837208129960345
2025-12-12 20:46:14.138960,Right,48.32690340699628,26.346577371790772,7.330044881149661,39.10981493332656,42.30259202385787,22.388430723258352,33.14501688920427,34.723346116021276
2025-12-12 20:46:14.142969,Right,33.65340096477303,9.428131663109525,-10.643433531215123,23.556434807222104,51.407734989435994,5.208547998066933,12.949535958177876,18.20685785303067
2025-12-12 20:46:14.147001,Right,9.042520242510363,-16.407889445516048,-35.49977633354138,-2.244887907334487,40.18796491352259,-18.566422457326553,-13.43611454917118,-6.8109434309153585
2025-12-12 20:46:14.151014,Right,15.684101299731992,-7.24543264922977,-22.974786831618985,4.375151700762217,23.954722768845386,-10.389496804018563,-4.542408930879901,-0.8165942878404167
2025-12-12 20:46:14.155029,Right,40.75403780715715,20.142305580084212,6.932959883910371,30.429190728682443,31.01418041875877,12.7200344900848,19.222097456207848,23.338073063030606
2025-12-12 20:46:14.158045,Right,37.5563844457065,15.997261264186818,2.837802342539362,27.71976291234023,47.605937777116196,6.374757000245154,11.062132456965628,21.306353471140028
2025-12-12 20:46:14.162089,Right,9.146357130608521,-13.045239402679726,-26.55189408881415,-1.1378521197038935,40.52874065101787,-22.4929942810777,-17.920215738740808,-3.7068337545060785
2025-12-12 20:46:14.167048,Right,1.0890758265450131,-17.914302910328843,-30.847401196253486,-9.27456675596477,17.49714903185668,-29.494679563584214,-20.231163723139616,-9.181938047026051
2025-12-12 20:46:14.171087,Right,17.593336349265883,2.292490046696912,-11.007938966999063,8.251218184581376,13.481168120299117,-12.878676046588225,1.5025724320366862,7.535850695174304
2025-12-12 20:46:14.175084,Right,17.3668075640162,1.8965055020453292,-13.667092389870959,8.516760524144047,27.97053849887743,-12.836224349070108,1.1874656402069377,6.303049342459417
2025-12-12 20:46:14.179115,Right,-4.53450891051034,-21.868786177277798,-39.14031884352153,-15.314669603852963,29.253428978452575,-32.32467377860303,-23.857305594508944,-17.743305388648878
2025-12-12 20:46:14.182125,Right,-4.146735239672125,-20.888309719659446,-37.58987003153379,-18.663790682439867,15.99659122194862,-29.466327572568844,-25.947141614473367,-21.767055618918675
2025-12-12 20:46:14.186125,Right,29.213180011996883,13.639730542105099,-2.178587811096804,11.065222917670326,19.338287523321924,2.2000551953315153,5.695790737896459,6.503377961940714
2025-12-12 20:46:14.190109,Right,48.40511591061659,30.328356909391005,13.909695163118158,27.244773346101283,40.990892129193526,16.6336958068714,23.45718611792836,23.693150756043906
2025-12-12 20:46:14.194180,Right,28.438122237319476,5.769202493669582,-11.008319096243213,4.677204109779268,44.302379786167876,-4.373933068840415,5.766771214235632,5.491554468891991
2025-12-12 20:46:14.199160,Right,7.003061723939027,-17.680971346300794,-32.92511609223584,-18.12676173053478,18.79782965964114,-20.621664588790736,-8.10547894272895,-14.268954252176627
2025-12-12 20:46:14.203171,Right,14.563308122902527,-10.327764111440047,-24.4089745700403,-10.53364663352113,0.5436211432242999,-7.907243181827653,4.413148920284584,-8.766152020616573
2025-12-12 20:46:14.207188,Right,23.570783523173304,-4.14187687519734,-20.08558622673445,-2.1559162544144783,9.349448269640561,1.3003577066701837,7.552319500624435,-4.777298973785946
2025-12-12 20:46:14.210176,Right,8.01219988851517,-24.07067764297244,-43.20884471755744,-20.340348043013364,17.788743865996366,-14.933705404371722,-19.042038452244014,-24.651096614572452
2025-12-12 20:46:14.214219,Right,-2.7728186549793463,-35.05662135666353,-55.62398738097909,-33.7103414809535,7.0649896986433305,-22.493757317832205,-33.61213037471316,-36.76697441874421
2025-12-12 20:46:14.218216,Right,19.30458119607647,-8.92120436939149,-30.036230050880476,-11.783317450783215,2.0383132098650094,3.6910982000044896,-7.382582130660012,-13.69128786821966
2025-12-12 20:46:14.222326,Right,41.79329451687954,15.251926233941049,-8.410892533947845,11.903780303211533,20.045552313138614,26.599461070894904,17.40341077392077,10.198972365549707
2025-12-12 20:46:14.226265,Right,26.98409669539251,-2.954755200567888,-30.55898686693854,-3.046085347465123,33.38323715496517,10.217372791550588,-0.10104681806842564,-4.624401461376692
2025-12-12 20:46:14.231279,Right,2.1650991028145654,-31.3017252398422,-61.30582241553293,-29.521861686480406,19.284797941771103,-15.402348295407137,-27.21138026486733,-32.49505388209218
2025-12-12 20:46:14.235288,Right,12.369948620063951,-21.33712321279745,-52.38956912567164,-20.83700440384564,4.413678687516949,-8.0816943392565,-18.647057276190026,-28.5694579641131
2025-12-12 20:46:14.238237,Right,40.054238603472186,6.28950690493366,-27.302053108863447,5.542295619241486,18.455627580944565,12.387240278352692,2.6649928127008025,-7.3249279590454535
2025-12-12 20:46:14.242297,Right,38.41886083660211,2.702980686270166,-34.97219327030996,1.6442879394962802,40.30675443841028,4.8945068353714305,-7.873943740254617,-11.288499687725562
2025-12-12 20:46:14.246311,Right,16.05536077184661,-19.880171883836738,-60.240329349421245,-23.434899748353928,36.01228521121084,-15.716541611302091,-32.27545376211856,-31.380263321567327
2025-12-12 20:46:14.250340,Right,17.545755389546684,-14.931205536493508,-56.060534307469425,-23.037949075063807,19.129973962182703,-7.924071229554102,-24.276320860393753,-26.593976108619245
2025-12-12 20:46:14.254351,Right,39.5755311747198,9.630023562873248,-33.21460271646447,0.04571532215413754,23.62091774988221,17.93952484770125,3.8747425482179096,-2.7832991217546805
2025-12-12 20:46:14.259293,Right,39.82626667262957,7.8179896250367165,-38.57203232205393,1.607850733144005,41.45064750051097,19.3433287192056,4.671949758921983,-1.6877360756261623
2025-12-12 20:46:14.263380,Right,18.010641773347743,-17.330261708430044,-66.30083882681902,-20.195582266354904,39.55994046187698,0.3468148924948764,-17.26370132833108,-23.19908152340213
2025-12-12 20:46:14.266382,Right,14.497236387469457,-21.602735359221697,-70.93839002177629,-24.61175750129405,21.510897880070843,0.40520296926843,-18.848760412995034,-28.43282492841172
2025-12-12 20:46:14.270353,Right,31.274623884644825,-5.304784856180049,-55.44782351938193,-8.943677949213452,18.830443118138646,16.25790139012679,-4.170133678311686,-15.605277488753927
2025-12-12 20:46:14.274411,Right,26.753276854251453,-13.045045493963698,-65.91818808714561,-14.844558287099062,30.65994547650189,6.720483729044645,-16.975635904487717,-23.333669925948925
2025-12-12 20:46:14.278426,Right,-3.9364258211135166,-46.68852237915053,-101.44756002777649,-46.81578723977873,26.202480482053943,-26.665471365162375,-52.96837014416815,-54.00011922088015
2025-12-12 20:46:14.282454,Right,-13.540559253306128,-55.07571116791951,-108.77648482787845,-56.60847340967666,5.705760225682752,-35.09507351534194,-58.856127259041386,-61.87087037704987
2025-12-12 20:46:14.287446,Right,14.859371066850144,-24.174949091619055,-76.47454885288607,-27.842089045883768,3.6605184535728768,-7.278159092489659,-26.097308640306437,-33.23903925774357
2025-12-12 20:46:14.291471,Right,36.44307987559296,-4.0693605023298005,-57.54036173815621,-7.647903563343789,24.736025633043027,10.40493882269584,-8.406096125101612,-13.65487986305925
2025-12-12 20:46:14.294462,Right,23.41049056834163,-21.041976092457844,-76.45311609003329,-24.462304175940517,32.44101070358738,-3.7685700340043695,-27.773077131796526,-29.333607693792146
2025-12-12 20:46:14.298471,Right,10.452842048354796,-34.783049413639674,-89.71380253577081,-41.04182731568471,14.229670700493443,-13.051122438919265,-40.070780454996566,-44.59989704890177
2025-12-12 20:46:14.302488,Right,24.821216357344383,-18.060429336221205,-71.00188412025454,-27.838743068041367,2.4505262624734314,3.1193009617090866,-21.761897575821422,-32.11837003567871
2025-12-12 20:46:14.306490,Right,34.74648508750397,-7.374930430942186,-59.592653221432556,-17.261214939000638,13.188960849060095,9.070261049908368,-13.177818153568296,-22.544219517696547
2025-12-12 20:46:14.310464,Right,12.797899960587529,-30.2371065888492,-82.32998674741248,-38.037090049772814,18.084829362407618,-16.730596512086777,-37.99257783442226,-41.74493424123466
2025-12-12 20:46:14.315523,Right,-8.297003296484036,-49.24757043374484,-99.44342713771402,-56.82210306893285,0.17846349193132482,-35.40243993276454,-53.73664217412079,-57.78836118548634
2025-12-12 20:46:14.318518,Right,5.134668542250438,-30.412645974323823,-78.02002845578318,-39.16652963647448,-12.293445752275147,-16.010727216724263,-29.36022981080987,-39.79109068454136
2025-12-12 20:46:14.321535,Right,23.490143807393906,-8.429785187240668,-55.59162790893242,-16.055962229129364,2.037475264445675,6.525929751262083,-5.921392881666179,-18.348728934013934
2025-12-12 20:46:14.326546,Right,6.399137182157574,-25.10469664591892,-72.94277770451299,-29.572031361262816,17.069106842587644,-7.315754088092945,-24.62069701800374,-32.14880739199637
2025-12-12 20:46:14.330565,Right,-22.776647458362277,-52.51141448164799,-98.52284109162065,-55.749937799194186,7.090123720965494,-31.786158579807307,-52.05620566818334,-57.00754840780269
2025-12-12 20:46:14.334532,Right,-18.440155011636307,-43.366745253785666,-84.98045955963607,-47.64076999710937,-5.640038731515233,-24.19394769779774,-40.45245242344208,-48.90605765530199
2025-12-12 20:46:14.338601,Right,5.737581653915186,-16.02509349519778,-54.00604577557169,-19.680234736801765,7.162415692426293,-1.1107773020339664,-11.959272523888558,-22.50519714432903
2025-12-12 20:46:14.342609,Right,4.550386776227242,-17.960860170967408,-53.91925599805836,-18.67005190626969,26.099932218683534,-3.8999967041427226,-13.781682630514297,-21.588181849583634
2025-12-12 20:46:14.346618,Right,-16.33940642437119,-38.64389772255504,-71.91558954883294,-38.40048227666466,18.267020086903358,-22.02431848667402,-32.206740230974276,-39.26793848552097
2025-12-12 20:46:14.349601,Right,-15.795615811098287,-33.55065989372213,-63.27857752624914,-36.155301296076686,-3.9735773697593686,-17.06266082490947,-24.67124895468237,-35.69393093684357
2025-12-12 20:46:14.353617,Right,3.216790501912328,-10.008699103308288,-37.90732271738307,-15.417316267509705,-7.154180932804593,2.006839307258815,-3.7590208983367575,-15.56058923648925
2025-12-12 20:46:14.358636,Right,0.43566311732547547,-12.672303290637274,-40.644342999192304,-18.20740099021259,2.5011213469315408,-4.1484834833127024,-12.959851488683398,-18.60807762980039
2025-12-12 20:46:14.362666,Right,-23.837793009074858,-38.0629574399195,-64.75100905547151,-43.70026438944842,-6.142012773796523,-29.182337621334966,-41.413724933322555,-42.96182451298955
2025-12-12 20:46:14.366660,Right,-27.62556979933038,-39.659797525617705,-62.36111736483508,-47.3800784119976,-27.933558953209285,-30.43094411662173,-39.98055718734349,-46.48745785236497
2025-12-12 20:46:14.372679,Right,-5.858194479533267,-14.649863839866157,-33.463457434227166,-23.57720005938063,-29.362513358186334,-7.91031692800243,-11.394762427099522,-24.71932815983928
2025-12-12 20:46:14.375696,Right,-1.4328894208829297,-10.016502428475178,-27.083461685437214,-17.17073092284045,-11.686049741121678,-5.5601241416852645,-6.857090421203793,-19.869464693800182
2025-12-12 20:46:14.379710,Right,-25.964489539488568,-34.94560574553452,-50.37776768596814,-40.60543610839886,-10.479151018264702,-30.268218791582512,-32.97349216564817,-42.390129789639104
2025-12-12 20:46:14.382716,Right,-37.85268885397727,-43.17313962735989,-55.10522620946358,-50.67538345933281,-31.24706753198688,-38.83160576185401,-40.822156387759605,-51.22414015819959
2025-12-12 20:46:14.386726,Right,-19.514723298834724,-19.084766797252087,-27.670704945601756,-28.911521676545817,-40.47987646506135,-17.45221597872387,-16.865100265265028,-30.214153466760763
2025-12-12 20:46:14.390733,Right,-9.641005115643566,-6.753415046953705,-14.566483418067946,-15.642490809716037,-28.171680079300586,-6.278491470435256,-6.629369305122964,-18.04423980250249
2025-12-12 20:46:14.394757,Right,-30.926772978593362,-28.354238542249732,-36.267613416908716,-35.179535807817956,-25.646581866736597,-25.150474763279817,-29.38210638052078,-36.599056811879564
2025-12-12 20:46:14.398728,Right,-47.73905352607653,-43.3869590628492,-49.53331627465377,-50.96672814584235,-45.61411736075752,-38.16611645492685,-42.682431386521785,-50.62271166550636
2025-12-12 20:46:14.402769,Right,-31.726230777800083,-23.358660558649717,-27.071963905156736,-32.92892727325852,-56.434462617771715,-20.527114567949866,-20.80784854666308,-32.54338045591794
2025-12-12 20:46:14.405775,Right,-13.787154287358135,-3.6690428339225036,-6.996217065541714,-12.486501456060068,-40.13743534192872,-3.3433489338531217,-1.5464166683595977,-12.802007681239047
2025-12-12 20:46:14.409763,Right,-26.04732833817252,-17.059062221174827,-21.12464051563802,-23.656513684940364,-26.410906892531784,-14.348827600535515,-15.498744997403264,-23.04966286677154
2025-12-12 20:46:14.413832,Right,-42.77956439621266,-33.622288178919916,-36.81085662190526,-40.801083200698486,-38.495953073221244,-26.86269435946997,-30.724265556491446,-38.73715897072907
2025-12-12 20:46:14.418857,Right,-30.656317691333243,-19.090565172555216,-20.391383151942136,-28.92269353166921,-51.50293342094119,-12.829336120652442,-15.668825219489008,-27.67288213718348
2025-12-12 20:46:14.422832,Right,-12.038798411882453,0.3905699194929184,-0.6356943833598052,-9.644337913039635,-39.573103656381136,2.556051900914099,0.6509771935270692,-10.772443656893302
2025-12-12 20:46:14.426777,Right,-21.851062865265703,-10.825473470202269,-12.48128025099868,-18.466619440740033,-22.948871701250027,-10.499850471969694,-14.44430357796955,-20.245811058390245
2025-12-12 20:46:14.429843,Right,-40.83496389967331,-29.20462298399434,-29.163298932355247,-36.07731050790608,-28.764425026671233,-27.55034103360049,-32.50924394231697,-36.287058285939565
2025-12-12 20:46:14.433782,Right,-31.939101925538125,-16.42270644884411,-12.469464838053682,-24.68815896343949,-41.06791226530186,-14.250697515184584,-15.840031868618098,-23.64461203385872
2025-12-12 20:46:14.437855,Right,-11.402015958759876,6.585141435003607,13.123267669161578,-1.0791744710950297,-33.289117036154494,8.177112870196652,10.343730148397299,0.12801828077135724
2025-12-12 20:46:14.441867,Right,-19.622033583429584,-3.1185266779484664,3.8571793597584474,-7.267277512342844,-20.040403585517197,0.5260673779393983,2.4310646668254776,-5.3293769888041425
2025-12-12 20:46:14.446813,Right,-44.74203262710216,-29.478811744305858,-21.177580945786758,-31.5958545397516,-29.312640156837006,-21.859810259740698,-21.343424151466024,-28.657234380843875
2025-12-12 20:46:14.450902,Right,-42.85511798693915,-25.115715537729557,-13.622843376542733,-28.80558775226382,-47.60172768288248,-17.35951324414964,-15.187733147751715,-27.154711486771703
2025-12-12 20:46:14.454901,Right,-18.940177599979506,1.8227617608190485,15.384400489649124,-3.5448073283005215,-42.81816659008109,4.560221524177905,8.778935859849298,-5.3172434076805075
2025-12-12 20:46:14.457902,Right,-17.414286653176532,3.390008710375696,16.427858448561892,-1.281506449020526,-23.424656022802083,1.6429464666798594,4.177908213216142,-5.1789906158192025
2025-12-12 20:46:14.461924,Right,-39.61304963978182,-19.11972541992145,-6.580248000896972,-23.34726352873986,-23.226408045771677,-21.36432643932494,-21.38657674692149,-26.763099824627716
2025-12-12 20:46:14.465956,Right,-42.54371391489258,-19.334175478408724,-5.502260724519147,-25.36197288594849,-39.96475393096989,-21.546459471745038,-19.989639767554763,-28.0259485054994
2025-12-12 20:46:14.469962,Right,-20.807240581365477,5.298733599553088,20.077614417788936,-1.801043500425294,-41.84276371112355,0.7196338544708851,6.001982709047297,-4.5869563412961725
2025-12-12 20:46:14.474936,Right,-17.787204980515526,7.172617521209759,21.005986529955408,2.1389138043959974,-28.578372575502726,0.6311835314772907,6.531082110803254,0.387303073246585
2025-12-12 20:46:14.478972,Right,-45.0058254459218,-23.01165100203798,-9.583035773257507,-25.916715469702467,-32.061855216205004,-28.46733317093822,-23.976099399791565,-24.640646518590074
2025-12-12 20:46:14.482987,Right,-59.67194564877718,-37.668697063538275,-22.054640984750222,-41.57622747905407,-54.96489511599793,-41.50780117133763,-35.39186756714116,-37.96196073339161
2025-12-12 20:46:14.486000,Right,-42.120547679267474,-18.179779241094366,-0.1973949950770475,-23.62044588768913,-62.39776346612052,-22.372316064705956,-12.36587182006042,-20.206219512663665
2025-12-12 20:46:14.489985,Right,-30.40335197780223,-6.7474075493373675,10.890347133496107,-10.5350934760354,-44.40950001699093,-10.754283411893994,-0.26437386524048634,-7.779972065363836
2025-12-12 20:46:14.494002,Right,-48.35461421305081,-26.061836945500545,-10.083879342029832,-27.03225566491892,-34.019671869093145,-27.01347937327955,-19.904649886328116,-23.483422319266538
2025-12-12 20:46:14.497960,Right,-61.19055061900144,-37.079666523361084,-21.494774369255538,-38.27042093074124,-46.76344511308707,-35.66427604790442,-30.033158020585688,-34.2617268109243
2025-12-12 20:46:14.502024,Right,-41.87725285383931,-14.15106116968309,1.1701891156753845,-17.506971714152314,-54.190095150712295,-15.12744169797952,-7.007658737293241,-15.142852369674074
2025-12-12 20:46:14.507034,Right,-23.122247839390184,4.477449616337253,17.388802813280563,1.1395287897867092,-39.216468693251954,-0.7754711915586086,9.260745274350484,1.6503227367684303
2025-12-12 20:46:14.511043,Right,-36.85578578527202,-13.155379846633878,-3.0899937572066847,-14.705980284779798,-28.308791682953597,-19.194761755697982,-10.019509757607011,-13.950530040438025
2025-12-12 20:46:14.514057,Right,-54.887723152016406,-33.049643775968434,-22.8047933406815,-34.85144633926393,-40.551204145362135,-37.46831103155637,-28.121066921346937,-33.083270944611286
2025-12-12 20:46:14.518000,Right,-41.505682568153134,-17.587359947316145,-4.898130800747822,-21.58277112304131,-49.92595437485579,-23.042825471602555,-10.87366516516704,-20.609819432549557
2025-12-12 20:46:14.522062,Right,-19.438239942493965,6.115170689623483,19.692184625301707,1.5756311191980785,-32.970266268384876,-2.997274080698844,10.119112882748595,0.6197341523038631
2025-12-12 20:46:14.526083,Right,-25.935552290451596,-1.189433132931299,11.23960905866079,-4.476715721328219,-13.290162587618397,-12.032411916596175,-2.2228674650941684,-6.100445196010696
2025-12-12 20:46:14.530087,Right,-42.13474171340931,-16.97102846866983,-4.7141169381061445,-20.51462927614193,-19.132094965141732,-26.807235511594627,-19.89486451771154,-22.214245954844955
2025-12-12 20:46:14.534115,Right,-29.83934303597198,-1.6296661675187352,12.016627839136618,-6.83802769250542,-33.07018604902987,-11.14016730693038,-3.1424975230293057,-10.541233915369958
2025-12-12 20:46:14.538055,Right,-6.200133408441616,23.258805731911707,37.31774353134597,18.87686287658653,-26.48668174692284,13.059965035728965,22.506813836982474,12.22764070346966
2025-12-12 20:46:14.541134,Right,-14.00920099234645,12.651116987985006,25.90032429698931,11.936356606434856,-12.896108813234605,3.8752926783490693,11.631620739921345,4.926742032086622
2025-12-12 20:46:14.546146,Right,-41.996459604277334,-17.669628043815464,-3.6967212378103795,-16.545624164155015,-20.94787429873395,-23.60827176114981,-17.376206361739605,-21.484583972462133
2025-12-12 20:46:14.550164,Right,-43.98021005921328,-18.042636341757316,-1.5610439020347826,-18.730218561846414,-38.54583897174598,-23.88966566936506,-15.690406546964368,-23.021159564599657
2025-12-12 20:46:14.554170,Right,-22.250190479790035,5.623308438596723,23.076783652970647,3.7221419324632734,-33.491344107293116,-2.033123176803201,7.573233415314462,-2.3207783192301576
2025-12-12 20:46:14.558218,Right,-21.64169346063136,4.6694863158227236,20.399230610226027,4.815511967175553,-13.337476501554193,-1.1843533521023346,4.461577888556349,-1.9763232976583822
2025-12-12 20:46:14.563210,Right,-46.315894628321985,-21.931116620940884,-7.521824943484717,-20.176311417711986,-12.623178113070026,-22.314098715094588,-22.4545170620695,-25.007235158220283
2025-12-12 20:46:14.566202,Right,-53.07228085281531,-26.720891209643014,-11.217452608795156,-27.028835394106864,-29.49593279356486,-24.944283406406612,-25.863800710401847,-29.931219318870717
2025-12-12 20:46:14.570242,Right,-31.510424461826915,-1.9157400016047177,14.930106672733473,-5.009828524107434,-28.541640731120424,-4.559176407496125,-1.8235125309656723,-8.053388868964248
2025-12-12 20:46:14.574245,Right,-22.13511902711616,7.2100069244916085,23.76638600365368,4.037144891259231,-5.403265311200812,-1.03341807103061,3.6434533593237575,0.7393745276422123
2025-12-12 20:46:14.578291,Right,-40.92513360721932,-13.571146531656268,2.9848845703686493,-16.14412743923458,5.478986998867185,-23.510863072668144,-19.794770408545446,-18.219332977500017
2025-12-12 20:46:14.582280,Right,-51.14221069759515,-22.7510855397486,-4.0499411067203255,-26.75748575079342,-6.38652331862977,-32.642092520651204,-28.443838945764583,-28.19327238103142
2025-12-12 20:46:14.586235,Right,-32.88648526321049,-1.6908886812270794,19.20593924516288,-6.81808098514739,-10.670366278209258,-12.901533435269812,-6.294488287632703,-9.885179455683101
2025-12-12 20:46:14.590316,Right,-18.61315002140327,12.091810462035937,32.70479074041941,8.960465366173594,5.279951977929159,0.2139822035933321,6.794011475376465,4.200351016763307
2025-12-12 20:46:14.594338,Right,-28.796962375447038,-1.6252104570630763,17.773548850815132,-2.5087882990010257,13.270506835193373,-11.82129497986898,-7.861182781398384,-6.770381519196235
2025-12-12 20:46:14.597343,Right,-31.57023562296672,-6.272296602164715,13.645316542025284,-8.697424633737683,-1.2369531768999877,-16.173150433271076,-12.426452469466312,-12.327824444539146
2025-12-12 20:46:14.601350,Right,-5.315768847824074,20.181507113673433,41.16041668359139,14.542160376451648,-11.33934886829229,6.045522210915806,12.520034197386849,8.65501357186804
2025-12-12 20:46:14.606296,Right,14.10561272407358,38.01561965003566,58.00760929007447,32.39102354410352,-0.16824466708203545,18.676808470354445,25.253741247059224,22.799525426707987
2025-12-12 20:46:14.610296,Right,-4.3616297902408405,16.570385508694017,34.82708333800929,13.659177694284153,7.193063836879446,-3.7593823856441304,-1.1629066615059855,2.6637919524437166
2025-12-12 20:46:14.614374,Right,-28.43232499799342,-6.833944172965857,12.04361806129782,-8.815621038600511,-7.733600188832497,-24.551720972154726,-24.48847950749405,-18.79686669077637
2025-12-12 20:46:14.618408,Right,-18.935225726170756,7.46906583998134,28.507609954973304,4.188983644442487,-20.327673865402176,-7.908100555934652,-6.623690065498522,-5.233004720459576
2025-12-12 20:46:14.622416,Right,0.9736227466637501,30.520925240332872,52.0102877947611,27.441812984401622,-8.3026437687804,17.249639977741026,18.476720637758262,17.805595125435502
2025-12-12 20:46:14.625432,Right,-10.184465715246915,18.207011611928465,38.70863300357814,17.435894825757714,4.881089621601859,9.44638804508213,6.755090696155094,9.21680001603454
2025-12-12 20:46:14.629420,Right,-36.659677047195146,-9.344014595833869,11.770722558059788,-9.284569236646348,-8.947841405613872,-13.290717446674535,-18.44036311312084,-14.573564544920373
2025-12-12 20:46:14.634441,Right,-35.200970404686814,-5.997180730671971,17.17250370052534,-7.4764551129046595,-30.415540798960137,-10.380444939484732,-12.314157353590417,-11.388232035715191
2025-12-12 20:46:14.638514,Right,-14.069362017246021,16.30157327284178,39.60732090850797,14.217064637021394,-26.7631833582127,6.401091351181094,8.931031558808172,9.6420449960533
2025-12-12 20:46:14.642466,Right,-16.073367896984564,11.869704814936995,32.858910449382165,10.711127486112673,-11.332291414648353,-2.266818889776914,-0.04436004023591522,6.402405385870225
2025-12-12 20:46:14.646496,Right,-38.52725665909384,-13.113064559041959,6.4946577509090275,-15.513989462731843,-18.27654909442208,-27.43604655746458,-28.209814664442092,-17.80980972998441
2025-12-12 20:46:14.650500,Right,-40.551318757861736,-14.418640631243761,6.248013875276229,-20.622194533934817,-39.750156535519636,-28.42841902795044,-28.752907719634095,-21.849640717475268
2025-12-12 20:46:14.653454,Right,-21.864716842988855,5.423723405536293,27.022902041238922,-1.871680541204114,-41.51477929847897,-9.351451589689532,-5.921360678283236,-3.7530438234607573
2025-12-12 20:46:14.657530,Right,-22.439896132884314,2.9878211727955204,23.925012961981338,-0.11477187516356935,-25.78143071726663,-10.279245860478113,-4.467493524760357,-1.39844066301157
2025-12-12 20:46:14.661542,Right,-45.19763067719032,-22.424411417563533,-1.3878645534605312,-20.65767730463631,-25.060099212780187,-31.02291790902018,-24.39150736324882,-18.587084715039964
2025-12-12 20:46:14.666559,Right,-49.465064693089516,-26.900411626254936,-3.51399195139129,-23.94822932554962,-41.18732481664483,-32.00327239280523,-23.48144987933847,-18.45461331053957
2025-12-12 20:46:14.670570,Right,-27.846067595208297,-5.317443845950038,20.234342292371366,-2.863679380097892,-43.79601511727378,-10.361660661568749,-1.1331935571652139,3.816414987817552
2025-12-12 20:46:14.674605,Right,-21.64255211474665,-2.449605786077882,23.16703645895541,0.7585250114825612,-29.446489658184873,-7.721832019753492,-2.699366137752804,7.939093178058101
2025-12-12 20:46:14.677616,Right,-43.7978976601662,-28.654959169733047,-2.826231022923821,-25.367764617858484,-28.24875089310808,-32.30777783746453,-32.64333195369545,-16.567842995049432
2025-12-12 20:46:14.681610,Right,-52.55619727488374,-37.44858162865421,-8.902526615311217,-36.824079720576265,-44.43340239924146,-40.011071885965066,-39.549650099415885,-26.613861034900765
2025-12-12 20:46:14.685662,Right,-28.140044137602672,-10.702560263369378,21.201513729389262,-12.295325174825848,-45.16751326336089,-14.250540462511708,-7.852690989526309,-2.18251941908602
2025-12-12 20:46:14.689639,Right,-11.757075315210386,5.131889650827361,38.33743441322622,5.245407750859158,-22.503852253583318,1.432481828447635,10.823722859753616,15.586540496537054
2025-12-12 20:46:14.694689,Right,-32.53739605946612,-18.43207580292801,15.19482656591208,-15.181676633743336,-12.542677383833507,-18.767269993295486,-11.659337833258178,-2.6952376645131153
2025-12-12 20:46:14.698670,Right,-55.16455373202916,-40.76312285610766,-5.342529043720788,-37.114176813574886,-31.835511074532405,-36.91536356210054,-31.380586055900494,-22.96361307632833
2025-12-12 20:46:14.702677,Right,-44.3176404814003,-26.223357935985405,10.750262398354607,-23.471997382916015,-46.1907174978478,-21.672301922997576,-13.816125609148003,-11.194955537306669
2025-12-12 20:46:14.705698,Right,-27.651896573595877,-7.444336730059149,27.71981034430064,-2.7905526804061083,-31.025853973864287,-4.447915740216558,5.164933177067724,5.509412588358828
2025-12-12 20:46:14.709701,Right,-41.88356587896851,-22.25529846688005,8.682553760152587,-13.89272246388282,-13.447468536898668,-18.67094854428069,-10.989859339904797,-8.056587893857795
2025-12-12 20:46:14.713693,Right,-63.81369465843454,-43.41378540602091,-15.364440169194495,-33.899518881844415,-19.997328529148945,-37.33375474233253,-31.71085413774199,-29.015846979506023
2025-12-12 20:46:14.717671,Right,-54.738833374969545,-31.72643121749934,-4.465097924672591,-23.443348522840097,-29.010907287600276,-24.93659032805226,-19.05327896466042,-20.53629422263839
2025-12-12 20:46:14.721734,Right,-31.88347941308166,-9.517040952880052,16.7311223943434,-0.6336071996520332,-14.017413021087123,-3.4073795223011984,1.090443452965701,-0.45786841807421297
2025-12-12 20:46:14.726756,Right,-32.610081942802935,-15.931800912028848,8.744960754645945,-4.271828337914485,6.298094989928359,-7.990645281290199,-9.266673600544891,-5.091303412824345
2025-12-12 20:46:14.729838,Right,-42.82375421214965,-31.788365696560504,-7.189616236008078,-19.42428739854222,3.9852650879402063,-19.60471699674963,-26.756936277659406,-19.738593093730742
2025-12-12 20:46:14.733821,Right,-26.62364536059613,-17.802426365145948,7.910257399518741,-7.734922520219698,-6.473568059467652,-3.146299125462974,-12.44598839761602,-8.721166078310489
2025-12-12 20:46:14.737773,Right,0.37016090845281724,6.949197943751642,32.038218106901695,16.09075662908799,2.3559273322607623,21.719966285148985,10.730192769286077,13.143107505831722
2025-12-12 20:46:14.741823,Right,-4.470075208097114,-3.062132970564562,19.330821676543565,8.432456019385427,17.321670849101793,13.382806861674908,-2.2265156916510023,5.062761912224232
2025-12-12 20:46:14.745857,Right,-31.824029316099768,-35.09658459399725,-14.210564986186,-21.66342564700244,8.747163981381163,-14.718790782364522,-34.06274938101342,-23.194325873333582
2025-12-12 20:46:14.749855,Right,-34.3342118814835,-38.45207975952508,-16.533433263866755,-25.631999268622167,-11.9898214705172,-16.21516065092146,-33.98661509635349,-25.791286111936643
2025-12-12 20:46:14.754852,Right,-9.693399721632886,-13.734879648203787,8.863951260509566,-0.771655936154275,-9.619779636908788,6.713941373058333,-7.601927305953723,-1.4624970352215314
2025-12-12 20:46:14.757856,Right,-1.8906694456527475,-8.522517864697875,12.308112535934924,7.599282364282772,12.089436757531075,10.707672590669972,-4.204025370843738,6.4496129100461985
2025-12-12 20:46:14.761859,Right,-19.26655826717615,-28.70000117341624,-10.082831932480985,-9.778314613948169,17.512346453186183,-7.820243851852865,-26.309923381260887,-10.306255072084241
2025-12-12 20:46:14.765818,Right,-20.873762564711797,-29.781817932122067,-12.04004352523043,-11.430421690281946,3.692909078716184,-8.271211157993093,-27.81170898263008,-12.663468812699648
2025-12-12 20:46:14.769892,Right,4.494492647980223,-3.4003227835746657,12.706496268081537,13.836740119790193,2.5968313419652986,15.07844060546995,-2.192310199025087,9.288703365898982
2025-12-12 20:46:14.773912,Right,15.938410600974748,4.763694725705136,16.516175859776922,23.652421710003182,18.95040107533714,20.645563733578456,4.900701297097839,16.189575508602502
2025-12-12 20:46:14.777938,Right,-2.977669181447709,-19.685343231991283,-12.744027789120082,1.1599717442586552,21.361383227551414,-2.1417688442015788,-18.24737959443155,-6.025822209161561
2025-12-12 20:46:14.782947,Right,-12.66037845324172,-31.208943951241963,-26.79899842694431,-11.832517221533635,2.7255649578874,-11.242797435290413,-26.62215895317422,-17.34904838940929
2025-12-12 20:46:14.785900,Right,9.852330519053794,-6.712890540504304,-3.9128644659340353,9.785866088765033,-4.1268828331449185,11.789267078693229,-1.6003648011574114,4.342700046061509
2025-12-12 20:46:14.788940,Right,28.970289802455227,12.959468934190227,12.80109328234903,29.443056276602874,13.556040745432256,28.481977012270363,14.716240006131557,23.082952705599382
2025-12-12 20:46:14.793978,Right,16.707572720159078,-1.6097799238268635,-4.537456179463334,16.440289910373394,23.92148352044751,13.560868634089275,-2.823297594055475,10.216672110935178
2025-12-12 20:46:14.798003,Right,2.9557884445457603,-16.89908581522468,-19.863193198692898,-0.056045912659101305,7.8792439199460205,-1.8228374835744034,-17.826175649865036,-5.891653634666
2025-12-12 20:46:14.802005,Right,16.681513595671277,-3.2288308859497192,-5.0702926232024765,10.53634615543524,-7.6485026832378935,8.410170737017324,-3.0543216016048973,3.5593568249514647
2025-12-12 20:46:14.805960,Right,30.49411460426927,8.61374003742094,5.592786557774161,21.97395789374241,-0.7968065399982152,17.24948771480922,8.423061073499412,13.699929397969754
2025-12-12 20:46:14.810036,Right,13.32551098965996,-12.172222249042534,-18.287564351554465,3.105560859070465,6.078979215344589,-0.6931552381538495,-11.924531882148585,-4.077517607815025
2025-12-12 20:46:14.814032,Right,-8.555602986434678,-34.458121845815185,-42.42953837296045,-19.41998543205409,-9.042847098884522,-17.368433194547833,-30.901037456773338,-24.301800368495606
2025-12-12 20:46:14.817052,Right,2.221262174534786,-20.16087866003545,-28.589676778006833,-7.635648530505932,-24.487159997224808,-1.8903462558901083,-13.52814364142614,-12.47831501665678
2025-12-12 20:46:14.821134,Right,25.504566562205582,4.981258903819253,-5.288142349920236,17.080960789289747,-15.037218484736513,19.87682290932571,10.67266598742026,10.032333401171854
2025-12-12 20:46:14.826075,Right,21.009233208576916,-2.140866940984779,-15.993774500937434,12.091734427856863,-0.14683563391008647,10.494108945869812,0.6284051707516483,4.0131167081490275
2025-12-12 20:46:14.830042,Right,3.225699704285944,-23.037084466210217,-39.64144008240328,-8.635195188317084,-8.493411792791449,-10.326735965154512,-20.613014034575826,-15.54675304916691
2025-12-12 20:46:14.834097,Right,13.809478359933564,-13.160589005987276,-31.213947492380612,-1.9988819002537639,-24.979991211439483,-2.2578814132830303,-9.191547131951666,-7.9582760827115635
2025-12-12 20:46:14.838229,Right,42.18783414928839,13.860326607744355,-6.795146703680075,22.237554064127835,-20.03306610869913,20.254579836171615,17.03627362264524,16.32117710660259
2025-12-12 20:46:14.842128,Right,42.65839147119914,10.386618291198829,-14.36152209685315,18.25934619273903,-6.511995511282294,14.020558447346048,10.747320320153449,13.70641916286786
2025-12-12 20:46:14.845151,Right,17.656043459628563,-16.76509849487047,-43.93524526183319,-10.25349281828312,-16.50463551408029,-12.783042274721083,-17.07699308366864,-11.908630719673965
2025-12-12 20:46:14.849149,Right,12.511887316421053,-18.672792545692573,-45.12249362532566,-15.602288434492948,-40.61777326475567,-15.251612884478163,-17.384772618273928,-15.73338917028559
2025-12-12 20:46:14.854167,Right,30.856462869884126,4.475628009338834,-20.72564580958897,6.13494476766391,-44.46066171502753,5.60782416395341,6.130493902128364,5.5020495223334365
2025-12-12 20:46:14.858104,Right,29.41277914611055,4.578290409161127,-20.71113599497039,9.258609188811533,-31.987174450456223,6.682561077799619,5.821306479949271,9.240142574130005
2025-12-12 20:46:14.862185,Right,1.6618172664020676,-22.824973997405323,-47.588499628362115,-14.87683629912135,-37.18024093531858,-15.29520267996304,-19.074746298640093,-12.027860109992616
2025-12-12 20:46:14.866205,Right,-7.749398161009594,-29.090510804580845,-51.33175265059799,-21.887031621887218,-59.94293729705532,-18.202145671446488,-20.920102774767656,-17.25799819320082
2025-12-12 20:46:14.870219,Right,14.987244708991057,-2.590210404474419,-22.906499236149102,2.077700334027213,-65.37050927130622,5.631646292687947,6.630737415476688,5.328405171037048
2025-12-12 20:46:14.873215,Right,26.98363867517037,9.309798713936289,-11.983096484647831,13.51636239823074,-47.893696017395996,13.913391736889025,15.229455473161579,15.04372586123418
2025-12-12 20:46:14.877233,Right,6.42071649893478,-13.514809291051279,-36.457022269974914,-9.177583328058063,-41.63253204600187,-8.23796026204218,-10.532192806098465,-7.010206081725755
2025-12-12 20:46:14.881187,Right,-9.562967298674266,-28.670731948282082,-50.86366358648047,-26.914735086053042,-57.40486483105633,-21.41142524731913,-25.59303618395643,-23.51437314963505
2025-12-12 20:46:14.886249,Right,4.386553636009921,-10.874644787949364,-30.999941035857773,-12.644492182739668,-63.46662167807881,-5.320839790621903,-7.2067118485583705,-9.747608670352065
2025-12-12 20:46:14.890251,Right,15.67428772603671,2.818807155450486,-16.451133745487823,0.476599468569475,-45.30223040204146,4.72202628184823,5.580738282972561,2.715658021716081
2025-12-12 20:46:14.894310,Right,-2.0390912041020783,-14.424953717545577,-32.93026681511037,-15.48836025955461,-32.10058354722423,-13.632905773041784,-11.948423073517915,-11.82213693642916
2025-12-12 20:46:14.897297,Right,-17.611574452959758,-28.08686267117173,-43.217250469864666,-29.766801896837023,-41.91747945129828,-26.625980681437795,-23.56386160094553,-24.238638889715105
2025-12-12 20:46:14.901295,Right,-1.8921977797690488,-9.502829213705354,-19.56171665355032,-12.635903154067819,-49.457419545131415,-8.609720403015672,-2.884743120168423,-7.472183831321331
2025-12-12 20:46:14.905316,Right,15.714296281168572,7.665215975438059,1.3469985325245943,6.224393119356137,-35.24247829043452,8.231980530255896,14.159317919076784,10.057519376857499
2025-12-12 20:46:14.909336,Right,1.5259825711946178,-9.876170902516606,-13.709364693753741,-7.7105840008453015,-22.456317173942807,-6.87874397259111,-4.227353748064161,-3.3917146191677148
2025-12-12 20:46:14.914315,Right,-18.90218226743309,-30.67647273174498,-31.06221347605424,-28.302673890306323,-32.08805850755016,-25.701219041704462,-24.83590341512081,-22.723708182791142
2025-12-12 20:46:14.918339,Right,-6.768090101671987,-13.899522541571173,-10.61840904548444,-15.023754559646022,-40.1471533646436,-12.357833196895626,-8.517413145411865,-10.439372754105989
2025-12-12 20:46:14.921298,Right,19.044820449809777,16.41095912471303,20.601460716792644,13.382079433208673,-19.101087486989854,11.20326401546754,19.05656517863372,15.494715707417981
2025-12-12 20:46:14.925309,Right,16.445449896233185,14.410051272066653,17.05733504505406,12.978220053899804,10.581206392274908,6.116965732575409,14.84250327580412,14.73297759288107
2025-12-12 20:46:14.929387,Right,-3.9252619220687848,-6.208846422721308,-3.9773603808316693,-6.374220239618353,14.879338742601249,-12.278839780230555,-3.8609329418991365,-2.6378249242952734
2025-12-12 20:46:14.933377,Right,-1.349726512925372,-1.3978960761160124,2.477979811403202,-2.4442749771244507,4.4681331990868784,-4.840602317830417,5.034428055757758,2.120943264485504
2025-12-12 20:46:14.937417,Right,17.60787432948564,20.142099469382174,24.75884770792254,19.154431749581363,10.529708594051044,17.263980084568175,27.792111445944528,22.216964127040228
2025-12-12 20:46:14.941432,Right,12.51289111332244,15.398344532921783,18.641909916928853,16.43117797124728,25.620857883832286,13.92477496124775,21.28964194863744,18.50986644384102
2025-12-12 20:46:14.946443,Right,-12.31781939735265,-9.107542811501844,-6.49623086871361,-8.13440234525899,20.41946463142449,-7.56410715574475,-3.745575845629105,-5.008959241105913
2025-12-12 20:46:14.949449,Right,-13.121329069580497,-7.440256774087175,-2.82500147688188,-10.508589268373044,2.4405791754379607,-5.634373072434755,-1.0291275591730482,-6.649061038734544
2025-12-12 20:46:14.953454,Right,12.405434083205819,19.630749814366027,26.655108999340882,12.738507888983598,4.168628174680634,17.097987910336997,24.581599869924275,15.522761469293982
2025-12-12 20:46:14.957478,Right,20.928039861956677,25.690080051432233,33.31573858878255,18.42538800788566,23.172798769239307,18.913230761041632,26.24661622654594,20.464709917851906
2025-12-12 20:46:14.961496,Right,4.374606218693316,5.991311465319086,13.761628666037723,-1.13165382918271,27.43373022027299,-1.3398982625071767,3.9181077172888763,1.9071645053318207
2025-12-12 20:46:14.965497,Right,3.719521013454141,6.420080828460414,15.422637017909437,-3.1108736555495398,15.57818544638394,-0.9719261994891895,5.036146069884126,0.4126646385520871
2025-12-12 20:46:14.969507,Right,29.82296557086306,36.27464693267211,46.036501400543784,24.40605296646686,18.49555989097462,25.936797615866,34.56271246062033,26.267015316358084
2025-12-12 20:46:14.974475,Right,40.49382143203911,48.439440111918884,57.24612704726678,37.470357011676015,39.0845409063304,35.275910816225405,43.177506421162434,37.878534908375514
2025-12-12 20:46:14.977525,Right,18.606273139751266,26.177282535245467,34.79693545621558,16.82938349381675,44.31828615768154,14.092919557441746,18.28966250941903,18.242881958220096
2025-12-12 20:46:14.981531,Right,5.276530353428939,14.730981327007612,26.28244105264821,4.100844695188243,25.899526235871235,5.214323531970194,8.406733468028506,7.211953537636873
2025-12-12 20:46:14.985542,Right,24.32885151177379,37.32850541584412,52.601267178772105,24.639324375000342,16.041746282119675,27.914002319091196,33.53915339256855,27.809728057543907
2025-12-12 20:46:14.989555,Right,38.91365037230662,52.689641407110685,68.84017799371577,41.15853673599395,28.958535503980784,42.49221992287812,48.673656990571544,43.99779038595989
2025-12-12 20:46:14.993523,Right,21.292082455369837,33.23203762785488,48.18857560915421,24.392323480515643,36.79441018387138,24.502479130868323,28.415982618224916,28.702229608381458
2025-12-12 20:46:14.997593,Right,5.249180239259658,17.273688731102084,32.20678691460125,8.036275441251746,23.424299640024174,9.88691815525442,14.3255140377305,14.528334037811874
2025-12-12 20:46:15.002590,Right,23.376343994762465,37.702220956171004,53.797019395948155,25.4114326470185,14.618986512418246,27.523632913547885,36.730903750000834,32.33953628822928
2025-12-12 20:46:15.005622,Right,45.30015263590258,59.52824813361076,75.60266931216029,45.854547220349104,28.073675191577877,44.67633851411887,56.65812899444791,52.07222048092626
2025-12-12 20:46:15.009617,Right,32.05700658852675,43.20402090682728,58.38908139190971,30.27500956016229,38.15351571126644,27.022009462303345,36.72658160555693,36.94401865661894
2025-12-12 20:46:15.013624,Right,7.06975743331077,17.227613112285326,32.99841259726236,3.7524366752531932,23.234010955099166,2.325451967128572,10.300602010118382,11.49539018262476
2025-12-12 20:46:15.017588,Right,12.868643698153392,25.57372840818789,42.816130013343354,10.209978979753942,7.558010595119413,9.772729969164317,20.82859892988745,17.40671769319306
2025-12-12 20:46:15.021676,Right,33.99081292525807,47.59581463048198,64.18610717943375,32.72147034187765,18.081779725187516,29.017217243056763,43.51592559806977,38.58411425225495
2025-12-12 20:46:15.025677,Right,27.713883558622,37.731653505989016,51.54121989498526,25.817036330461633,34.75838340663813,19.256062817116142,32.58963630956805,32.44392827844422
2025-12-12 20:46:15.030715,Right,3.664793025687686,9.878511022763632,22.118752120193676,-1.2049633589576842,26.704375603670087,-5.410176962531538,5.100697145357117,7.9442219129850855
2025-12-12 20:46:15.033691,Right,4.990115403707932,11.093308512556177,24.159071070134814,-2.6581866065243958,9.25184766025177,-2.846095148252335,7.953091319481246,7.496471925351216
2025-12-12 20:46:15.036730,Right,28.02010436436649,35.35704763880676,49.18889142883927,19.850581372108536,16.891447364188025,19.51227172350987,31.86577157645661,28.75167229798535
2025-12-12 20:46:15.041706,Right,30.171046868174926,37.198061274160864,50.45453304935654,23.234963061920098,40.807491009806654,19.935847926956527,31.308053739585375,31.210537982418828
2025-12-12 20:46:15.045715,Right,10.536340266236948,18.173570321776424,31.35613478453888,5.299425143869485,45.665957812692795,1.0451834853398339,11.190871667683496,13.642110284195951
2025-12-12 20:46:15.049734,Right,11.645495066181866,23.24036488704587,37.578314674563444,8.213659563670262,33.66663764518853,4.3121615378961025,17.048169545602832,16.30484343131684
2025-12-12 20:46:15.053740,Right,37.60253765421476,52.6198643479911,67.00530463721589,35.560918320282326,36.29435445185118,29.665770162332635,46.093273688076806,42.50246861732194
2025-12-12 20:46:15.057701,Right,42.828655173113475,56.32853070695455,68.67365257502388,40.65170561743162,51.66518193023148,32.184010269191134,47.883060658442446,48.02198723565198
2025-12-12 20:46:15.060833,Right,15.754491463416343,25.640216353674987,36.652501691005455,12.091329949235842,47.79879616166909,5.282665578066638,17.09417157560256,21.73728900423157
2025-12-12 20:46:15.064766,Right,1.6939512781145822,10.999515203340707,23.289413049715222,-3.148406327613884,25.357384878692756,-5.387941148076351,4.964142472394087,7.065685099276379
2025-12-12 20:46:15.068827,Right,20.921705757838936,31.31292450374167,45.073189633432776,15.820574518409558,20.03737103398089,14.987826561348271,26.688390649123903,23.343166957069116
2025-12-12 20:46:15.073812,Right,33.60138380364333,42.175225946069986,55.10926964885584,27.870514489148718,38.20446416524646,24.749375079167038,36.431790841986185,33.08908285076541
2025-12-12 20:46:15.077819,Right,14.970294609250232,19.9063917971489,31.52724008817313,7.602860473563851,44.93568963379221,3.817144581834441,13.953091414610753,13.89309616274113
2025-12-12 20:46:15.081821,Right,-0.5892982947416385,3.803426561291417,16.38590455785743,-8.816476438384598,27.145203980111546,-10.99102011609034,0.1413234438496147,-0.6381491844185803
2025-12-12 20:46:15.084842,Right,12.965518319033436,19.943593773337852,34.52116857477813,6.521049417796348,15.510946573758702,2.869143598940127,17.42106728122417,14.010260204911901
2025-12-12 20:46:15.088791,Right,23.94193692054978,32.19295113287808,46.86870829620966,20.997559673915475,26.353549829242183,12.126829700409075,27.36367658180552,26.598242508802286
2025-12-12 20:46:15.092848,Right,5.295290814347936,12.825802080938956,26.057393929553655,5.048148132309507,33.09701493079774,-6.36694027200906,5.698222745319072,10.381730648894518
2025-12-12 20:46:15.096823,Right,-11.21603628239427,-2.8376373269438773,9.537967869018757,-10.69517208537627,18.6167716021082,-19.44026995146214,-9.430821865098551,-5.0891184545125725
2025-12-12 20:46:15.101888,Right,6.193295313069029,16.922622521167796,28.54810397989786,6.020772793588094,8.046084629992038,-0.26419617349392865,10.644546351331883,10.147260818452196
2025-12-12 20:46:15.105899,Right,28.318523933867255,38.443837751172396,47.81213193323674,26.418231668601948,21.113851774001887,19.0409914755885,29.235280011578652,28.875040428552893
2025-12-12 20:46:15.109924,Right,17.54412911619329,23.604130195355538,30.631983838371525,13.297497390253739,34.283183030845976,5.510850813676825,11.3690692615246,16.730256035174534
2025-12-12 20:46:15.112932,Right,-3.616078507403472,0.02744452284241561,7.29372199350837,-9.50153708912967,23.594875829341618,-13.888055920424904,-11.17260964543766,-3.841613399408743
2025-12-12 20:46:15.116950,Right,4.579420609310546,9.568956463153881,18.55424363002021,-1.0220549143195967,8.701646231183986,-2.537182439132266,1.143030570245628,4.484910709942596
2025-12-12 20:46:15.120966,Right,24.995870659101456,31.02090812006645,39.59648949847724,20.987134460553307,16.22792145432686,17.83787690807344,22.199524369536448,24.32153957526498
2025-12-12 20:46:15.124971,Right,15.850383042816247,20.15301752965388,26.027042960697145,13.026006041911842,30.338653766981224,7.59600436096116,8.846712610612485,15.88198979945173
2025-12-12 20:46:15.129932,Right,-11.279126227679626,-8.035077213166005,-3.6593789601374738,-13.89207440745804,22.55178609246468,-17.408558599244543,-19.129588714106376,-9.115094839516132
2025-12-12 20:46:15.133995,Right,-12.14545977796297,-6.845697290766111,-1.6784794167542714,-14.742454082844915,5.585923491975336,-14.9682103933078,-15.42193281901723,-8.828388803600319
2025-12-12 20:46:15.137949,Right,9.917251031640262,16.94490642229175,22.198766295348833,7.301859182204225,10.538204537630008,6.649165837832015,8.510186628880092,12.250728298206923
2025-12-12 20:46:15.141016,Right,12.94635658882271,18.243765007291586,21.315864741783116,9.418538593648691,29.370073236112148,6.54107323564358,7.433859626518597,13.668817785503961
2025-12-12 20:46:15.145035,Right,-3.494864130606402,-0.5815524525187357,0.5781960616996002,-8.818236845472697,30.067687623970414,-10.701445015094123,-11.587938184553423,-4.082638902525105
2025-12-12 20:46:15.149034,Right,1.3935492227310533,4.455611100684109,5.8107084020534785,-5.292079799573003,15.551069119717795,-4.430005260639518,-3.831317038010752,-1.5471507513029792
