timestamp,label,FC3,C3,CP3,Cz,FCz,FC4,C4,CP4
2025-12-12 17:54:37.829739,Right,212.6497332787439,596.8155887029185,552.5824748297182,599.0895022827108,-337.5286880299264,366.7576101309237,398.33515496213084,603.0438053198745
2025-12-12 17:54:37.846737,Right,1158.261662749765,3228.325338903268,2989.5747409590376,3240.8911185154275,-1855.3490698438263,1988.9850082327066,2158.9813012954696,3260.499937673346
2025-12-12 17:54:37.849700,Right,2695.625623081941,7439.513395711207,6890.74514606292,7469.891193298453,-4369.49539474658,4599.196451639924,4988.1709902721905,7509.775561947428
2025-12-12 17:54:37.853744,Right,3436.9557260855277,9362.36124497861,8672.791873619091,9405.075767327322,-5643.773958148225,5810.730344570281,6295.518185650486,9447.00186450763
2025-12-12 17:54:37.856756,Right,2369.435128737812,6360.372564674806,5888.1336264525635,6399.133742364449,-3912.833263164426,3956.8441904473566,4282.5373654840405,6419.8191471474365
2025-12-12 17:54:37.859752,Right,251.11621891629693,669.0885395800215,605.3566334857533,691.4283436924597,-335.0063720601793,397.4349595289932,431.4550318622387,683.7427181378735
2025-12-12 17:54:37.864785,Right,-1361.1971330829365,-3605.220518201553,-3362.333659523538,-3599.8182790287756,2381.3351134188124,-2276.0806756948514,-2458.811618201602,-3632.8431982422044
2025-12-12 17:54:37.867794,Right,-1692.7627014070677,-4578.83034096942,-4260.772785018315,-4581.070914201788,2813.008936173479,-2850.8596164950213,-3085.925749839713,-4629.975820052874
2025-12-12 17:54:37.871820,Right,-1129.6040198691044,-3186.8031876138266,-2962.782194354266,-3185.7533522356534,1745.9227180119778,-1951.19081534406,-2118.232628979662,-3229.5683105574717
2025-12-12 17:54:37.875800,Right,-488.32481115864357,-1392.4412403081951,-1299.4111416030792,-1384.582221876335,731.2004090545379,-854.2824056765094,-926.7495856055757,-1405.9167543036456
2025-12-12 17:54:37.879825,Right,-212.42026803752378,-486.2578478937212,-464.133054433536,-476.64385778893484,395.98425341439724,-327.7254022850393,-349.99399711814476,-483.8717196630605
2025-12-12 17:54:37.884821,Right,-269.26823083503405,-660.3374058065529,-624.049872418429,-654.4469091103238,464.62916999419394,-426.19793319577,-460.2812209337135,-670.2650255229091
2025-12-12 17:54:37.887841,Right,-485.907102372963,-1401.3235685566906,-1304.5658496192482,-1398.8292220649018,712.3453319354885,-853.7905547319679,-930.6334730535455,-1427.9640765286167
2025-12-12 17:54:37.891790,Right,-693.5826681515173,-1963.2234484980872,-1824.8821799118596,-1961.044252818916,1074.685028421547,-1212.5471186694776,-1315.4770362053096,-1988.5494640966645
2025-12-12 17:54:37.895856,Right,-704.1182610918331,-1840.9422938934295,-1716.3201016387902,-1838.1266032334242,1198.9228164062224,-1172.053640145663,-1261.9757027930173,-1857.652145826869
2025-12-12 17:54:37.899874,Right,-476.0210754310683,-1209.5574973173498,-1130.1208676870156,-1206.297011512681,798.2270224465901,-772.6609377069108,-830.3071968012664,-1227.3570623354462
2025-12-12 17:54:37.903893,Right,-264.0586336807319,-786.3048752910981,-730.4888056312338,-781.7451642397791,317.30319215668715,-469.5150717936631,-511.61311455242685,-807.0381912933371
2025-12-12 17:54:37.907889,Right,-328.78113219838997,-987.0564246128197,-914.4443875533761,-981.5180819847446,418.0132975989254,-593.4940243925375,-647.6240741153015,-1000.0782335623808
2025-12-12 17:54:37.912913,Right,-537.0010862798517,-1387.7318428918952,-1291.3180069524678,-1384.3097684631648,886.5905094037298,-882.0502953421674,-953.1277297895867,-1393.2213895365421
2025-12-12 17:54:37.915961,Right,-539.2898486220802,-1333.7470614436606,-1242.9770814390213,-1334.2945241881825,907.643152603734,-854.8371578548977,-923.7230873281369,-1345.9132445260475
2025-12-12 17:54:37.919932,Right,-315.0850886384869,-881.494359000586,-817.4931952171901,-883.5225993159111,407.7486511944153,-534.9277430466027,-586.3253209996328,-902.7168524241133
2025-12-12 17:54:37.923971,Right,-201.37304295186186,-667.425103782065,-615.5792990940099,-668.3169688741327,183.94586991376127,-389.7086168995884,-430.761360244971,-682.3543299123994
2025-12-12 17:54:37.928950,Right,-340.5975153030013,-919.2290830901766,-854.0499594058201,-920.8353841561184,547.7853660210967,-582.4088275180839,-629.975580807135,-922.0723646774131
2025-12-12 17:54:37.931978,Right,-461.8434575600695,-1148.0485985892592,-1069.8212579696265,-1153.1418643172656,814.7805943186395,-739.9912252308277,-796.4557499035727,-1152.9430550569377
2025-12-12 17:54:37.935983,Right,-346.31083253995166,-947.39948298331,-878.7821738299099,-953.9113993377832,502.45696118849446,-578.9945148355619,-628.9225782209833,-961.5064758082444
2025-12-12 17:54:37.941018,Right,-176.75304649205646,-591.6820829969656,-543.8456282597617,-595.3419504541089,127.06175965076545,-336.8245344013267,-367.70470280206064,-600.5057546462631
2025-12-12 17:54:37.943998,Right,-204.18555374733114,-548.441243818088,-506.5512876069115,-549.7726761475787,262.30540785964695,-345.8044380848587,-364.48106299809297,-542.0220579057059
2025-12-12 17:54:37.947032,Right,-337.6653481659305,-772.4903685424651,-717.3297159530048,-775.9039448618714,583.1935310489498,-515.9600309113157,-538.8714717576222,-765.1007238285383
2025-12-12 17:54:37.951023,Right,-335.1895286123472,-859.3713607185928,-791.9413630875351,-865.813145377615,517.0641390433302,-542.5155403192621,-573.8912956809218,-865.2453779933858
2025-12-12 17:54:37.956019,Right,-205.96358891710406,-674.1371628732013,-611.8063070897479,-680.0545460789872,223.86854408762883,-392.95222428196575,-421.1216485709592,-682.1610446620616
2025-12-12 17:54:37.960048,Right,-140.91901958688686,-457.5044492557063,-410.72441515806713,-461.53085016758996,196.9763187598728,-277.25186246380326,-292.9388207027514,-450.96158203980303
2025-12-12 17:54:37.964055,Right,-175.89281990131713,-412.36783926637145,-372.4715034778055,-417.70491681137355,365.1831244477653,-282.24125652224757,-292.3306201591622,-398.38861052220454
2025-12-12 17:54:37.967066,Right,-192.7147177027946,-492.20401292011957,-443.2752522669325,-500.83711277571274,337.7871217774227,-316.7208181906899,-334.75227136997273,-488.2101482543512
2025-12-12 17:54:37.971063,Right,-166.23886703976314,-559.5479909350979,-498.5064932566311,-568.9261980960728,182.87881666290923,-324.63143411735655,-352.3063597456203,-562.3973078073759
2025-12-12 17:54:37.975092,Right,-162.864301125388,-527.6759408288926,-468.30623983123223,-535.3977914850111,224.94708071782952,-313.2212181057548,-339.1963746144902,-521.462383912527
2025-12-12 17:54:37.980121,Right,-158.88259867709712,-380.9629422093276,-336.68778372960514,-388.4367823289358,346.6980964667018,-248.35433049488347,-265.4051557814819,-367.2863649883366
2025-12-12 17:54:37.984125,Right,-92.11409043856838,-222.30976402718807,-188.9780761480215,-231.10648701907485,221.3445647617773,-132.12666529796843,-147.38434987308574,-216.6329045954917
2025-12-12 17:54:37.988117,Right,-36.582564345924766,-225.1808781400614,-187.06479940272402,-233.72203757133684,16.151300748751964,-94.89373210909253,-118.81527824928344,-227.57109462915105
2025-12-12 17:54:37.992080,Right,-95.75995796306233,-384.36918357081595,-336.51738966666744,-391.21858470575535,124.54147753682628,-202.6074744239013,-233.66086247912608,-380.1605833231006
2025-12-12 17:54:37.996156,Right,-177.07924116024515,-441.01545983960386,-396.75517532159574,-447.79297415164183,373.1995116042672,-280.1372299149516,-307.18681128176104,-429.29265692608897
2025-12-12 17:54:38.000109,Right,-116.42657404672354,-245.3468699969817,-217.05358758560033,-253.17951667960733,270.2555993642309,-158.8017817732907,-176.86301854200428,-240.80073947052006
2025-12-12 17:54:38.003191,Right,17.83791492885939,-37.20265395738534,-17.81209721119376,-43.714486531709554,-69.0818763209827,12.634132650215179,-4.38585228973534,-42.05761879050988
2025-12-12 17:54:38.007186,Right,13.433269773107895,-104.83468962041661,-77.73072358191712,-108.08709979231935,-65.76224910956807,-18.47651415623841,-44.80570965478546,-104.33583930006716
2025-12-12 17:54:38.012202,Right,-113.15860665892978,-308.3321032265958,-271.06782293062133,-310.74727107875515,277.9398476164788,-176.21177101928333,-211.8498186798097,-298.58761871862225
2025-12-12 17:54:38.016317,Right,-126.41499078594643,-281.6198875784321,-248.27026945074613,-286.38282819697633,339.283069536963,-164.2808135405794,-200.0348034905037,-277.3754801939649
2025-12-12 17:54:38.020209,Right,20.690575338870985,-26.37335616427299,-6.24098061589757,-32.32299216238607,-20.944866941747023,32.996496745035984,3.4701447531260783,-33.7883713611518
2025-12-12 17:54:38.024209,Right,95.75002957021206,88.12218567509262,102.83850243134657,84.37438287651457,-194.76445288136892,117.68691720226343,91.25605701876339,83.25346883921884
2025-12-12 17:54:38.028221,Right,-13.816033941577189,-71.9650714690215,-50.91155644663377,-73.17116326575342,94.10338372338447,-19.127058837359073,-48.62295104037912,-64.96331558733073
2025-12-12 17:54:38.032192,Right,-110.83086269948762,-207.1439362950332,-180.53049508399272,-207.7950653233711,307.01150524785044,-124.64876167065086,-157.1789768814997,-199.1160214565898
2025-12-12 17:54:38.035195,Right,-37.803420466381795,-98.01439473810024,-75.60195160386502,-98.00534621327824,66.75318872848584,-26.21061967188143,-55.81649484341324,-97.62100929292501
2025-12-12 17:54:38.040261,Right,61.5670996813642,62.77246476263099,76.50689724214317,64.78190290249768,-185.70740955552174,95.01184665658366,72.49889916667598,65.93467189153307
2025-12-12 17:54:38.044293,Right,20.335736142522364,43.819159388272965,52.842988230782794,45.85382650313113,-19.988003010614193,50.6287828268687,33.072302279266296,57.84540446833853
2025-12-12 17:54:38.048285,Right,-57.517211343767485,-47.919379790451785,-39.37973525078269,-49.79067422559456,216.30241358344938,-36.99921860733593,-54.57934003234186,-36.35928657204204
2025-12-12 17:54:38.051285,Right,-9.476813676526945,-12.0603668997137,-4.021141411365534,-17.383038362895604,72.38872770439048,9.563731053964148,-9.893187374153058,-16.210829771989665
2025-12-12 17:54:38.055336,Right,83.49949797259069,87.96027203114136,94.09230754596865,84.17035756984114,-179.76116227260718,103.08199814247382,84.30665665639026,79.17435760956869
2025-12-12 17:54:38.059315,Right,59.110291201999644,87.31327834059994,90.91783971476798,87.35695088809007,-84.1115338441814,81.58192795933974,66.84559400385479,90.90519307019713
2025-12-12 17:54:38.065340,Right,-23.781855978736758,34.94358350054699,35.555536460431995,35.69676064027772,144.96155430102954,13.054879571358697,2.9134812130519094,44.98981647510209
2025-12-12 17:54:38.068338,Right,-6.79601962399056,68.07294385669411,66.15818631820366,66.8086829122517,49.89180801176008,44.6891899902339,37.13219172541176,67.8411590316864
2025-12-12 17:54:38.072345,Right,68.79020112703165,131.9886828770268,129.80447368398018,130.16697719275726,-195.81287063458512,112.79050175741213,106.37438262194337,123.82989052218727
2025-12-12 17:54:38.076310,Right,52.58464793630628,100.866575588665,99.43955347944211,99.95090004153826,-122.88718839362446,76.05430048528797,71.44986538372541,99.59953887216761
2025-12-12 17:54:38.079386,Right,-18.301751494384007,48.44227095891256,44.887100137013476,46.566737175147864,131.88713228908546,5.359570350010472,3.7447955259485752,52.76634951445885
2025-12-12 17:54:38.083381,Right,12.483364423842431,120.0864628083873,111.39376843600621,115.91233678453136,71.85605360068257,59.52062279112215,60.87740032132206,116.20843654215423
2025-12-12 17:54:38.087386,Right,114.41499294996902,236.6055119886296,224.73475806664646,232.4832454397474,-218.8870357209271,172.54755718955857,175.9826988597997,226.18609974989522
2025-12-12 17:54:38.091391,Right,111.5051391237539,211.92295757235843,201.1176039865386,209.77601575171866,-215.85557797411093,155.0084346037911,159.87351356445288,210.54480511043948
2025-12-12 17:54:38.095431,Right,7.6542605129834556,95.45487242532545,85.56696224027837,92.90264482724888,69.25452668794605,41.377368329478486,47.484943386138184,103.65293390834995
2025-12-12 17:54:38.100434,Right,-10.843065858320188,100.48544467234751,87.51279070142482,94.73194057961518,100.66820194899628,37.472672679956304,44.68326066680311,101.60538209282095
2025-12-12 17:54:38.104462,Right,88.55826244116179,228.06726677776896,210.97614076256286,220.8067540317861,-190.67412974725448,151.55874011047854,159.85590438355575,217.97335214327904
2025-12-12 17:54:38.107465,Right,127.91678045486333,268.58129844359064,250.7938345549628,263.15279598180496,-278.95127626905014,184.07321028519073,193.82427374605322,262.9129365305562
2025-12-12 17:54:38.112464,Right,47.040134746261174,179.05040879886656,162.66476120192965,175.11638825912087,-17.924499867913255,93.87348575869692,105.3148457986972,184.8405826974922
2025-12-12 17:54:38.115471,Right,8.890724802658951,147.54229618528916,130.7862658022641,142.72867077005503,94.24418573573348,65.16747624803975,77.90847382530046,151.61398166466097
2025-12-12 17:54:38.119493,Right,91.96616937805084,240.68028333512484,222.14855354496103,235.46422643765982,-154.5249513904928,160.29580360569526,174.11949218979862,235.4152426290966
2025-12-12 17:54:38.123559,Right,147.87696969811805,294.6913511060411,275.4958018861944,291.0926685344457,-304.0310672680789,210.71496646791638,226.51572650550224,292.18133383925306
2025-12-12 17:54:38.127536,Right,84.93800304875913,235.74578271110659,216.0472434022522,232.57942186412401,-90.73523066964117,140.4024109320162,159.54434451331326,244.10802121387678
2025-12-12 17:54:38.132530,Right,38.518311324485694,211.21692669106415,189.3259347039857,205.55636131259962,63.796258729562396,104.34904931532219,126.96852138296526,218.4291135473759
2025-12-12 17:54:38.135506,Right,109.00317441357765,290.85192805479164,267.5993906328804,283.56716926043737,-145.10241170076188,184.78384261795145,209.3406925767049,287.0507025711413
2025-12-12 17:54:38.139558,Right,167.17950639210903,323.38660485253786,302.491356900573,318.3199247966404,-328.2979319976439,228.93705612591293,254.2818980890588,319.7832518570067
2025-12-12 17:54:38.143574,Right,98.63553930458147,232.96551819960587,214.60289849320543,230.68388889796915,-139.1727306315297,142.13261192315258,169.1738528561109,241.32438220558106
2025-12-12 17:54:38.147620,Right,25.173839452028915,183.81341512073413,162.8228096110979,180.96564788627438,64.70028409967199,78.61001736667822,108.40441291376192,194.29279618509463
2025-12-12 17:54:38.151596,Right,78.84896421365556,275.68805027837516,249.57804094304447,270.8799431848747,-109.35821831475187,155.36105727098766,186.47056185580732,274.6117708478414
2025-12-12 17:54:38.155619,Right,150.5612654289289,337.86555089769536,311.73360258946195,333.3317884124699,-339.51710470425314,222.82947387421154,252.4183754272235,332.6699984623119
2025-12-12 17:54:38.161613,Right,92.94516093937273,236.36184171115747,215.19349440460792,232.91466408153065,-181.6296844114404,138.9841945416556,166.13551714943605,241.2124785645574
2025-12-12 17:54:38.164688,Right,4.006962721192394,141.0490991907718,121.41171302058501,136.2340795317141,88.72548063017894,46.33316044473031,72.74185063471668,149.94320980663178
2025-12-12 17:54:38.168704,Right,54.00732562936901,235.4285713135032,210.7911198194779,228.36127638464677,-28.816502407673397,122.33626801281935,149.55365968224942,233.0056613155466
2025-12-12 17:54:38.171681,Right,165.9080209290696,374.7294396564248,345.94885542060365,368.2591780044313,-327.06098731305974,247.24048376793507,274.47866466239793,364.72345605757437
2025-12-12 17:54:38.175677,Right,144.79780970107822,325.1209302228817,298.7830011245387,320.9702716289321,-259.8466417539021,206.7585769827565,232.43275643218658,323.7169811098138
2025-12-12 17:54:38.179633,Right,30.090854480542475,174.7788791488565,152.5022475635633,170.5240936219343,52.94183432258433,74.83322390451212,99.57689643008052,181.4093446554907
2025-12-12 17:54:38.183683,Right,26.91308151744306,182.28854969181702,158.6699130377383,175.72785298200324,40.791727282325155,83.17032649324392,109.83649137653993,181.889682891313
2025-12-12 17:54:38.186713,Right,137.5096926795668,327.70014766798704,299.3579942837241,320.5733291141514,-272.74307968252106,210.50560904899612,240.82607357687084,319.48921400573454
2025-12-12 17:54:38.190724,Right,161.0720640889922,358.2761635366187,328.6579844216758,352.56161405614694,-318.4514317570429,228.4351417090802,260.40023492489127,356.88583779818146
2025-12-12 17:54:38.194718,Right,57.44389309671533,232.10067527662613,205.48911291686818,225.97626621485688,-25.061135505209677,110.25578297712491,139.68873230036115,239.25616649715812
2025-12-12 17:54:38.199730,Right,11.554579975956585,169.9017050038383,145.80024632325512,161.22823265762418,66.39306269964436,64.49142494509579,89.49826178964577,170.57396893863915
2025-12-12 17:54:38.203761,Right,93.1236955030472,254.91533471361618,230.7260570123326,245.83755522800493,-193.69945599057246,153.6716472877888,176.96306788900984,245.84304712721496
2025-12-12 17:54:38.207697,Right,142.21987161018478,314.1944058764784,289.2605704065063,307.82361658706213,-308.2950254283205,201.11555136623792,227.10661527645425,310.84317092740093
2025-12-12 17:54:38.211772,Right,76.1209628728102,256.75027741357917,231.38377421928453,251.61801199955516,-72.97799514167127,131.05208038561977,160.61410006409278,264.32604526908835
2025-12-12 17:54:38.214799,Right,35.61667686901637,219.1100908005028,193.0419848356396,211.7242527459748,57.162336672015954,95.43463315538247,124.76406842452707,221.33036469257786
2025-12-12 17:54:38.218730,Right,108.71104259467393,279.50674306898145,253.20678291644435,270.59304384863935,-163.34632226335816,170.27404596217093,195.87130503336084,267.2592528948444
2025-12-12 17:54:38.222821,Right,162.96754358104954,312.6088473802665,287.0759416317451,305.71725194263854,-313.82399320820696,212.3840716817067,235.72969722855487,300.60053317117854
2025-12-12 17:54:38.226806,Right,98.97763778295484,248.89015349722467,222.90577866585227,244.01333570541465,-110.62997446447844,140.61169956513913,166.02326610285672,249.5921814563335
2025-12-12 17:54:38.231836,Right,39.49194361560512,216.01368449639995,187.0906715254241,209.8029214598646,56.992482570320135,93.57238057558425,122.60881298777531,218.16483571007848
2025-12-12 17:54:38.235856,Right,96.40866211382672,283.59054533048766,252.83717564726248,275.3580617788248,-131.47204398343456,161.04044075406273,191.53431839484256,273.5378601027187
2025-12-12 17:54:38.239828,Right,159.5041422069189,315.5794954568846,287.464052794443,307.9828621202032,-315.3108975368086,207.96472622459987,237.98061880262685,301.28237306000665
2025-12-12 17:54:38.242835,Right,109.31970669844304,234.91046987700975,210.35513433683082,228.6127536558779,-134.59191947444924,136.22884653622168,166.37968949988135,229.45731677365256
2025-12-12 17:54:38.246923,Right,48.58715154293168,192.77752190863248,167.17809442110592,185.4478763351799,76.74957220986835,84.38100660260534,115.55257364243153,190.0999755380326
2025-12-12 17:54:38.250845,Right,105.97630659377319,288.93360563361784,259.996325472428,280.34815067832824,-90.98421754449373,168.26806834165473,198.6983638642123,277.18139347154647
2025-12-12 17:54:38.254924,Right,179.99466833853512,357.292540655646,329.9573099130648,350.5636594116804,-340.72543014778057,243.92457328428281,270.31064873561263,343.2609729508986
2025-12-12 17:54:38.259939,Right,118.1341408049193,250.80695767671568,229.9544629183365,247.06462245073635,-205.29857156120124,158.93491393901058,180.32066730767838,248.17818874976365
2025-12-12 17:54:38.263964,Right,9.227445161784999,125.54421279206872,108.00574599287938,121.93854792701313,77.33092909617699,43.69048233394278,62.74495535402093,128.7393091105041
2025-12-12 17:54:38.267960,Right,35.36102570354706,181.9969171343837,161.30640129215317,176.78158227098174,-9.09516180146602,90.00669151879265,109.98444977385225,175.5668994562002
2025-12-12 17:54:38.270957,Right,140.41248889185954,306.87137743871426,282.93224264410674,302.1026855133241,-304.0411762515723,203.60522082660464,225.20846169351717,293.91653201240115
2025-12-12 17:54:38.274916,Right,126.80216599392588,267.81981695012655,245.72231090330752,264.95280964745325,-260.998839965614,169.26389407092938,191.1597923989175,264.5931658531772
2025-12-12 17:54:38.278986,Right,12.575435335093061,123.289565573039,104.20239750525798,120.34121854251134,44.623030853341334,37.89090082625626,59.18350719296723,129.5802496552351
2025-12-12 17:54:38.282993,Right,-3.319564550911309,113.19740654894849,92.98986713495106,108.85557943597087,55.77784796481137,32.37270359779359,53.514982151653385,113.14491486697807
2025-12-12 17:54:38.288007,Right,96.7020835494477,232.27247725770576,209.14417442018748,228.92695044344873,-238.05585808376782,145.9426366376283,167.84297101511038,223.81817398124258
2025-12-12 17:54:38.292018,Right,125.06162258294353,255.99710426316597,233.25303358427482,255.42492484196555,-289.41882534811157,166.16194040866685,189.03491049582954,253.88847694455762
2025-12-12 17:54:38.295034,Right,38.99432670752867,152.83534946123837,132.87863123294665,152.1334721398598,-10.383617369341664,67.44230634276755,90.24209580247407,159.61602230696008
2025-12-12 17:54:38.299058,Right,11.431621788520715,123.46401778853033,104.40816837263992,119.0432257859502,73.76559873734368,44.68631092575379,65.95751980872592,123.18724436018965
2025-12-12 17:54:38.303064,Right,101.53398282681883,218.87510865100194,198.9532177230867,211.93802318078815,-192.2362071792595,142.6887155175791,162.4352655573166,206.11811460656463
2025-12-12 17:54:38.307001,Right,145.69105919229332,255.57236791148898,236.27937310538255,249.61166169584612,-311.62120241619414,178.17195239834837,198.14260226802435,246.03883244577446
2025-12-12 17:54:38.311070,Right,65.1760768979293,166.16738256366807,148.76957290945575,161.12029474263545,-69.0974334590428,86.54249550466193,108.12244291903335,168.8171793045476
2025-12-12 17:54:38.315134,Right,9.31201027649513,116.7836232612608,99.71227904740954,110.17554264745559,72.64176933912677,36.32061857989174,58.88214017957216,118.75062441520276
2025-12-12 17:54:38.320106,Right,70.476967142371,182.44973895480507,164.57737870555138,174.91884815282538,-152.3753392296203,105.13537255075062,126.88852491072612,174.10111770988442
2025-12-12 17:54:38.323106,Right,110.4895010220207,204.5775546822697,187.38852208285243,199.34943261489389,-313.30098432223895,134.10662141494686,153.99284626331064,197.36844595975708
2025-12-12 17:54:38.327118,Right,24.902822167103295,99.89973201297107,83.94223756395513,97.35178237059154,-93.16050033544889,34.115850474714534,52.638713903928874,103.88062000431819
2025-12-12 17:54:38.331128,Right,-51.820127202707226,32.03336632842547,14.999380715045845,29.54747752295225,111.99142314921482,-35.357768547240994,-16.846886234125122,36.05959304710268
2025-12-12 17:54:38.335089,Right,10.060573258640943,112.12505149812205,93.28387942025438,109.06609751310316,-68.8726854241977,41.79876640329894,61.126419353764504,104.44377419637749
2025-12-12 17:54:38.339144,Right,93.80530164996162,185.87926328767207,168.72325872720103,183.94360816772678,-286.8163744760968,118.04769323243818,137.91388560569612,176.40652287504054
2025-12-12 17:54:38.343173,Right,49.518141896798625,113.82868485574727,101.04483612027252,112.40872776930337,-124.35362039273605,51.42489314790873,70.98305365577107,116.03172631320194
2025-12-12 17:54:38.348199,Right,-31.09612585316063,29.08363925133017,18.145987435535062,25.215197180979885,122.63769026548835,-32.2598825096502,-13.672259010054404,34.99661097806529
2025-12-12 17:54:38.351200,Right,10.97506343194982,89.93844023041311,77.26762223546393,83.76466517843073,-3.6336200346122496,25.99168750170793,43.59779633770813,84.98922528780531
2025-12-12 17:54:38.355208,Right,103.87400879916095,184.22125811252045,170.86322606611066,179.99969038227573,-266.1305074103002,122.1163314578298,139.34373396767478,174.5887860598159
2025-12-12 17:54:38.359202,Right,79.3208225643466,136.6721504747984,125.69753035673057,136.77840121107874,-173.06784797276487,82.9604499439738,100.2468515469518,138.3938942650566
2025-12-12 17:54:38.363262,Right,-12.577080764938728,33.93780804294511,24.588136144622695,35.944149990944425,105.01105547518819,-12.077896762828459,4.758380767001654,44.010605445335386
2025-12-12 17:54:38.367234,Right,1.9309586335366475,61.21960893034702,50.447033981909044,62.84460682311328,54.188812884443905,17.764200400240952,33.18297778264969,64.2183676433051
2025-12-12 17:54:38.371231,Right,94.3832466623353,157.49818597760168,145.67574232033803,160.27594667483936,-223.50805752395536,115.42032284436573,129.4546309576108,154.82638332416536
2025-12-12 17:54:38.376200,Right,87.80217097418063,132.75525036564795,122.81179833624628,138.04711839358788,-202.396191182459,93.62697494676104,107.48828941459942,139.58799523612834
2025-12-12 17:54:38.379212,Right,-11.599854968684667,23.86318080825731,15.63680321877473,29.0829829009308,84.06998452596599,-14.07810494727164,0.1905088879429968,39.344257699063746
2025-12-12 17:54:38.382269,Right,-25.105330910373596,23.46082510764245,13.850206732633524,25.831433426734293,107.17210309117218,-15.620950290511246,-2.2610654876043554,29.984739373758202
2025-12-12 17:54:38.387221,Right,65.65749072969629,118.38571606238838,106.77268127351999,119.46288124134298,-168.10954286137712,81.96083904335683,92.35190875547414,112.14885200015851
2025-12-12 17:54:38.391295,Right,85.48758199044096,116.27459047624143,104.9230485240987,118.92626947417739,-219.23994620006124,88.21109711469035,94.94882481146487,113.16391089209355
2025-12-12 17:54:38.395314,Right,-5.213884868702735,10.334395848825807,-0.6970254713669419,13.765195955667878,54.3826578099397,-11.625406220497098,-7.287083969058585,16.68820265927934
2025-12-12 17:54:38.399338,Right,-36.19937909258442,-5.958882832317613,-19.17969988430559,-4.028850694914581,142.87224381444685,-29.056904518583906,-25.52934383835236,-3.51911615364952
2025-12-12 17:54:38.403341,Right,50.109501833816466,92.85623499751091,77.91327336337417,94.39703834569082,-117.48512947182462,68.83641563757556,71.66474714499782,85.11308845432359
2025-12-12 17:54:38.407283,Right,86.18009240379615,108.41508110726136,95.94767132574634,112.21093209966784,-234.11379395592667,90.99600476281194,92.11800003501412,104.04876976790547
2025-12-12 17:54:38.410303,Right,-7.536335756376502,-10.450967186974594,-18.903437287415727,-5.268772080729832,20.79238369995437,-20.02020881966746,-20.7464570326556,-3.3030877793353284
2025-12-12 17:54:38.415435,Right,-69.78765818888496,-63.885122230814886,-71.72158128353476,-60.22016085823998,180.07517048234877,-73.83700045099249,-74.96873941076046,-57.811739693323034
2025-12-12 17:54:38.419386,Right,5.321728307368176,33.1686046376999,23.89677224274783,35.78213028082973,-48.343131670044386,18.612140165874735,18.61706729963771,28.6218692126713
2025-12-12 17:54:38.423433,Right,73.35575985767355,91.96441197537933,84.35446950115147,96.45499231124995,-233.7568926128588,79.7610953982512,80.79620489237277,88.32189483898401
2025-12-12 17:54:38.427408,Right,8.748843215711531,-3.020151133663603,-6.350757721229456,2.916969889876782,-24.05055568483658,-6.127625314380566,-5.889494088609354,4.72691614543146
2025-12-12 17:54:38.432412,Right,-62.64806962035436,-80.5493936832936,-82.54692974244244,-76.88968432617548,195.47875801709597,-78.81564368517866,-81.28849053972226,-72.79717415079358
2025-12-12 17:54:38.435440,Right,-0.9203574691855465,0.6402235251589445,-3.926698875351576,1.1390287602698663,16.95224718519603,-0.7619405340374215,-6.167852797254454,-4.3573486738605425
2025-12-12 17:54:38.438424,Right,82.345538388985,88.26211996159691,82.50592744933965,88.79131114356278,-230.5178797548724,84.5906714388766,77.89284022252104,81.01811109515256
2025-12-12 17:54:38.442397,Right,26.969252748665895,13.377261750618345,10.277746072941227,15.519433840963757,-91.16371048700239,14.809089489855978,8.73232627393736,20.196394490805687
2025-12-12 17:54:38.447468,Right,-78.14723276880613,-101.45027105000918,-101.99667866431264,-99.82871479523601,173.20684098103084,-92.55539221678191,-97.53475798171712,-86.91944418041385
2025-12-12 17:54:38.451487,Right,-55.16851676746592,-67.49352018888749,-68.44482906666963,-67.30233350601338,74.13093800608476,-55.39605856561684,-60.66233468475548,-62.24703743294231
2025-12-12 17:54:38.455498,Right,40.33086140069281,31.150241387695132,29.55720063156332,32.389266981495894,-196.61740120763716,43.33497443897795,35.47847417880257,28.990015139512252
2025-12-12 17:54:38.458487,Right,28.992638138723123,4.630127834287123,4.530960380965553,7.89245225029299,-131.50578792659508,17.70353668909229,5.599828109265218,8.940275727785775
2025-12-12 17:54:38.462444,Right,-61.82235106561893,-93.77009629078384,-92.42618587971083,-91.39570337079203,145.95856821350753,-78.26948074372194,-94.5348926543702,-85.13720927860413
2025-12-12 17:54:38.466501,Right,-60.316782370817236,-82.8058055740621,-81.67747268791572,-82.93394181841722,119.46448187452916,-63.551628649769555,-82.1484087244171,-83.47783737073769
2025-12-12 17:54:38.470525,Right,22.971665776887676,1.5869393639077316,3.3613234533295326,1.9147549935951247,-152.15087545911956,25.703148866505217,7.458452659640898,-5.736134425489581
2025-12-12 17:54:38.475530,Right,19.486853414564393,-17.238717968739365,-12.664078960806364,-13.804867373444722,-150.33598604885628,10.027634153655526,-5.887002782097625,-14.95439283743326
2025-12-12 17:54:38.479566,Right,-73.7576794087745,-114.02932712841357,-107.87808521094848,-109.39907087753818,127.3736796445155,-87.89514940592017,-101.5531389662865,-101.68392509588375
2025-12-12 17:54:38.483565,Right,-84.49798752815423,-107.34916771229473,-102.87154392941193,-104.1939407685204,163.01058510290022,-83.37523343085013,-96.37015727963262,-101.74039925213219
2025-12-12 17:54:38.486577,Right,10.030673153944917,-7.903712708419334,-4.723422351546105,-5.10379377733625,-108.12433333262743,18.482037388221215,5.070519074001368,-13.045354876718193
2025-12-12 17:54:38.490538,Right,35.338858229817674,-6.084225340365265,-0.7299543021031241,-1.432906797301257,-173.75778871023067,25.7561353498495,12.383921252102937,-6.652985760367301
2025-12-12 17:54:38.494602,Right,-56.89812322489911,-114.41939575082347,-106.49379911393339,-109.03941643213875,94.58012377182604,-81.94085585187622,-94.43280458463596,-104.48383362566119
2025-12-12 17:54:38.498608,Right,-97.82777190760908,-138.19944052720894,-130.9938862943127,-134.4158336518467,197.4516565758022,-111.34076374747156,-123.277650667138,-131.96024313736734
2025-12-12 17:54:38.502694,Right,-14.82169392535252,-37.591219963987896,-31.892636302005485,-34.33933159244884,-58.07846624166996,-13.138900960770798,-25.618819190791328,-42.40452140578782
2025-12-12 17:54:38.507672,Right,34.19449579795037,-5.462750736551243,2.024471801983964,0.005040877540977817,-193.61678574590042,26.176392579659478,12.83008104313376,-7.608631983775922
2025-12-12 17:54:38.511677,Right,-43.244791451079436,-108.38978605683951,-98.01608113636757,-101.41434966060842,47.756069269518775,-67.8684807671707,-81.58855054840387,-98.41017686916166
2025-12-12 17:54:38.514696,Right,-99.65838298830022,-157.42304393025188,-148.03854086678984,-152.15326659786297,217.4711680319815,-117.04595186858023,-130.99882277698998,-147.86904452088493
2025-12-12 17:54:38.518694,Right,-22.740337449140497,-56.71645674046886,-50.86580042993228,-53.39290038891704,-3.8704377114845556,-22.603942376454143,-37.14438898358276,-58.98829805360583
2025-12-12 17:54:38.522807,Right,50.72999346358483,12.713418771934812,18.437158875844034,16.806645299860975,-207.12379406653054,45.666303333217,30.422988792404794,9.434197040267463
2025-12-12 17:54:38.526712,Right,-15.849754244816722,-79.26085604709078,-69.65021454302041,-74.1480249064989,-12.626004152734822,-40.55145330063533,-56.277878809745744,-70.8665099608479
2025-12-12 17:54:38.530709,Right,-105.78216673321003,-172.9430254210456,-161.0427924583273,-169.69113797049067,223.26291102938558,-130.28213753630553,-146.42755975668115,-162.25896988822933
2025-12-12 17:54:38.535706,Right,-63.53683436325082,-111.17805784480879,-100.90708680871467,-110.42860633612145,70.36405711718908,-70.33051726324629,-86.93250094341056,-112.591845447183
2025-12-12 17:54:38.539735,Right,20.258987845052616,-24.108905293483986,-15.449747648119228,-23.062497250401066,-177.19368821120224,14.713457147761801,-1.9455902625413728,-31.02284908501315
2025-12-12 17:54:38.542678,Right,-17.01008842747251,-81.54196593989036,-72.12106620016857,-79.22624444679968,-53.12296967959992,-41.247912033406465,-57.4119881518709,-79.86489612561127
2025-12-12 17:54:38.546763,Right,-104.66035760120212,-177.45277861699287,-167.67958981051197,-176.2662002300567,210.99461840820186,-135.4384831326097,-151.20848770479643,-172.3609104178613
2025-12-12 17:54:38.550757,Right,-73.86751382295915,-132.50582107291848,-124.25161226275668,-132.8727489605517,120.58296239031552,-90.4428065522734,-106.284722937271,-137.53481776822446
2025-12-12 17:54:38.554924,Right,23.186936241752846,-30.074160295262118,-22.03197524564166,-28.32074740185635,-157.68262139895705,13.622687333954673,-2.3318662954116007,-39.3328428711975
2025-12-12 17:54:38.558780,Right,9.7183193736455,-58.103314208594384,-47.3554963459319,-52.02695122154546,-108.40301150854975,-10.08783830289758,-25.918208802351728,-54.90704419872782
2025-12-12 17:54:38.562787,Right,-85.69178354189353,-158.56231661011407,-145.79287162117544,-151.04173301941046,170.58316018800178,-107.7588274172449,-123.40537574119662,-145.57535316434223
2025-12-12 17:54:38.567813,Right,-83.38853476753866,-140.42456841599778,-128.95414436307328,-134.73775086611568,154.35306578477838,-90.2930800096874,-105.82123577826133,-135.4878784843022
2025-12-12 17:54:38.570816,Right,11.141026199307817,-39.83828585833544,-30.06076086583198,-35.02755400176102,-126.29390712652366,9.920569491747301,-5.502846577604942,-44.66373534273589
2025-12-12 17:54:38.574827,Right,17.680996808601776,-51.463900240371004,-40.83533290756168,-45.47655645216582,-143.70347352324916,-0.18104572848824318,-15.520838365075178,-50.300981452310225
2025-12-12 17:54:38.578839,Right,-80.86155670091102,-160.95316144586832,-149.25089537321765,-154.9581678287359,138.24808077718353,-110.28325265203603,-125.93880739624728,-150.80309184225916
2025-12-12 17:54:38.582851,Right,-105.03152526708436,-169.42641993871075,-159.12197799443675,-165.20740867446875,196.3150881986112,-122.40026435373875,-139.42000858890242,-165.32010147237452
2025-12-12 17:54:38.586901,Right,-13.039322256779997,-65.40271926400601,-56.410344017640455,-61.28158841407276,-72.84502215622342,-19.02592341723357,-38.263283604042954,-71.28876209861482
2025-12-12 17:54:38.590866,Right,22.118239326766343,-46.372039441761444,-35.414336143876426,-39.93189201237692,-159.3301741541036,4.695324462249118,-15.958823113556718,-46.55142884423549
2025-12-12 17:54:38.595869,Right,-64.28293393408967,-149.06870316612185,-135.35854574029509,-141.7391053817846,105.3088502922692,-94.99889154740231,-115.09668126092583,-136.73163416842
2025-12-12 17:54:38.598889,Right,-109.43447242684488,-180.75940695758618,-167.5489435317577,-175.31561441266967,231.8498223199349,-130.3593726449617,-149.02342163663707,-170.71480039641028
2025-12-12 17:54:38.602885,Right,-28.016925695854297,-79.71101811567496,-68.56446441209118,-74.99270177180006,-11.986993470516609,-33.77686736906617,-51.68805152270943,-81.5009620958881
2025-12-12 17:54:38.606916,Right,29.132255151147547,-31.2165870123863,-19.3557550553669,-23.99160329703591,-166.24248014286422,16.347541756324063,-1.3973406877485104,-32.49237119239115
2025-12-12 17:54:38.610938,Right,-41.83869171600236,-121.81717617875256,-107.44431981057278,-112.70993009398808,62.20406719237508,-70.10971733155748,-87.52071367012104,-112.64545334719878
2025-12-12 17:54:38.614948,Right,-102.42856699544063,-176.59984409587923,-162.41628676600521,-169.38419509422965,250.7183549960646,-125.61987588617922,-142.58606696347124,-168.81316245497146
2025-12-12 17:54:38.618938,Right,-31.50869677378796,-86.0634705380944,-74.4919451020105,-81.57724593620514,49.0813902750815,-39.136718300840585,-55.96621189796133,-91.22283821454039
2025-12-12 17:54:38.624002,Right,44.43555936795019,-13.906798764393898,-2.838558068702696,-9.424442258372437,-166.24657243231195,32.62974666482478,15.788824320945423,-21.187756873478065
2025-12-12 17:54:38.626977,Right,-15.842500212384039,-94.75230800788268,-81.52452280887519,-89.42318369817804,5.709257118054666,-45.118803775782,-61.735189856321085,-90.30065427982481
2025-12-12 17:54:38.629990,Right,-105.46146815218526,-184.19569816070725,-170.27961416047765,-180.2881724510662,242.92868823082244,-134.2174601321749,-150.6254923480883,-176.18633939116262
2025-12-12 17:54:38.634993,Right,-67.37416057148221,-127.04594808688853,-114.94894021398795,-125.05338173116616,103.2588897598107,-80.01691123633645,-96.5609826122527,-130.21241505720536
2025-12-12 17:54:38.638953,Right,17.337323468666,-41.43365531947347,-30.030803797533736,-38.5560171745019,-150.0417106767054,4.991017842927249,-11.453049255593214,-50.169546204269864
2025-12-12 17:54:38.643030,Right,-13.294128889872809,-91.40818788172328,-78.72695655512507,-86.40300599757757,-42.440724411681,-42.50312407425372,-57.93095193832414,-91.2943961963756
2025-12-12 17:54:38.646982,Right,-98.17593027499242,-179.0996614768228,-167.20686900542933,-174.44539624419122,223.72978615140164,-130.34229921274527,-144.31350962731813,-174.5888481257134
2025-12-12 17:54:38.651068,Right,-71.45035693738464,-132.7354905246466,-124.9283434474346,-129.9318192346982,148.64133779039548,-87.72039728573873,-100.83704690512968,-138.72076710418332
2025-12-12 17:54:38.654051,Right,21.24454597329168,-34.78057146197534,-29.647858635013108,-31.50366011688311,-127.88947415493749,9.489283694594633,-3.611431688434095,-47.90217575407587
2025-12-12 17:54:38.658071,Right,4.119242034881609,-71.29731969122076,-64.56936189632688,-65.80288528848905,-85.51589510410122,-22.53550310281571,-35.82006345645641,-75.16097174253082
2025-12-12 17:54:38.663083,Right,-98.69145460805885,-181.1892394235765,-172.32968953074305,-175.76740178186446,203.5502193029679,-129.81906327266188,-143.01438789849635,-176.28465756142396
2025-12-12 17:54:38.667019,Right,-101.9692572609274,-163.1423024867545,-155.04848233118537,-160.08876281067205,206.6687444087438,-115.50694211323571,-128.47480524481216,-165.80298340137233
2025-12-12 17:54:38.671098,Right,1.291989608143922,-45.67580074330908,-38.47803740829113,-43.1584545559017,-76.82740072468005,-2.2838616833178094,-14.879697099342593,-57.85225650842767
2025-12-12 17:54:38.675100,Right,28.871499061257055,-33.63235036478727,-24.158679277985357,-29.076253003499005,-116.02465864315309,10.405091197113506,-1.0927505581494188,-39.4834412210912
2025-12-12 17:54:38.678061,Right,-54.56694161018095,-130.96873293549288,-118.70206761019654,-125.70237820962211,159.5713739288767,-85.8867346811021,-95.30971086178033,-126.35133959708037
2025-12-12 17:54:38.682128,Right,-78.6696520122423,-139.84678216776229,-128.1971770938253,-136.53529621372581,229.67479094688315,-98.86511762812734,-106.17966605316906,-139.84969880216522
2025-12-12 17:54:38.686154,Right,8.287686092371587,-34.814906925254036,-25.34152131032897,-32.711706568923546,-42.257356130634435,0.7833446212171111,-5.81117235183774,-45.79921051985002
2025-12-12 17:54:38.690193,Right,40.29286462137679,-12.657967894658213,-2.8308528562192805,-9.52925865186262,-151.05282634941977,22.70511266592075,15.268050472193863,-21.035707339353394
2025-12-12 17:54:38.695185,Right,-54.359025092897355,-124.20224333618535,-112.49331850325689,-120.85032399953343,108.03839731795597,-85.80908578725939,-94.04487555814558,-121.85760607835255
2025-12-12 17:54:38.699202,Right,-113.70941548261908,-174.98792402844992,-163.6822791377781,-173.46740952294203,255.8590316088521,-136.02291806048015,-143.4809720589692,-172.99277892170358
2025-12-12 17:54:38.703163,Right,-38.050047492994054,-81.33368999825325,-72.12536384270061,-80.28167467637104,21.145280653203372,-43.61081288255809,-49.12047607265413,-86.917276841501
2025-12-12 17:54:38.706244,Right,28.136509414063767,-21.054238150303718,-11.981292081181891,-17.355131348245777,-156.1846669405786,17.99702009037719,13.938429664602154,-22.343072336545447
2025-12-12 17:54:38.710241,Right,-33.90058734783088,-101.04819948360091,-90.5542042379384,-95.30360147744068,52.191417321242625,-58.98148704781488,-63.387246434780536,-89.50600680554635
2025-12-12 17:54:38.714275,Right,-99.34316208399105,-162.8090873347246,-153.04991101816995,-158.57652515321388,251.90615803116816,-120.16880550545466,-127.00164562567079,-151.5268562430574
2025-12-12 17:54:38.718267,Right,-39.42222299668356,-85.85324983112514,-78.65361841599224,-83.61945973345428,66.02312725644151,-44.01566854539851,-54.35061634972226,-87.77326794050168
2025-12-12 17:54:38.723287,Right,33.36100010791415,-16.34532866140944,-9.288183639117051,-12.944868711318122,-159.61666127183707,27.4224017111992,14.62123790475016,-21.35476520314114
2025-12-12 17:54:38.727278,Right,-24.103856517111126,-91.40864355923259,-81.64298731950112,-85.81522980547743,-4.1350004907435505,-44.67594922546414,-57.2992186183983,-84.8692882550531
2025-12-12 17:54:38.731349,Right,-114.3701332730634,-178.5112887035648,-167.51140870183008,-173.39104027530993,241.01996524923015,-132.9033282258315,-143.48108198787668,-167.5058679213107
2025-12-12 17:54:38.734266,Right,-77.44535693064245,-120.60035107049043,-111.30541994608939,-117.17215265575214,118.05486135568935,-78.77749157500512,-87.92523865426483,-120.1821279519936
2025-12-12 17:54:38.738319,Right,13.4775324055081,-28.121406322461553,-19.870062372094253,-24.174008075671736,-140.553386979911,13.11572684229759,3.588303138909396,-34.0270423454931
2025-12-12 17:54:38.742283,Right,-10.169683571475616,-71.50350010435795,-61.87295520157204,-65.92893877704046,-47.766481630300405,-28.43407230581215,-38.81616898535867,-69.61422268868773
2025-12-12 17:54:38.746346,Right,-99.03534797659813,-162.8050280455791,-152.3741636084742,-157.628172141267,225.64925474871416,-121.82725326248328,-131.60152720498445,-156.30851528784842
2025-12-12 17:54:38.750364,Right,-80.81740688621358,-122.01287461060565,-112.76240377794602,-117.96017590205884,169.7967509739101,-87.12995785173553,-94.2836883990094,-124.806555434654
2025-12-12 17:54:38.755323,Right,15.899540157086449,-16.365411936247256,-6.866519322997192,-10.693210286990507,-109.76565073407255,15.310498597755213,11.932794024774921,-25.445100694865687
2025-12-12 17:54:38.760375,Right,14.93786414724309,-36.283048482524464,-23.447155235655373,-27.710879999329336,-87.96583044830186,-3.3466894818702713,-3.2211782103404403,-35.99200028026826
2025-12-12 17:54:38.764398,Right,-77.00680266084237,-138.3257476336148,-123.1407332760864,-130.18066244508373,197.17132712047896,-106.13952916202834,-104.3144617259677,-129.47505514218938
2025-12-12 17:54:38.767438,Right,-81.7997064352021,-124.073632999236,-110.56094927211234,-119.24928946280852,212.6351964973146,-96.72842373426829,-95.85174270618882,-123.10704880827689
2025-12-12 17:54:38.770420,Right,16.035279869945953,-11.378992845944595,-0.08398358765407465,-7.738226798392134,-74.65277113243064,14.166800901351962,12.45829351458815,-19.86708307999652
2025-12-12 17:54:38.774427,Right,36.096943741547875,-5.936862163303886,6.510984135180479,-0.30625914499978535,-133.6382029800734,24.86869106728409,21.207663972410955,-6.594149578362703
2025-12-12 17:54:38.778446,Right,-64.98606407181069,-121.94342532378505,-107.40716504731972,-115.38796157068282,142.28354361798847,-85.52643305939273,-89.39231393262162,-109.12303913198411
2025-12-12 17:54:38.783453,Right,-112.0866886607837,-154.6908077087428,-141.21763556347287,-149.81744813953992,237.6551070325513,-119.03046732787334,-122.27739296284562,-143.78621669771383
2025-12-12 17:54:38.786459,Right,-33.76021966342523,-56.743927864939906,-45.7137834164314,-52.48659530947043,-23.36033159281942,-24.699028533446835,-27.60591722209938,-55.7226481816615
2025-12-12 17:54:38.789495,Right,10.579377905894944,-19.926208744494943,-8.397009599997546,-13.411566112466971,-150.97500892015523,11.894330142211402,9.330210116968374,-15.610548417753307
2025-12-12 17:54:38.794506,Right,-66.98806577009236,-113.7779781871941,-99.7707672657125,-105.50513731616957,93.6157691142289,-80.65355866575555,-82.27238486416172,-97.50095339643303
2025-12-12 17:54:38.798507,Right,-119.09853858525457,-157.8321613300359,-143.631398301819,-150.51719383169257,252.60994903277606,-126.80601929550176,-127.41881262852985,-141.99932649938273
2025-12-12 17:54:38.802541,Right,-43.109001177981554,-63.60279761534184,-51.3090754304867,-57.153569425063324,28.531379877997097,-35.87151709312457,-36.065489209242514,-58.326219624635996
2025-12-12 17:54:38.806485,Right,24.313380028368556,-1.261967439117143,10.745400491636246,6.43218079872895,-159.77967565698782,27.120936330087716,27.29114244162338,4.533245691243792
2025-12-12 17:54:38.811566,Right,-36.17899744708848,-79.28175382883637,-66.12598668498686,-71.29925566549355,38.04225263581611,-48.225102381940815,-47.43984936916968,-62.2242748276185
2025-12-12 17:54:38.814595,Right,-100.98876633043983,-139.4885315788706,-127.56610634666868,-134.62642485300603,245.74353217639145,-109.2099707443922,-108.7377240579226,-122.21692042448558
2025-12-12 17:54:38.817597,Right,-32.78020403201663,-52.00212079711491,-43.62570943654282,-50.29352716494759,61.21176704989921,-24.66585062781087,-26.36668493770412,-47.90226056690153
2025-12-12 17:54:38.822576,Right,61.04985030835087,39.73636146140052,46.62697630946059,42.11590879851428,-190.52540720395336,67.5402721799037,62.86392978242657,39.48996916761098
2025-12-12 17:54:38.826585,Right,23.350771118188277,-17.89153555680241,-9.577296855655732,-13.197824222050258,-59.707819054005085,13.00200330268126,6.217525002779439,-7.689114222448552
2025-12-12 17:54:38.830687,Right,-63.88143927382043,-105.22015434704372,-96.8672212130914,-100.67502748619881,192.48083768499782,-74.23933841290273,-82.20863555649703,-91.05584546840691
2025-12-12 17:54:38.834612,Right,-33.37288437252573,-53.40600269017159,-48.156291699327994,-50.36930794273212,84.5516223103914,-24.798615052866808,-34.17288917352562,-50.971653470012825
2025-12-12 17:54:38.838673,Right,57.47490883033606,41.991620664906804,44.73158869659528,45.70812646723061,-185.58111991106125,71.66712348155852,60.341308566741645,36.59741947342991
2025-12-12 17:54:38.842673,Right,37.48295251256786,2.6867734486149857,5.789177350437967,8.276854591618758,-112.87738113931846,36.424042870203266,23.424187213779078,5.165010777840507
2025-12-12 17:54:38.845687,Right,-56.435153671875014,-97.21272563155799,-93.88772662736301,-92.13422158302274,168.23299961829616,-63.55778335629293,-77.62746816736762,-88.698219386235
2025-12-12 17:54:38.850663,Right,-48.21825608138897,-69.5446888935985,-68.27361542734434,-66.52485034635174,133.7259134480846,-41.2129322392575,-56.51940247150196,-70.49751492431096
2025-12-12 17:54:38.854620,Right,48.15222207830084,35.99511274974793,35.9351044933137,39.50851329298166,-151.2180542881979,61.46551290832576,44.563026907468156,25.899839878780767
2025-12-12 17:54:38.858687,Right,55.286551992401655,25.037103265232872,26.724084078203305,31.704113253174,-154.77752584400878,53.81218002807145,35.958821559404896,21.834595341526438
2025-12-12 17:54:38.862684,Right,-35.84116049537988,-77.7876435261278,-74.43182106231689,-69.16125239543908,127.16334290865052,-45.413813963445136,-63.35348520216212,-71.69702453757054
2025-12-12 17:54:38.866723,Right,-51.05545065600745,-76.3282196669461,-74.62794306855358,-67.59766913720523,164.51042518681788,-44.24424792381615,-62.785381634690566,-75.7913992300164
2025-12-12 17:54:38.870725,Right,37.67489881649453,27.222009855453507,26.40137532549852,37.54033112274192,-113.45114537063637,59.56441961220844,39.102430842518515,18.63805418634729
2025-12-12 17:54:38.873723,Right,57.721067834419955,34.32201248660567,33.677140295811114,48.111412140962784,-183.05863464032882,70.75602941083343,48.27814483556722,31.19469486779417
2025-12-12 17:54:38.877743,Right,-39.21948489092392,-77.05015215510502,-76.70429017441347,-61.722514749882976,95.42614665838482,-37.85854520560679,-61.09808064609388,-69.69893549772678
2025-12-12 17:54:38.882737,Right,-80.34393953179824,-105.33786696473544,-107.01584355099476,-91.43012189512956,213.57406537972565,-69.16948455968668,-92.46854838980653,-102.23114096058998
2025-12-12 17:54:38.886771,Right,11.65099949406067,4.029000945418375,-1.4103293715597829,17.396466974823852,-39.9509310987778,36.02201552030601,12.266473486772156,-4.766764918531408
2025-12-12 17:54:38.890784,Right,75.54407674651156,58.29575251783535,51.52516201979597,73.85942334771971,-188.1589927306486,90.65657113357156,66.54789801829611,51.062890831162804
2025-12-12 17:54:38.894788,Right,7.788263881524472,-27.01696862888639,-32.87329078675248,-9.805298428793321,42.88582706164743,7.206354971262044,-15.858762089810625,-22.985734405679977
2025-12-12 17:54:38.898736,Right,-53.37802341216593,-79.18882445251802,-85.3853817362251,-63.13563048990909,216.39574935127166,-47.571751752184355,-68.17885412999749,-75.47949164758029
2025-12-12 17:54:38.902802,Right,6.859037580234144,2.3020383618422784,-5.3370192353613675,17.198687890646397,6.800798026073608,28.64277782629506,10.72094222989108,-5.039821521524573
2025-12-12 17:54:38.906790,Right,66.63114773767302,59.242658957169624,52.25714069601236,75.33823350686725,-188.80578235488792,83.27461053413572,67.42705664084497,50.76302815940289
2025-12-12 17:54:38.909835,Right,3.35745611915263,-21.666959301612223,-26.679771909170086,-4.936650272276893,6.097491297012311,1.4154228543338832,-13.00879046200862,-20.740505632507848
2025-12-12 17:54:38.913844,Right,-67.88693946000421,-88.11083235446131,-94.13763507481053,-74.32537249253073,239.8120121179236,-70.56396234357089,-83.95641591733875,-88.53272033658868
2025-12-12 17:54:38.917798,Right,-5.531606699034455,-3.1951552059326787,-13.207760893543309,6.89555068739719,85.17647429234057,5.86039312685898,-6.4279709293550695,-18.433655776272644
2025-12-12 17:54:38.923875,Right,89.18155725689212,93.71097189030115,81.75976277334121,103.58675039093214,-164.64465474369354,98.92480855460599,88.46130556910066,73.11480493660929
2025-12-12 17:54:38.926873,Right,50.95288166276623,36.88843275090039,26.80873006692127,48.621639244724065,-42.9185491779499,43.59537387135424,35.99813206899853,28.244931636065303
2025-12-12 17:54:38.930833,Right,-48.46091919009996,-63.58617897760996,-71.98598865493841,-52.025371455427376,222.25898325321032,-57.035025686447625,-61.44693240345441,-63.96856741038937
2025-12-12 17:54:38.934902,Right,-32.76889635542102,-25.622348029624845,-34.846035376540385,-15.773734607770166,137.78885684999113,-22.76913442579462,-25.199657008113718,-32.95713277318282
2025-12-12 17:54:38.937869,Right,58.63736450219585,74.01696802493097,64.53027852049854,84.05288272473263,-132.40992310811998,75.47943621535887,73.32844077570189,62.1857009807718
2025-12-12 17:54:38.941918,Right,53.93399870871144,52.72173960664077,45.58500162603741,64.22622349463927,-76.88476995870587,56.680958267654205,54.641445845401904,51.27971343626996
2025-12-12 17:54:38.945918,Right,-27.332876985188705,-34.41415994995623,-39.60472432210372,-23.64045656651433,203.06771849236975,-30.385484577691386,-30.74211039959846,-26.925442615669454
2025-12-12 17:54:38.949960,Right,-18.050795402306903,-5.264589492537198,-11.071284336037934,3.298230853419227,180.82116066025628,-6.279447303386405,-3.432689073455549,-4.265403590732603
2025-12-12 17:54:38.954950,Right,73.2968547379669,97.94557834054285,92.05135868207435,106.71394170436542,-109.36139540273871,92.43734059673443,98.80303734224071,91.99551031531155
2025-12-12 17:54:38.958959,Right,74.06901113726781,82.94443967156985,79.9674483404633,93.78115397916554,-132.69107776859892,76.74773886734692,86.14148338042651,84.95333029586618
2025-12-12 17:54:38.963030,Right,-26.156480543702855,-29.962957426920184,-30.376168301172584,-19.8316348731787,149.68994100522832,-38.00487428006818,-26.32985639234539,-19.156495534611167
2025-12-12 17:54:38.965976,Right,-49.052630203018,-38.90901757188476,-40.734404335660656,-32.738391986280476,209.36976299223898,-53.37438510811262,-40.25428693535105,-36.42857736660517
2025-12-12 17:54:38.970013,Right,44.371713296049165,68.16224644812974,63.60154292844527,71.8313178019489,-62.69342783332104,47.65323150156473,61.66558484559937,57.191400587686076
2025-12-12 17:54:38.974008,Right,80.44020496164421,91.75567799452256,87.66559061562657,96.135753759012,-154.49387958284933,70.27777622774738,85.15057102252649,83.15477361526428
2025-12-12 17:54:38.978004,Right,-6.645424472052127,-9.327408152519638,-10.810021403158316,-4.836392343462649,108.38227648031898,-30.216192665857307,-14.479345664179164,-7.19620014424072
2025-12-12 17:54:38.984037,Right,-53.53809540561579,-42.757690129954426,-43.493223299747115,-40.800512280180556,235.77596779473242,-66.03434870275487,-49.76342947824287,-42.266298447179
2025-12-12 17:54:38.987057,Right,28.88381950348696,58.49151132454426,57.045264529844644,58.66342255784912,-11.52567148291564,33.04854826977498,49.52996037235516,49.92952595523457
2025-12-12 17:54:38.990994,Right,90.66670697738164,111.14182562077258,110.74407396855895,112.75114438862147,-174.4774362679891,88.76519463070326,105.3136872823552,107.06592545421154
2025-12-12 17:54:38.994051,Right,21.99586723747143,22.612397343174962,24.081061150020105,26.012790502447388,47.771128612803295,5.432089356601864,21.770165165483377,33.403187644194986
2025-12-12 17:54:38.998075,Right,-44.37716292471305,-38.06609138597014,-37.69759042943497,-35.37398456106712,237.74231896661513,-54.622784099618,-39.14068627767506,-25.009248879592633
2025-12-12 17:54:39.002100,Right,16.169072810520447,42.538911352798095,39.67517841890276,44.119816994239955,41.30400489695603,23.189195554887192,36.95621294417094,43.793507343645615
2025-12-12 17:54:39.006112,Right,87.03201691646518,111.06632283412637,107.58655507488993,113.63296261089636,-171.04659483311116,91.99388304186505,103.56472330867655,108.58118517574803
2025-12-12 17:54:39.010123,Right,31.191210322939696,37.014625138255724,35.97899129021785,40.39011799860964,0.7278716824366711,20.970686482436577,30.72955073501862,43.76945501377577
2025-12-12 17:54:39.015136,Right,-49.45717190836967,-40.69219679243179,-40.77909147245282,-39.48822354884396,235.55771496701345,-57.186503806557994,-48.43030448682657,-31.716383563299132
2025-12-12 17:54:39.019131,Right,-4.210950605411199,26.11460676485035,24.16612704508225,24.487279636116,90.43877006079128,5.764344250888826,13.874631306360243,24.313213951117632
2025-12-12 17:54:39.022153,Right,82.06867579258233,114.49525419216525,111.99525886483934,112.88707113236751,-169.46277794061461,93.32230741113472,100.82787766791535,108.68644801369874
2025-12-12 17:54:39.026160,Right,45.40524345362246,57.79106958699231,58.04212950312103,57.38161081523867,-63.15769683862163,39.11956541523705,46.711601912700644,62.757642101621855
2025-12-12 17:54:39.030151,Right,-49.852201005453026,-41.56237409935511,-38.68051022636246,-43.276955606254774,208.95988547841262,-61.407642678835145,-52.34181246259686,-30.497173026564724
2025-12-12 17:54:39.034174,Right,-28.18250379568053,0.27372245219612523,3.4085588494290278,-4.052948303448829,139.33907122918754,-25.846123748738137,-14.274848985944118,1.9336320178886126
2025-12-12 17:54:39.038190,Right,72.26020850266104,108.44511200714078,112.12312364494937,104.08635655352396,-139.69203964631015,78.05526434369176,92.24616999520367,103.27522072730608
2025-12-12 17:54:39.043208,Right,72.0826589151493,90.01528477625834,96.16192913099258,87.45890189235479,-104.94605035206769,60.51554004597938,76.85154099213105,93.67451830482423
2025-12-12 17:54:39.046219,Right,-15.825912160327789,-7.812046960996668,-0.7449193008396833,-11.025428647293666,178.9336019539769,-36.88358475984546,-19.391387516021496,3.4912192222072918
2025-12-12 17:54:39.049224,Right,-14.186532102126876,10.240149404440672,14.080759759464854,3.883338389709934,180.54528075105918,-21.844944410559037,-4.978575432249272,12.107300459656472
2025-12-12 17:54:39.054170,Right,83.0788050630581,118.9924572786731,118.8081592773342,111.43269214465636,-104.22338020446477,85.97389433632094,100.28065088686708,108.66813294066924
2025-12-12 17:54:39.058248,Right,97.25834201683938,118.4880672458894,117.13101287648897,112.5800433029035,-143.58140702515084,89.94294096505834,101.14550884014534,110.9685661554413
2025-12-12 17:54:39.062243,Right,-0.3127641849896463,8.626077140070265,6.7106392585155845,3.3201177892133273,137.39460220737965,-15.800914847637955,-6.431056602290482,7.643298151117051
2025-12-12 17:54:39.066274,Right,-31.748770842054,-8.531912256017677,-13.872141913019732,-15.482802312521017,217.77473666064907,-34.07044107095908,-24.928675766666856,-17.22319814877119
2025-12-12 17:54:39.070279,Right,59.37226362395995,97.23022290381414,87.61701805549455,89.88155250710952,-46.134511121112155,69.71232727001416,79.32237871976395,76.59264160848033
2025-12-12 17:54:39.074295,Right,106.53820846385497,131.6738969903854,120.8555938787722,126.35326310599885,-154.74579029830056,106.42880066637417,116.64693770751182,114.71705205961553
2025-12-12 17:54:39.077305,Right,30.722245275230307,38.602481581430766,28.460411600466614,34.01371349350666,98.67777074119658,16.484948700348014,27.2324316107879,33.43096244282424
2025-12-12 17:54:39.082301,Right,-18.022883795209054,-0.9434005505463574,-12.248718381320941,-8.040147808074835,241.5661354233016,-24.22340713194444,-13.655622954978753,-7.886430856484367
2025-12-12 17:54:39.086315,Right,52.51326508312377,86.80098549484319,73.31331878924902,77.32617541813488,7.168385975528508,60.766730698464016,70.22758872574923,68.22816994669483
2025-12-12 17:54:39.090320,Right,101.65266735721525,128.05364796382855,115.0999955510124,118.97546701316242,-164.97083201646456,102.88127467144386,111.38638078065924,109.72831207723357
2025-12-12 17:54:39.094342,Right,21.72011928808206,29.585427392881684,19.31881876213447,21.192400846361124,49.72563881005044,6.83160536420246,15.600536233618186,22.75770627729071
2025-12-12 17:54:39.098368,Right,-52.57594285970117,-38.520596030724846,-48.07553561441455,-48.39052738544342,252.25121073320042,-62.466872792328104,-52.73988901778648,-44.092113544247695
2025-12-12 17:54:39.102332,Right,11.66252012071709,46.81458502615715,35.7800464959073,35.794830597133114,63.29228335285734,19.988054194557662,30.070523574093386,30.203194357709435
2025-12-12 17:54:39.105362,Right,98.55486193338584,132.54411962567974,121.74549426334852,123.46835541419568,-168.58320037759404,106.97938783667632,116.47133875637155,113.62028473101964
2025-12-12 17:54:39.110393,Right,54.93230023687829,69.79159391365101,61.43442169768241,63.21146874599435,-17.183223677733622,48.03600102910241,56.843339587041555,61.7236412066959
2025-12-12 17:54:39.114412,Right,-31.552973692401793,-16.5063944878857,-24.134822881998844,-23.674603374205617,227.02121565313428,-39.200895694158135,-29.899652351858094,-20.94326399675265
2025-12-12 17:54:39.118416,Right,-2.1670533856395195,32.988966437733325,23.604235788618098,23.92665859769113,102.09740677379887,4.347763716806185,16.043070854095276,18.446976245904807
2025-12-12 17:54:39.122374,Right,75.85192475806798,114.26527014873136,104.8114796593436,105.91631500255608,-160.268241680169,82.3129728039712,97.73313005876844,96.15257287515851
2025-12-12 17:54:39.126398,Right,40.71582719234539,60.791975745145464,54.419175261871715,54.76900141500664,-67.41324643536791,30.73614716406064,49.75532885800931,55.07759343613725
2025-12-12 17:54:39.130464,Right,-52.614811951019874,-35.838909149759274,-40.1700449974669,-41.71317677461775,211.73231426141137,-64.86220628153751,-43.62943559984342,-32.71231065030588
2025-12-12 17:54:39.133464,Right,-30.05784817226413,7.655274380114861,1.960477106149483,0.25504897727660136,159.32820404708036,-24.0284304269926,-2.40812292704868,3.3307591745469836
2025-12-12 17:54:39.137473,Right,74.06112011478945,120.42177442358661,113.65631434156239,113.4977347347849,-126.00342995354004,87.85824437903648,108.63110044593122,109.90630272694398
2025-12-12 17:54:39.142434,Right,74.19485699337201,101.81612639269588,97.19491188897518,97.13215050490544,-114.26953471579327,72.93378421492343,92.94727493604296,101.53244288998394
2025-12-12 17:54:39.146493,Right,-26.13207541472002,-10.400211562962795,-12.92806646219833,-15.103924253966397,166.14594505747664,-36.9498556208564,-16.806226729615446,0.36941382211080054
2025-12-12 17:54:39.150501,Right,-42.44867599104873,-11.491974798111187,-15.47979915059841,-19.050855418903666,182.8411122542966,-40.901964953854076,-20.37700009150285,-6.590624602438766
2025-12-12 17:54:39.153514,Right,48.85905349431596,91.71402349775599,85.26982919875445,82.40616800056887,-104.32997358930879,59.71918905914754,79.95614309109806,86.30198521062994
2025-12-12 17:54:39.157480,Right,70.82870053262559,98.82680635025463,92.591053904398,90.18146021464418,-167.41901167643664,69.08801427973049,88.65904515301008,97.42778053333313
2025-12-12 17:54:39.161537,Right,-20.753835879480903,-6.973546152417839,-12.271597289516649,-15.980437296620948,102.90417854186671,-34.404711749499256,-15.187036698527663,-0.023978930425073486
2025-12-12 17:54:39.165536,Right,-55.95084655224491,-29.083309226552956,-36.111873166650184,-40.863955526423524,192.76955550226558,-59.33245128172712,-40.34463115118342,-28.852037881973956
2025-12-12 17:54:39.169501,Right,29.009900235361783,72.41883391702868,63.05239212255401,58.834466887739836,-74.24970839515663,38.0130986746135,56.55243180493926,59.29987440437981
2025-12-12 17:54:39.174598,Right,72.10553348709618,106.11372123118053,97.75741631134588,93.43585064673243,-206.87758532657244,71.76469544466454,89.96246556065307,94.48293350623862
2025-12-12 17:54:39.178589,Right,-9.110452287819498,9.623079175231396,4.078772018307063,-2.4908500743913464,35.62076557326509,-22.836187909424552,-4.688972956486396,9.485023768764222
2025-12-12 17:54:39.181662,Right,-60.15121737700065,-31.164135246755905,-36.305825307106716,-44.839615498796775,192.4454524739267,-64.67210125449401,-46.57414158193933,-31.306384263494692
2025-12-12 17:54:39.185653,Right,22.495965240064834,70.24570997271803,64.08915445808088,55.844365394506895,-38.80648829857819,35.04257037372463,53.30558182817185,60.636730574326066
2025-12-12 17:54:39.189679,Right,94.59677686813848,135.06245084391412,130.73349889613746,122.52438432276904,-237.08017838399246,102.10073946545435,121.38518120105073,127.2611857998636
2025-12-12 17:54:39.193672,Right,27.304083966839244,46.77115247763868,46.47594793560711,35.13177780470505,-42.76352912931179,16.96486703814844,37.88980349278427,51.09572096665215
2025-12-12 17:54:39.197601,Right,-57.50624732064716,-35.69365708865371,-34.3357223313069,-50.32430608844879,173.81223134246466,-67.75317904729309,-45.88868075233768,-31.004370747723442
2025-12-12 17:54:39.201600,Right,-14.42690818617666,26.99655254373647,27.45294465086772,8.645366320397443,7.0113495780151425,-10.567512844243538,10.483939007528534,18.25136172456405
2025-12-12 17:54:39.206678,Right,60.964942514116046,102.30750541672751,103.79545164154115,83.63565346132236,-227.04597777131494,63.962219097593334,82.89357195634511,89.11415545987984
2025-12-12 17:54:39.209673,Right,18.357742211383083,41.02997217572556,46.3069030251354,23.80903732643128,-84.98684938837687,6.903619981286738,23.961914194951532,38.79331573766103
2025-12-12 17:54:39.213706,Right,-64.84803077037395,-43.221626557082345,-35.78162472121039,-61.08666628410356,172.33434060445143,-75.63607014769423,-59.26326266090473,-40.111597391893156
2025-12-12 17:54:39.217697,Right,-32.96328825295495,7.910786089014437,14.245580660455744,-11.807311588225275,67.41257772078279,-27.169243780584566,-10.757425467945723,1.482408428521012
2025-12-12 17:54:39.221666,Right,50.61464876727223,94.73837924992404,100.55856510355079,75.35625956478907,-199.59875243150964,58.80896624467505,75.27136366921332,82.97658843470708
2025-12-12 17:54:39.225722,Right,20.036521141415506,44.36129369728587,52.361913496228226,26.646007641356846,-123.82730546132007,11.51695811107902,28.015083705126017,42.81541068585648
2025-12-12 17:54:39.229749,Right,-77.72439623490936,-60.148102988088795,-50.63284378046956,-78.41473526759,159.53182450866325,-91.65735920708312,-75.04690934350583,-53.56696299885516
2025-12-12 17:54:39.234779,Right,-63.08860017753159,-27.012832221334975,-18.95143908454338,-47.52798081225046,125.07752542788205,-61.252483662561644,-44.78020555047988,-28.13948848437576
2025-12-12 17:54:39.237767,Right,43.27235761873908,88.46392902732623,95.28815991912415,67.72469290045046,-163.22696991021155,53.31000231710868,69.0082526423721,79.41001477443933
2025-12-12 17:54:39.241813,Right,54.714580396353995,82.37643291001586,90.8983000857479,63.603812554651086,-171.84541227610043,51.70333788548851,65.951638575978,81.05468740650394
2025-12-12 17:54:39.245788,Right,-40.408174069262714,-25.141346979609807,-14.890847968919843,-43.132770529136906,107.44389491627408,-50.86570119276848,-38.61314227218827,-16.122069380136963
2025-12-12 17:54:39.249777,Right,-61.90478647422242,-32.84654423342727,-23.987034804995346,-51.618275237386115,145.50442000969088,-57.32131175164204,-47.58195689247077,-28.188521211799525
2025-12-12 17:54:39.253790,Right,27.250541131131286,67.26508734017989,74.10464368203975,49.44853290528772,-133.10401088228082,43.85537197687654,51.062787376180495,63.35345233382395
2025-12-12 17:54:39.257859,Right,57.59115195416234,81.28365327679785,88.90786825979012,66.6079836470708,-209.2404605205429,61.74796255723959,67.8788059721046,82.656465392065
2025-12-12 17:54:39.262822,Right,-26.683375108931614,-20.17222052123543,-11.114527001220267,-33.34872181888204,59.165209975848484,-37.654745251818895,-30.21935452836624,-8.442696308004088
2025-12-12 17:54:39.265828,Right,-65.07624089872479,-48.08760788421205,-40.65080793452944,-62.84153589673224,170.36642101481448,-69.24017018746326,-59.54909268076153,-40.348951731772104
2025-12-12 17:54:39.269855,Right,15.851275110536335,48.832738053235516,53.54680225352058,32.92388497340653,-84.02396886747374,23.773102529939933,34.14499874821922,45.095870123615896
2025-12-12 17:54:39.273809,Right,63.74388375981562,87.02501270156063,92.24455643280089,72.36154024615644,-229.65969114323525,64.51177320022543,73.21508957990591,85.51053888042225
2025-12-12 17:54:39.277859,Right,-12.726362692454131,-7.0166267543972936,0.791299942175101,-21.115221964349985,3.7646961898717564,-24.065487238464357,-17.885090807623783,3.6316166619653814
2025-12-12 17:54:39.281871,Right,-69.2917192415116,-56.0255296036994,-47.91992061386554,-72.29481741891686,176.48591076039156,-72.35840070064478,-67.78339940948354,-44.93041288666427
2025-12-12 17:54:39.285905,Right,4.782964516213724,36.52517876304046,43.21411488069862,18.766447010868433,-39.88875216967426,17.368676870550644,21.709106634112686,37.39755431361118
2025-12-12 17:54:39.291904,Right,74.99120696841055,100.71284471679974,108.67537314902438,85.3234244086234,-247.6001164914087,82.12006057732106,87.00473809484902,102.70498445300473
2025-12-12 17:54:39.294916,Right,7.643561050056633,12.491235747009341,24.41341341505904,0.6496309919675696,-64.63592403392977,-2.1351248729306462,3.367293904797407,29.012936248182086
2025-12-12 17:54:39.298917,Right,-80.73378856833824,-74.28632259048027,-60.28824928668473,-85.27702811614108,161.27493447583038,-87.39405894264269,-81.78500354128846,-51.69783680772525
2025-12-12 17:54:39.301932,Right,-36.61085764469681,-10.262045114264765,2.7907782950787805,-21.95126589828942,1.306628787810041,-24.521668038241387,-19.78905895810749,3.95044781332399
2025-12-12 17:54:39.305995,Right,49.1524283600138,75.94398958751844,88.77126756661164,64.86999932469917,-253.36812814119912,63.099428281165046,66.13631610538505,86.72319283110119
2025-12-12 17:54:39.309963,Right,13.173965007548304,19.72399193581805,34.22462423365505,9.389266255160692,-134.56325251112503,10.76022005542086,12.078540205511672,39.38530679343239
2025-12-12 17:54:39.313990,Right,-77.63332085034108,-75.15737321187044,-60.779639954082086,-86.95268001141449,129.64033841190394,-83.35402256953512,-83.43693270050608,-52.436463034791814
2025-12-12 17:54:39.317936,Right,-54.10224403596203,-33.763689571824216,-22.732609376464097,-47.0653272524014,42.29546184288483,-44.61961725779315,-45.98918509524265,-22.14344452277146
2025-12-12 17:54:39.321002,Right,38.60556382439472,63.01836916449247,71.51292777327035,51.676563093507866,-233.51161007986957,51.73321253015229,49.78342437232641,67.96170938355499
2025-12-12 17:54:39.324950,Right,26.72836124901528,31.45240003458457,40.64085594759672,23.79998864506706,-180.0652339823646,22.912874472362773,22.165713510936257,45.438311023761344
2025-12-12 17:54:39.330019,Right,-65.34327840620404,-69.46304615371264,-59.91801112556277,-76.26122445500187,106.50918619174627,-77.44200918129013,-75.7391154556044,-48.57239701436629
2025-12-12 17:54:39.334034,Right,-60.63180040551242,-48.37745716979407,-41.64155906303495,-56.9633355187525,95.55120199595694,-59.23203410700694,-55.86923982919325,-37.32409895759338
2025-12-12 17:54:39.338049,Right,36.675790543421954,57.742663799697766,61.801059807126876,48.77602152471809,-186.0255166934876,46.24104264458447,49.32516787886016,57.74243123861379
2025-12-12 17:54:39.342058,Right,46.779217885903336,50.92161008719631,55.78216332084412,43.31081946796621,-204.2778957669725,43.35795923950218,44.75507316790936,55.392505225107016
2025-12-12 17:54:39.345067,Right,-49.63595653159018,-57.033406303311494,-50.58456545833906,-65.12156129908362,82.75833899359714,-61.766416347222275,-62.26942768360823,-45.11765956565068
2025-12-12 17:54:39.349057,Right,-74.28736035611132,-65.41502268510158,-60.1754848380624,-75.91070759906142,145.77547394163412,-72.34692126152186,-73.93808682784038,-60.22513120626172
2025-12-12 17:54:39.353078,Right,17.384629824895455,41.465530794870574,44.76568692456203,30.93485542576491,-127.1243314893436,32.24816861491081,30.65448101193215,36.857136192593316
2025-12-12 17:54:39.357104,Right,54.75205344287133,65.6476226357845,69.83771796019573,58.56178131712295,-221.76358373341645,58.99647533431971,57.9137619827834,66.64858528738478
2025-12-12 17:54:39.362120,Right,-29.296552662561226,-35.53528810226635,-29.474302135156904,-40.106135095809805,41.56006127902219,-38.81404776770023,-39.7710519272041,-23.131496530782897
2025-12-12 17:54:39.366129,Right,-74.37425593125693,-71.28151449820507,-66.32276241944055,-76.84683636674526,173.49597351905686,-75.76629246764787,-77.73055388261128,-62.77765860537693
2025-12-12 17:54:39.370084,Right,6.802563511346193,25.72475053954986,27.943469880770863,18.76330815550591,-68.96387273932487,18.720496424482008,14.770451604312257,21.026089343351487
2025-12-12 17:54:39.373162,Right,65.23083929836378,74.12618589033082,76.21865356381022,67.94331362100183,-228.62618570785708,68.83582896866528,63.38324184917292,69.23353857921029
2025-12-12 17:54:39.377160,Right,-5.548121995418114,-16.227771073998156,-12.295035353443382,-21.778751948316312,-3.448510256836016,-18.043801569003335,-23.282751310580352,-10.004826478587347
2025-12-12 17:54:39.381167,Right,-70.42511182394514,-75.37835815388462,-71.8037816867909,-82.28239013348048,188.3610582678084,-77.40664930518369,-81.34391187112669,-68.09403910665787
2025-12-12 17:54:39.385180,Right,-6.258608830986418,8.204064390683925,9.573458296610625,1.0031830593507038,-10.129224491909554,4.164939274347489,1.3502253931492305,5.6421345855233085
2025-12-12 17:54:39.390197,Right,66.64853083459411,77.8681970828402,79.61364905925802,73.89883719272257,-227.40344094017928,75.29380547151004,73.58210213610437,75.33667945313209
2025-12-12 17:54:39.394200,Right,9.377333734828426,1.3662233740833472,6.343306393839157,0.8203933811573734,-57.82625441715936,1.8764845453561065,2.1282233902820735,11.614217198355618
2025-12-12 17:54:39.398237,Right,-74.06295483899328,-80.56973636962721,-74.1650762559293,-81.35202888091499,180.1795109162631,-81.16854234253105,-78.51643953020903,-65.79419932790188
2025-12-12 17:54:39.401242,Right,-28.601584513347575,-15.365304327315243,-10.840706142240379,-17.88282411072123,39.18781261080585,-19.641825662262818,-15.622393808577726,-10.218605559864955
2025-12-12 17:54:39.405242,Right,62.56136532264202,76.23849307980345,79.35286886812173,74.52686560316397,-220.70063698349986,72.8770566063713,76.68460410448097,77.79496072535039
2025-12-12 17:54:39.409198,Right,31.64702903138061,24.06624340198323,27.900184707610606,24.51160166013051,-117.20921779263881,26.28882378092021,29.210763465148375,36.48716504010736
2025-12-12 17:54:39.413268,Right,-62.38708741947448,-75.0641908166399,-71.69430685462794,-74.77884292531053,153.65859432252182,-70.01518681037942,-67.86203364185621,-56.70159751539177
2025-12-12 17:54:39.417272,Right,-46.36129512603418,-39.813190333588864,-39.467838551456225,-41.14176617816702,85.08205971485586,-36.686651725904085,-35.53558779388641,-31.46745703045235
2025-12-12 17:54:39.422334,Right,43.099022315784055,57.00788043967259,55.58329991971186,56.066098234823585,-192.7785569816042,59.674398575892155,59.296427404919086,57.4428100701989
2025-12-12 17:54:39.426307,Right,31.425725482875805,28.025940524934413,28.2056711938676,28.5491531985017,-157.51708731801045,34.04335648295546,32.324648345946116,36.20250055871293
2025-12-12 17:54:39.429309,Right,-63.85033419567765,-75.31901270126036,-73.83825556783995,-75.99751387766355,126.61681424817652,-67.8749097691898,-70.18396813378604,-59.903416628676496
2025-12-12 17:54:39.433277,Right,-64.27317142834863,-58.153482330406405,-58.57596551941606,-61.90082763463943,127.25041818985483,-53.90717066427533,-56.437813549235216,-51.53934756547824
2025-12-12 17:54:39.437346,Right,36.05885281012695,53.11941645057959,50.578279353934704,48.88718481519663,-161.22835964795377,55.32958248447267,52.5285346654955,49.14175133354729
2025-12-12 17:54:39.441319,Right,57.74877679019232,58.158442495925556,56.34167857518514,56.314654902038455,-205.98041709663084,63.3267228158129,60.329811586182586,59.438869516336126
2025-12-12 17:54:39.445384,Right,-31.795212095371653,-46.17542206842518,-47.159603773381605,-47.00729617966226,70.72273435777606,-38.27245543416393,-41.11269523584906,-35.38509164592688
2025-12-12 17:54:39.450400,Right,-59.879780456858725,-62.112487141193924,-65.60205269752987,-64.50188668478586,148.48196533782902,-56.59152622778129,-58.91980594550023,-56.66891958652559
2025-12-12 17:54:39.454367,Right,27.976814244259458,39.250695578022714,32.4165326596285,36.21475999534687,-117.75493961865868,41.24229088903667,39.539749794841555,33.12861302809324
2025-12-12 17:54:39.457424,Right,66.03663872827656,64.36803245692681,57.59122261797165,62.838806058201044,-227.25391412996396,66.65330652371449,65.6614981134262,60.209399361996475
2025-12-12 17:54:39.461377,Right,-21.038333542325972,-39.55476014501437,-44.345201346941394,-40.788953404091444,29.114975304095424,-36.32168841841576,-36.497066441480456,-34.43035271379267
2025-12-12 17:54:39.465444,Right,-74.89609988389498,-83.01811639705193,-88.08311600826164,-86.64507813804357,176.37918479875952,-82.87933415568477,-82.60119263639854,-81.55537243464278
2025-12-12 17:54:39.469443,Right,2.837512008341946,13.70385841850839,6.984815227207946,8.591710108700681,-57.69899763849389,10.08679949346697,10.046511859981365,2.8426940612553153
2025-12-12 17:54:39.473419,Right,68.44350763238799,72.63731881195599,66.88359702364869,69.40860546990189,-233.86606863066845,70.3750113844253,69.68544725296806,62.17516752748452
2025-12-12 17:54:39.479487,Right,6.058358043775343,-8.738492810343814,-11.694477987673963,-9.658606413908274,-22.191889558089315,-6.9608933748277195,-7.876237430746187,-7.438436017851927
2025-12-12 17:54:39.482483,Right,-56.89757743920882,-67.61927830135028,-70.36427742952674,-68.62165789926348,181.42921978706727,-65.17063288391182,-66.0128914153729,-64.65068580511252
2025-12-12 17:54:39.486505,Right,8.086944840739534,15.733340343896998,10.741084779461744,14.499506735138311,-4.570832420933584,17.270763304544744,15.834952420949321,8.870790979832236
2025-12-12 17:54:39.489512,Right,86.04874387391646,90.38861526003711,85.15929181334468,91.09890059148893,-233.98005855574593,95.47739112952331,92.39152201351862,82.95082777547032
2025-12-12 17:54:39.493475,Right,31.555680482470052,15.808743176350617,12.821674286398775,17.752761829585324,-79.53116528754617,26.806416494724544,21.809682431579404,20.0238912586301
2025-12-12 17:54:39.497529,Right,-58.16938198244952,-73.68370839571435,-76.35249381400399,-74.3763537948953,169.12233958893194,-62.40598032279922,-68.70055443315732,-67.28525272546722
2025-12-12 17:54:39.501538,Right,-21.50387508547692,-16.60940290603503,-21.994494450474576,-20.902688663269146,47.55464328200469,-11.011479586819405,-17.950738597259033,-24.120832590546343
2025-12-12 17:54:39.505567,Right,69.61483415480507,77.48859917462323,70.4945267946946,73.24837529346314,-215.25221318951662,79.31962678903801,71.99501418899513,61.17955511558739
2025-12-12 17:54:39.510582,Right,45.85389447865691,33.883414605399594,28.03820558094276,32.106542886549505,-125.5463959415938,36.9210596464236,29.10455940262011,24.85360069395847
2025-12-12 17:54:39.513570,Right,-45.12686624582739,-63.237277400051426,-68.93517269935955,-64.49445145779828,151.6429236537515,-59.13431915257752,-67.82176834775362,-66.84874987033527
2025-12-12 17:54:39.517593,Right,-30.41903068364695,-30.611880159778593,-38.99352760381885,-32.993727154380394,100.49882789172989,-28.19602598664278,-37.94505330144966,-42.96877658950143
2025-12-12 17:54:39.521639,Right,64.36657432177049,71.49047240519394,61.45495916552079,69.96247015799418,-181.80228467110283,73.50110555582069,63.214505623468845,52.36112634719393
2025-12-12 17:54:39.525656,Right,63.84793541336671,53.25974227218103,45.045608923661575,54.1867673562374,-166.78567393165577,57.71423395539023,47.912458860391126,42.851798761766986
2025-12-12 17:54:39.529638,Right,-28.416121977748162,-48.89899052875717,-55.62529326634217,-47.6816096088146,117.8424418734794,-44.03205895663814,-52.75845989793328,-50.35869662227606
2025-12-12 17:54:39.533645,Right,-37.41158742223365,-41.69842127871743,-50.7176611167597,-42.317360610419655,140.65988874238974,-40.28819785124324,-48.5949105294095,-50.10705347641124
2025-12-12 17:54:39.536666,Right,53.362982003194475,60.27378281324127,48.12486359163631,59.66690606298789,-139.26092292794783,60.44191795430379,51.12613811483925,41.91859012183954
2025-12-12 17:54:39.540676,Right,69.12338269491192,59.565340176462996,47.233590178392205,61.52787601315413,-195.49176393359085,64.39941714040651,53.41054859605879,46.11619984703225
2025-12-12 17:54:39.544650,Right,-28.071181236711254,-53.35523543024965,-64.94666796230013,-49.883491592594055,80.39538629726303,-43.64380567365333,-55.6894413520738,-57.28367238718465
2025-12-12 17:54:39.549666,Right,-64.48050545877186,-77.42194329542554,-90.62170894509109,-74.38708191804426,173.06058815287543,-67.9800588393482,-80.22994153631066,-85.65744851557507
2025-12-12 17:54:39.553683,Right,23.90253710394495,27.54556038764713,12.729684383355561,31.796083503289083,-95.87814565282315,35.44337677029216,23.357315291201758,9.94489736028197
2025-12-12 17:54:39.557708,Right,70.63323787173158,64.92581638810043,52.433026018368764,72.97037614757664,-233.6966069256523,75.01720461676814,63.45353750843424,52.98768550942896
2025-12-12 17:54:39.561716,Right,-15.078447751406543,-36.708983652727966,-44.91923519401644,-26.794408492170078,6.303292281467293,-24.522623547745752,-34.83599034016788,-34.670895891898
2025-12-12 17:54:39.564722,Right,-81.35627587443287,-93.59414072716208,-100.4967123819124,-86.54707355928758,167.7786485614124,-85.41342302904195,-94.08152980221394,-91.99638937378177
2025-12-12 17:54:39.568722,Right,-15.026008427464717,-8.528062287519916,-16.7462208649049,-5.747691413508619,-53.56170106348873,-7.181183914866779,-14.988899742202193,-19.88723904227345
2025-12-12 17:54:39.572737,Right,51.15993446661298,51.34071495808985,43.502113932981956,52.14204867486933,-241.2254402528779,50.86270157670879,42.37619568269338,37.092765637958564
2025-12-12 17:54:39.577760,Right,-10.094855198684456,-29.69994805772012,-35.35758080442065,-29.844098543456766,-38.19695105532446,-27.264265777495893,-37.28438815800837,-34.483562578453075
2025-12-12 17:54:39.581757,Right,-81.45618303463982,-98.10604301373678,-103.77634263175605,-100.04525483962425,182.91754289381788,-94.40357881629461,-105.49550683642292,-101.42496732412928
2025-12-12 17:54:39.585731,Right,-21.96710910702774,-19.70593869161621,-27.77047612860406,-21.948232016966813,14.088437280712242,-16.843894369743794,-28.042440047058335,-33.05674197393182
2025-12-12 17:54:39.589821,Right,66.31392946313633,66.33161042369056,57.71580804263431,67.58993063772778,-226.1614985038832,71.05425462430867,60.531653402164466,51.371331164545154
2025-12-12 17:54:39.592801,Right,27.2484743629999,6.116862395807857,-0.5611240730395366,11.698485252045884,-87.93725383666242,14.627664817959158,5.280769038106428,2.809480534288923
2025-12-12 17:54:39.596802,Right,-58.92666024348006,-82.08066435215915,-88.73576221089752,-75.50703474686361,169.62967837220276,-73.48545754853876,-81.99870678306934,-81.07822679284527
2025-12-12 17:54:39.600835,Right,-28.373157604481577,-31.106387418948998,-40.92484656005763,-25.70118313934472,63.936709470126516,-25.701621276506557,-34.56152419830505,-40.99417609305419
2025-12-12 17:54:39.604835,Right,58.06321401353649,60.75260494373015,49.16762903468043,66.57839277114226,-207.24995065539042,66.22421776573174,56.49684716871707,44.968792439417484
2025-12-12 17:54:39.609857,Right,29.903768405629393,14.405144810912134,4.946345353313518,21.71655587426494,-133.9682954019372,24.311781767399225,14.56900630412565,8.986349129590053
2025-12-12 17:54:39.614874,Right,-69.88136866212965,-91.52148866970037,-98.5943824212136,-84.8569072839,152.851122541495,-79.26464124094309,-88.09830021737434,-88.79887228102962
2025-12-12 17:54:39.617883,Right,-59.976386499717336,-62.99256012139995,-70.08573993975551,-58.19178775914088,124.42753385966353,-52.958882966246165,-60.94050243222773,-68.31927520626596
2025-12-12 17:54:39.621895,Right,42.915169934905194,49.04996670697528,42.64888917866847,54.73367915755125,-159.9282338110679,58.12305427731553,50.74336334720192,36.02132872143011
2025-12-12 17:54:39.624893,Right,53.02597055950061,41.72650589705427,39.202518803538624,50.83952370636689,-164.66824604556678,54.354160856690214,48.205843770087995,37.89587682753972
2025-12-12 17:54:39.628897,Right,-42.99723501347175,-66.11020202578584,-65.19098404629585,-55.28582579718159,122.97134787209507,-50.65129604582398,-54.75544867199551,-57.714335340526304
2025-12-12 17:54:39.632936,Right,-65.92140531663622,-73.77194823965056,-73.47356273400874,-63.81297224843229,172.74471864808584,-59.77768844000093,-62.50317936338206,-68.58791352435946
2025-12-12 17:54:39.637937,Right,21.243037405664808,26.419842990566394,24.933558828546666,36.62255264872556,-95.95838215375989,39.865529387632705,36.258556868615415,23.503802286313658
2025-12-12 17:54:39.641950,Right,48.68971102923834,39.531116095065954,39.36212621614686,52.17117448539693,-165.6271349038725,57.94264135712183,51.22524979882883,42.16593353285134
2025-12-12 17:54:39.644932,Right,-37.62259500311541,-62.29626739557898,-59.86852457126042,-48.57511981764992,108.2237983763589,-37.96654830925581,-48.823413644040556,-49.56314171618578
2025-12-12 17:54:39.648953,Right,-72.64280729541579,-85.43555966841632,-83.25399432707309,-73.53770346750298,223.999962751157,-60.006073825090425,-74.96984496091727,-77.90952082932017
2025-12-12 17:54:39.652973,Right,17.205135205247913,21.144325276000927,21.51270198484599,31.45693323763453,-29.65785929688718,45.38798157034398,27.14040642001828,15.345743272100663
2025-12-12 17:54:39.657010,Right,72.02322817677133,65.89422712715805,66.89365461603848,76.62458755932312,-178.52729084610837,91.66822318911363,71.48745207905358,60.436314984048295
2025-12-12 17:54:39.660992,Right,-5.314857090412534,-29.983286763229444,-26.805894890541822,-19.513595371356587,52.03560358396862,-1.6959535958794731,-23.087228610706006,-24.94411105441941
2025-12-12 17:54:39.666005,Right,-66.75050574704173,-84.4244007760235,-81.40775148638568,-76.17824564016428,225.6604680213095,-56.5863674469274,-80.07498962894033,-80.46005457021238
2025-12-12 17:54:39.670017,Right,7.022928177797356,7.875265884895271,9.227242837563608,15.628869689906423,12.84211512121692,34.96904766638545,7.959615534046861,0.067937047828309
2025-12-12 17:54:39.673024,Right,85.63326533082156,80.34934803464967,82.83918599036224,92.01965131787665,-191.61134420746566,111.35874114981743,80.96417641246853,71.9544908357766
2025-12-12 17:54:39.677023,Right,31.746270525170843,4.527838459374834,10.621525034579463,21.153573558105563,-6.461731691753812,41.5459747031673,9.701547572487016,8.731827007162792
2025-12-12 17:54:39.681046,Right,-45.730550538311334,-73.19733590424767,-65.87603160048457,-54.76027917469037,222.39450029746695,-34.49620078955377,-65.9225870443247,-64.87090177651044
2025-12-12 17:54:39.685061,Right,1.5246901549529142,-7.64819977363004,-2.3395212622017425,10.827061769049578,67.91589643286716,29.438386253270437,-0.9774960430986539,-8.67921616482272
2025-12-12 17:54:39.689010,Right,83.24771174937149,74.04120933682498,78.58545033381779,94.02464065402273,-179.28615981133953,112.655387386023,83.25095023069616,70.80687631618093
2025-12-12 17:54:39.693078,Right,41.2829342021863,12.687845940976331,19.315973844906694,34.31731383931219,-53.47171027058994,55.84414463491885,27.49365697115263,21.62176382171674
2025-12-12 17:54:39.698070,Right,-52.526593172228026,-83.2079702124629,-75.4902385090445,-62.745402606450625,215.51429269088294,-38.95110341733016,-66.66249939795216,-67.6033712254266
2025-12-12 17:54:39.702102,Right,-30.365198614619004,-40.5368990206407,-34.40587150026295,-22.15989447220636,131.36210926527747,0.4354425533947506,-27.604954882557195,-33.48468974462594
2025-12-12 17:54:39.705121,Right,57.09876070973445,53.707347800833304,59.146515461421586,73.0187289059495,-141.17339208173507,92.98833817142076,64.01459539077268,55.35863318435804
2025-12-12 17:54:39.709117,Right,35.13543248762812,14.504807929160961,21.713931069629325,36.59934072069427,-83.9013006499099,55.21050517330332,25.791516264896472,25.568505275590724
2025-12-12 17:54:39.713128,Right,-67.1366927860787,-94.4332012672512,-87.06387364233524,-71.96758341428722,206.33846148828525,-54.908415045272704,-83.19802097626598,-76.1172657469433
2025-12-12 17:54:39.717181,Right,-66.6515705886826,-75.52447052261778,-72.0524186419425,-54.79892062307408,197.03259382193528,-41.56814787082294,-66.8287226453399,-65.88082311608196
2025-12-12 17:54:39.721093,Right,36.2723513240669,38.137736868786305,37.80688694588025,59.067031320028036,-87.55458631186048,68.47044864801137,47.19772864852007,38.53768196875353
2025-12-12 17:54:39.725113,Right,58.391348768266425,44.75134408418489,44.827886714872875,67.9648402111734,-113.2820603791206,76.75554933875173,58.76527103248873,51.50563598072222
2025-12-12 17:54:39.729165,Right,-28.111041830641625,-52.434222185389444,-50.186985825879674,-29.068101478605058,165.1803417034165,-19.22418947002734,-35.924383582719884,-36.84252389090034
2025-12-12 17:54:39.733201,Right,-48.18740711208534,-54.94746567128095,-52.7908433368284,-34.649098468285956,219.24466067723992,-25.586171185352214,-43.192128413442106,-46.33024007535823
2025-12-12 17:54:39.737196,Right,45.25843708264017,56.613519911345065,57.799370498833014,74.3314225092181,-64.43826317076767,81.75140336062759,62.13881645894185,52.96653223227986
2025-12-12 17:54:39.741205,Right,81.58236476547859,84.100862706935,86.62123570982658,101.29372003311528,-169.00600648492997,109.66537872589106,88.59596199277348,82.86675029530852
2025-12-12 17:54:39.745160,Right,-9.102199365829847,-19.318742924306207,-14.949324150027678,-3.4928913198937153,87.49412879216891,7.457095469739215,-13.858474551262816,-10.821636415184912
2025-12-12 17:54:39.749225,Right,-65.66106425458088,-62.83756114471544,-59.72189166142198,-49.9565849300252,208.6544265805362,-39.28937899568882,-59.980337999590574,-57.29106863506058
2025-12-12 17:54:39.753244,Right,3.3967230237519743,25.767809629482144,26.263280213770486,38.13275980328444,-55.65236559750156,44.51785443455083,25.704789453819103,21.5236820448863
2025-12-12 17:54:39.757260,Right,51.767094645898396,68.19740538927363,69.09327094314722,84.25194961075931,-240.19745544767466,85.26876289007487,70.78053945227418,68.63757046551655
2025-12-12 17:54:39.760272,Right,-25.919581362566305,-25.996856394322094,-22.716666308318963,-6.2181079944757585,-29.42376265443704,-10.275598740106943,-18.089058471306885,-9.882999827175809
2025-12-12 17:54:39.765217,Right,-92.80319109192374,-86.48891651692793,-83.59367615059091,-66.40759137379837,156.0301675421424,-76.6742410356228,-77.50935596751049,-66.82182974883654
2025-12-12 17:54:39.769281,Right,-26.456563447022972,-1.618711008437458,-1.5952748730451276,17.740743058152475,-53.3667189640737,0.5749910146751063,5.292826092316318,8.298197848891505
2025-12-12 17:54:39.773243,Right,47.20222105210701,68.17944518044169,67.73312274696218,88.64668231066389,-285.08071371566984,67.35850694622059,76.47572163875088,76.90780934409122
2025-12-12 17:54:39.777299,Right,-14.815801173309183,-13.259949936908015,-11.266225453942752,7.769263790322384,-120.38875866461194,-13.785983157771625,-0.43096023956900353,6.753776784007641
2025-12-12 17:54:39.780310,Right,-104.9847101834755,-102.70608672218623,-100.19866450135669,-84.78677627284696,123.73295105518264,-106.63912678342967,-88.88357016321743,-79.86752214465741
2025-12-12 17:54:39.784338,Right,-62.15316884864387,-41.26511036294687,-41.59780473888168,-27.838929813390223,-12.563441244924434,-53.37536555546649,-30.759509480735574,-30.38785959983761
2025-12-12 17:54:39.788362,Right,32.00533338456853,53.094833490447854,50.89552789624577,64.68913648350008,-273.7436195141763,33.80105361267306,62.421435209642254,57.403119009741204
2025-12-12 17:54:39.793290,Right,7.691302857767596,7.982312664849815,6.873782794566068,19.465635313785924,-169.0444589543722,-15.390731487423182,20.024631937786353,20.096234501863364
2025-12-12 17:54:39.797370,Right,-78.3023234546456,-83.62592085423785,-84.4277771004563,-73.92165752166716,108.92505534765223,-111.59773111077811,-70.84277098078348,-68.09423396093734
2025-12-12 17:54:39.801366,Right,-54.54002975228104,-42.640718984259365,-46.01030514499871,-35.394078386558476,45.398650449391425,-75.88411743942743,-33.24508199214711,-38.92083242636363
2025-12-12 17:54:39.805406,Right,40.08190364776851,57.10841513527157,51.88699747994178,64.72537519232469,-232.47742720343922,22.881846674324606,64.90006392534235,51.719433268553985
2025-12-12 17:54:39.808382,Right,28.4101374480922,26.442616419009937,22.450137659230677,36.18991708853957,-192.81948850009758,-4.348524203079705,37.351839769539595,27.810350380821546
2025-12-12 17:54:39.812471,Right,-71.70816504039476,-83.18339575899336,-86.4489061516033,-73.94279845495379,105.69436107604997,-113.2041175080276,-70.42139841877179,-76.08019777162735
2025-12-12 17:54:39.816448,Right,-78.34288397450644,-73.01574535935833,-79.1189121009229,-67.05974207679377,121.60677032296553,-108.19006397140174,-63.98434955856641,-77.32080812197455
2025-12-12 17:54:39.820423,Right,16.710504742366822,34.10392807428798,24.705036937495606,38.053992746185656,-159.5004233363361,-6.653980530704757,38.79946564488273,15.793733419215641
2025-12-12 17:54:39.825442,Right,35.00728137294003,38.6261188911667,29.11325328795283,42.72078435999191,-200.142908337446,-3.5806725813154117,43.538334584280804,22.749650659325198
2025-12-12 17:54:39.829457,Right,-53.275250454064405,-61.94568211974183,-70.66872590417552,-58.808886346245686,83.48455625255883,-104.12903227463403,-55.391413923039266,-68.92724683672168
2025-12-12 17:54:39.833497,Right,-72.97065635697436,-68.86052528794244,-79.50975565822591,-68.38416716433176,164.73261804578578,-112.18721641058846,-63.56897542404988,-79.49264940683315
2025-12-12 17:54:39.836476,Right,27.269514919640073,44.52031809441905,31.29281618330424,44.08341723433227,-109.37040299296496,1.9996847272354898,48.38426255482642,24.77472730208865
2025-12-12 17:54:39.840486,Right,74.31417339619816,78.67716898988692,66.32795796320534,79.85702036796079,-231.67983793867825,41.141248976147835,84.7295316381726,62.82342836706084
2025-12-12 17:54:39.844520,Right,-11.25425290510816,-23.618429210559952,-33.11080609276178,-22.41149002234465,19.60775627995463,-56.83628961987779,-15.5015235563327,-28.906320864170993
2025-12-12 17:54:39.848468,Right,-68.79345337678728,-71.73589225014894,-80.78817589497157,-74.22375695550704,170.09377126736945,-106.36177026006544,-67.15958758627835,-79.90899879349672
2025-12-12 17:54:39.853514,Right,4.3801392399582255,18.869069500288788,8.610333963011726,12.688821417307736,-61.18010841130308,-19.75739957015776,17.196274288200698,-1.2665277744417835
2025-12-12 17:54:39.857550,Right,65.65031377438936,72.92428099801691,64.02645537290482,66.36966262153283,-236.0484751560507,33.64015100109009,68.90144039021425,53.69047331053298
2025-12-12 17:54:39.861557,Right,-3.2119719523370804,-14.417640822044632,-20.048137588764803,-20.319267241594844,-17.74486534766038,-51.77669593995688,-17.735867168906225,-20.71770611001193
2025-12-12 17:54:39.864559,Right,-75.1093885273408,-81.99493037131924,-87.13488136993692,-89.06948106222012,197.5306036816728,-118.82162255303501,-86.69842270628806,-85.24164801393817
2025-12-12 17:54:39.868567,Right,-16.22995183337116,-4.9590332233083245,-12.591572138364427,-13.021253453754753,19.473977634050243,-40.89180174603371,-11.651654757780534,-17.311914494193843
2025-12-12 17:54:39.872649,Right,63.46349172591363,71.54864083307257,62.9527378917719,65.22994121841225,-207.8255148131866,41.13614262523515,67.86715135078452,58.953035581518634
2025-12-12 17:54:39.876635,Right,15.721880831515591,3.69596317079413,-3.445778237493869,-0.536048027352308,-49.71926658805751,-19.29962537287338,6.4649605905474345,4.184969450019707
2025-12-12 17:54:39.880677,Right,-69.2332963261033,-82.38466548385622,-89.7196950154921,-87.47770377699453,206.12712539193308,-102.78438973532502,-77.0725686193507,-76.35099458236073
2025-12-12 17:54:39.885624,Right,-32.358069088522825,-27.071857030159663,-37.30416618356867,-34.137244616949374,87.93185393964814,-49.004037557491756,-24.07117755813306,-30.607369146197016
2025-12-12 17:54:39.889658,Right,56.331621593044474,64.10637316367684,52.45623613209682,57.53661574409443,-176.89389413959725,43.5686485099568,66.45106084986992,55.521100677447976
2025-12-12 17:54:39.892644,Right,29.676742079079304,18.89253446134444,9.009271960949263,13.98340253966444,-85.83961165619257,3.8171250911909738,24.231576261340706,19.89081758998873
2025-12-12 17:54:39.896646,Right,-62.4956848967513,-78.19595056997878,-87.1593605337439,-84.01004166702387,198.92762166445027,-90.17108298466337,-71.88440444485559,-71.17533441543856
2025-12-12 17:54:39.900638,Right,-45.37234129879653,-43.01936890588513,-54.26690979932937,-51.54607451915717,152.2081653642672,-56.808587702036675,-39.98046412435633,-45.96016026819052
2025-12-12 17:54:39.904675,Right,54.154509276856515,63.72460922294886,50.64994300626495,54.39543735038842,-133.72728002847725,48.390993334181985,64.9358651505122,51.41428619490216
2025-12-12 17:54:39.908643,Right,55.75996627024233,47.767153581527964,36.17073610002808,39.321522113459196,-121.30702826233755,34.506247001623706,51.7937778693763,41.53763305846951
2025-12-12 17:54:39.913701,Right,-40.87976528620493,-59.15819989735655,-69.09068663638936,-68.40192128405988,169.52996963264013,-70.05248577886596,-52.75587608193882,-57.794613733272854
2025-12-12 17:54:39.917703,Right,-58.327012221597215,-61.22904506372333,-72.23483375459,-72.55189216392728,200.95367270358838,-71.67093742425095,-56.73256630157721,-66.56894854752045
2025-12-12 17:54:39.920715,Right,27.742157135671732,36.550282875285575,24.741288047612215,25.86021228766913,-76.99186111476592,28.10405136731788,39.480224846493,22.81907174747994
2025-12-12 17:54:39.924733,Right,48.35465162964829,43.26078023856189,34.19658865720248,36.10396682448982,-135.03804915623186,40.09331157750785,49.41454180314622,36.950359758998275
2025-12-12 17:54:39.928733,Right,-36.4247314226177,-54.72144149238284,-60.435498517334054,-60.13839949752264,143.67466792942287,-53.98041843073588,-45.08751892170585,-49.11168010887923
2025-12-12 17:54:39.932711,Right,-59.75448456992672,-65.82766109768068,-71.69269374517353,-73.17316278327144,244.63833432490355,-65.81868953027151,-58.235554110882276,-64.07005672811374
2025-12-12 17:54:39.936754,Right,37.843693492579405,45.62887360157697,38.34531846012851,36.51942897296044,-15.386190040502697,44.55624312765758,49.021831214899066,35.686284140216685
2025-12-12 17:54:39.940881,Right,90.74891811206544,85.92935962659203,80.62099464641324,77.78254223422232,-144.58566835773672,87.81022464209491,89.24603910384212,77.85097543323263
2025-12-12 17:54:39.944745,Right,10.755782244274087,-12.620889506463527,-13.763909308195707,-19.800309040831053,106.05604828581272,-7.302143970118777,-7.171347878269444,-9.481555794478481
2025-12-12 17:54:39.947807,Right,-51.060791991079896,-67.3214932246691,-66.8160343601453,-75.57393733272147,278.49016818214295,-63.109670659847325,-63.11089375545998,-64.47320520000449
2025-12-12 17:54:39.952767,Right,15.413314344925311,16.420853206447532,16.267095894625527,7.919040739107459,63.74044578642497,18.1323207973619,17.838675655604675,9.421086710241525
2025-12-12 17:54:39.956853,Right,78.57940481337027,73.85090322865771,74.67864344370219,68.0111820933032,-122.11516700677748,78.02419963596185,76.53261918266708,68.0037533109703
2025-12-12 17:54:39.960831,Right,16.756317325662167,-5.6105306148825775,-2.6918798465749205,-9.266724274919852,81.98772766208276,4.440643120240566,0.39027250609615294,0.12583954088313476
2025-12-12 17:54:39.964850,Right,-51.55794941490785,-69.49606881579143,-67.7175880924949,-74.62349689707503,305.341143229045,-56.96183650248349,-64.71452531701289,-63.3202624683679
2025-12-12 17:54:39.968856,Right,7.8849451124697225,8.994574973641079,6.7535086721397874,1.5601251579821565,137.9592750108859,20.026984893804183,9.0427324117436,2.3491589699722226
2025-12-12 17:54:39.972882,Right,88.12490096367401,87.44739418542281,83.53441823691202,80.61454295541319,-102.32893960207002,98.33442048748111,86.13623241386995,76.8123861766503
2025-12-12 17:54:39.975902,Right,37.825930566046736,17.269083882685436,15.29482083533344,11.973743627959266,36.82939394848654,29.95259763503418,18.200228820785924,17.344744636379957
2025-12-12 17:54:39.979889,Right,-53.554696087625416,-75.9370814733768,-76.77400241044006,-82.3243529867417,296.81587203385425,-64.25639752615461,-75.51608464650053,-71.26137975269268
2025-12-12 17:54:39.984898,Right,-17.99176006750713,-21.624472238630005,-23.77974415618769,-29.79256941683991,190.89396690261492,-13.355807817450113,-24.988928121269964,-26.997569029432498
2025-12-12 17:54:39.988927,Right,80.43612860520625,80.82919563150881,78.87278542110653,74.22805186388541,-86.64410744377528,89.52062477688378,77.18259464824587,70.35963088438655
2025-12-12 17:54:39.992917,Right,64.63015340625316,47.49524691128954,48.993160217581135,44.26138701638189,-24.0134281724022,61.37674775603227,48.80971791122556,48.04348747344534
2025-12-12 17:54:39.996937,Right,-29.10499058716232,-50.9003489487518,-46.87991350089624,-53.62568011627599,252.11387795588234,-33.35213815954921,-46.00920402015254,-41.22090894702387
2025-12-12 17:54:40.000953,Right,-24.568500027462505,-26.974022096012504,-24.06055870174805,-31.633772201123605,215.568121597782,-9.617953311575548,-23.278384134119733,-23.795953905315173
2025-12-12 17:54:40.003940,Right,62.61794488499436,70.36635994403468,72.04625483703785,65.69057147967426,-73.214336998426,88.94545433935127,73.0003109135614,66.79603270064536
2025-12-12 17:54:40.007977,Right,56.54532877688507,49.00263702515076,52.34156141195217,46.25507664812113,-78.52083466750628,72.59166625408034,53.63181478847764,53.13812281674973
2025-12-12 17:54:40.012970,Right,-45.44457253078872,-63.299013185141575,-58.447671355584134,-66.57467234476127,209.62314184913703,-36.53196147597919,-58.39935821526251,-51.15548223324413
2025-12-12 17:54:40.017020,Right,-62.40054453595985,-65.73716682644863,-62.6565666519009,-72.59901111856817,255.52291114014224,-41.18395492313721,-65.10209980040145,-61.732066105633294
2025-12-12 17:54:40.021002,Right,36.38192038628222,44.660454376435155,45.78560594367809,35.61655532783311,-23.770566888473695,66.67152020486174,42.161997817307565,37.33838503736297
2025-12-12 17:54:40.025014,Right,73.79269272071724,67.7198688339904,70.66770188928604,59.56648939174249,-106.34763162706804,91.40043296703152,67.84595860920126,65.42581062126055
2025-12-12 17:54:40.027985,Right,-9.342781353436294,-30.34750096082098,-24.360229994998917,-38.12254670346067,158.2987674495962,-4.651951738323987,-26.893879597266277,-20.999429770005918
2025-12-12 17:54:40.032133,Right,-49.6157526252282,-59.19289328472587,-53.71208455647775,-68.93986365036494,269.9964137674542,-36.01392303785178,-58.16875787984918,-53.237607442708395
2025-12-12 17:54:40.036059,Right,30.657355778370402,37.08378961354629,39.769121596589684,26.08116733945394,15.907021040475229,55.86815306162316,32.97477222992529,30.071786361525483
2025-12-12 17:54:40.041116,Right,78.94414473694451,75.9408070000236,77.9740521067597,66.08980259452369,-129.5394627068381,93.28276353175897,70.69447996247709,67.9937887569331
2025-12-12 17:54:40.045079,Right,0.7465212306397007,-19.489327759626576,-16.509246712670574,-28.871107820752968,108.6566070000481,-2.0184822377559613,-23.2096556440556,-18.436092379934053
2025-12-12 17:54:40.049094,Right,-60.75881393026975,-73.89028958482504,-72.05865011743845,-85.24984466403248,290.35164827586414,-58.4607739733292,-79.23188311276135,-74.33956109132396
2025-12-12 17:54:40.053072,Right,8.951714450382497,13.825756218906463,13.410186223845812,1.5332638253810273,80.39213848514919,27.145499380461843,4.839885345562834,2.0376649364952755
2025-12-12 17:54:40.056096,Right,81.85958790379846,81.89824468750066,82.4490068490486,72.4579193708571,-127.36965492481977,98.1086535308059,73.47112588078198,69.85193837032057
2025-12-12 17:54:40.060135,Right,26.170384112298052,7.700198574844762,11.825432514448039,1.7247351703304048,52.41402306906093,30.591063751504407,3.76695023109005,8.149742865267399
2025-12-12 17:54:40.064140,Right,-48.727743514235044,-64.33254529242186,-59.105743818656265,-70.0792787186515,276.40928748532315,-37.196674264476314,-66.36289115059571,-60.04959930719997
2025-12-12 17:54:40.068156,Right,0.6298265067416651,4.6523237285036885,7.694282210160964,-2.2442797194198647,115.73899169995275,32.61179639713009,1.3149995141966428,-0.7107017169246319
2025-12-12 17:54:40.073116,Right,80.4905610424612,85.0154636448533,87.16517672966074,79.21180308686007,-139.76681926837045,114.74167202433455,83.3033061002152,77.26445311170846
2025-12-12 17:54:40.077185,Right,34.84288662815925,20.4334737516283,24.36821284645157,16.567908367554992,-20.32743250380736,52.461932619935396,23.423118001182047,24.56073223796284
2025-12-12 17:54:40.081202,Right,-57.99186353479672,-75.12502342284643,-70.96759065068545,-79.61188929272839,247.3831939672964,-45.382458131334715,-71.88607807588778,-65.74972763969981
2025-12-12 17:54:40.084222,Right,-24.467349770025976,-23.428874428102063,-22.187864761222954,-29.617277554433258,163.34535773084644,0.09364116440701764,-26.224544145055916,-26.08173763088962
2025-12-12 17:54:40.088221,Right,83.2671263649936,88.16551001417247,87.95851863717871,83.17052052266672,-113.64177460983774,108.36279316713626,80.70604132364133,75.90727609910391
2025-12-12 17:54:40.092224,Right,80.76647605131075,66.09073093233383,68.6569909263817,64.39679351756558,-65.38860392837523,88.02092378381349,59.901592512468596,61.55901816846563
2025-12-12 17:54:40.096238,Right,-14.436851790625951,-37.60389993054923,-32.00016257820789,-38.03543815560806,216.60980095455307,-13.6637247714134,-41.245301041814855,-32.476996379877164
2025-12-12 17:54:40.101236,Right,-25.812533819236705,-31.977570720654512,-26.513473577600962,-33.327195955604566,204.1539771905882,-7.885876924847253,-35.486313342687026,-30.803250588893206
2025-12-12 17:54:40.105285,Right,50.70984668275014,55.12240570998438,60.181206798111816,54.23168493299636,-78.45355299246148,81.24285873524059,53.03338071769031,51.35011014626252
2025-12-12 17:54:40.108209,Right,48.45663346512447,38.582602729618884,46.02413566170253,39.726974732617236,-100.51305354668875,69.48540781212796,41.41135623202081,43.58407069209352
2025-12-12 17:54:40.112278,Right,-44.53111547226399,-64.64283624041673,-55.118823633170905,-63.41136612043192,179.90615216279548,-31.8973926446306,-58.8014157238249,-50.21529206485866
2025-12-12 17:54:40.116314,Right,-54.65684771397173,-59.85957054477694,-52.17995494123352,-60.71803483067106,234.57758367325005,-31.182921448344132,-56.70376901153122,-52.43686909123426
2025-12-12 17:54:40.120321,Right,49.62923480360769,57.24665613011621,61.8866474526767,56.108767578438346,-47.65563686708629,81.32634513360244,57.01628842204991,53.04535081296308
2025-12-12 17:54:40.124323,Right,88.22166109228965,81.7032470232516,86.29037068819707,82.9375593886225,-150.49184044731737,105.31237057035833,82.1418326152534,81.24564478508728
2025-12-12 17:54:40.129341,Right,-2.46125799575384,-25.12173788308064,-19.503185480953107,-23.127396450137894,107.69668119743073,-1.6830852908060479,-24.043748043585765,-14.957150911728604
2025-12-12 17:54:40.133366,Right,-51.91627469638843,-63.097587672933514,-59.277047445637436,-63.838386254257784,235.60533519725504,-43.98326528007965,-66.15079285074717,-56.49031580053634
2025-12-12 17:54:40.136356,Right,29.56674096732604,37.40563534022658,38.7575611526845,34.35055297245617,-13.386017304197594,51.93246514593193,29.95993301771341,32.11634687143851
2025-12-12 17:54:40.140361,Right,86.57119563037668,88.5434075125977,91.65090124070775,86.34828812564501,-181.3806494116361,103.72007341752033,83.03302158244787,85.42916105542281
2025-12-12 17:54:40.144384,Right,8.569056229287526,-5.50136551345895,2.2001885858953756,-6.657740235106758,38.31676999805859,12.691233615074452,-5.731446532713562,5.35836574178029
2025-12-12 17:54:40.148394,Right,-65.37780195288724,-72.49078857018503,-63.1061994983138,-75.09855835681901,229.08685881320343,-54.82428199612332,-71.6839313341452,-58.750214973166294
2025-12-12 17:54:40.152401,Right,-5.553574037612634,6.3899736867915635,13.975632462079375,2.6216262950611053,30.154613332955705,21.664651109909755,4.420767045732646,9.92558050707703
2025-12-12 17:54:40.156428,Right,70.34942787059663,79.00281260863449,85.93112678614489,77.1504102031904,-190.1059143407001,95.47607474160395,76.64890161534731,80.2515577372942
2025-12-12 17:54:40.161433,Right,20.942167895271268,10.871267514214196,19.205188683667075,11.118569533919981,-24.319458907704757,30.4258019709996,10.24612747442825,21.37307474220688
2025-12-12 17:54:40.164419,Right,-55.02644604432862,-63.50744580737228,-55.62089091244707,-64.60430338467722,211.7138584390177,-45.32012678224055,-66.21414554168314,-52.80372279379117
2025-12-12 17:54:40.167402,Right,-6.7014442232575675,4.453347741113248,9.526644557499822,0.8721878125670628,69.80824598236995,17.378309929048555,-3.3699816462390118,1.193030619304409
2025-12-12 17:54:40.172460,Right,82.99280251172604,95.42956875105665,99.93895717622945,92.45871144572902,-191.82590378842815,105.8759791261873,86.97407023922824,85.92620456170516
2025-12-12 17:54:40.176481,Right,49.40617660889802,41.91554957201333,49.54004448857086,41.28701181436372,-90.17241188053538,53.84494835091755,38.275960497723645,43.5567509554985
2025-12-12 17:54:40.180500,Right,-46.75436901376088,-59.36284687195257,-49.6065126707108,-60.16522464566606,180.42689769166827,-47.613463259946,-60.38005828631185,-49.238740306227555
2025-12-12 17:54:40.184504,Right,-31.352837719190575,-26.214515682328056,-17.901177162868407,-29.092741178568758,111.3973730971411,-17.750421689328505,-29.790154366477054,-23.354980635031097
2025-12-12 17:54:40.188456,Right,59.945710718376176,71.53861956468518,78.59582993515141,68.46102051694379,-170.24742826138026,78.78463803721388,66.17955608850707,67.8709176790926
2025-12-12 17:54:40.192521,Right,50.3276166747919,45.33468904059919,54.085965718975785,43.35301722475015,-140.2403023770985,54.588127015122154,41.95140297962325,49.31873771908067
2025-12-12 17:54:40.195519,Right,-46.71305906869202,-58.48338332044386,-48.36596907067724,-61.85160081932008,142.35254611445635,-49.92221669906212,-61.495684520434224,-47.80506635009624
2025-12-12 17:54:40.200542,Right,-53.114500610128744,-46.31397791062864,-37.85292546534765,-53.02911821269299,145.5914050430074,-43.46140077725431,-53.494398932441754,-44.29074917454818
2025-12-12 17:54:40.204545,Right,39.68046627213516,58.760329430511774,66.01516755488774,51.160080855464,-140.38209340774847,56.74813423289015,48.55755781372818,51.416071079560425
2025-12-12 17:54:40.208577,Right,54.64780808980777,59.43516807678316,69.31264919212845,54.07250082876271,-184.58349582329538,57.576573434707825,51.629020930599154,59.07615629101747
2025-12-12 17:54:40.212571,Right,-37.34602935080784,-44.594539459138105,-31.521350469807658,-48.764300486728644,91.35992465672098,-45.20740930638203,-49.54773488703199,-34.4071547088497
2025-12-12 17:54:40.216646,Right,-59.39401297983386,-52.26540372647651,-39.72398896447703,-57.974740097972244,164.72518774565106,-54.697998924579224,-59.36448995654541,-47.837808038586445
2025-12-12 17:54:40.220639,Right,41.729378923349486,64.00082696628124,74.47826088091097,57.25277361987446,-112.80026219750653,59.315567366211326,53.40628957993249,55.9165074030243
2025-12-12 17:54:40.223638,Right,91.59767518111767,102.03605049080943,113.23956501406064,96.40832666102779,-237.22343914440353,97.95054099581466,92.39672598190703,96.23537799616679
2025-12-12 17:54:40.228633,Right,5.195797519399548,-1.3504240443717208,11.791337141952681,-6.625760268649174,9.471401062815858,-4.6616898906067945,-8.177820688755332,4.178154561839619
2025-12-12 17:54:40.232606,Right,-62.17225222271327,-59.907022497152866,-47.8961836598246,-67.11147036720467,157.18742084107362,-65.47076243628908,-67.87350709011633,-55.65365030808607
2025-12-12 17:54:40.236640,Right,-5.192101962755487,14.790218201022071,23.89261294483731,6.562186196350922,-70.25097690817347,7.066572931402334,3.47568751515756,7.692851212461392
2025-12-12 17:54:40.240689,Right,44.54988726508304,58.82568161342442,67.85665151297144,52.55253991358404,-240.35026863988605,53.38957731697519,47.73896733108958,51.21713070923397
2025-12-12 17:54:40.244678,Right,-21.59116893273955,-23.615430237438886,-12.45235173000765,-27.924893789284397,-25.78442380596971,-25.17530114206602,-31.96567046690177,-21.27069118829604
2025-12-12 17:54:40.248680,Right,-78.21084143857757,-73.89214209176407,-63.033127128352135,-78.90318430677507,178.22645433707658,-75.98377323709792,-82.91399912883503,-71.6579523092314
2025-12-12 17:54:40.251696,Right,-4.16700293221345,19.356340628889484,27.583817175478544,13.314214484876175,-9.448437418293906,13.570203593111728,6.72963776788572,10.105160201538638
2025-12-12 17:54:40.255681,Right,78.82956318229526,99.10220984736952,107.06399284421423,94.45042840069937,-241.66041251175193,92.64891761409126,86.07634901359847,88.00372400657125
2025-12-12 17:54:40.259721,Right,23.914553715750117,23.94519788913749,34.46998077043645,20.906422643821315,-88.76888945225801,19.746657164690077,13.915967665708195,24.5009713530535
2025-12-12 17:54:40.264738,Right,-66.79544039611983,-66.93568141039123,-55.73359202470601,-71.24850958341995,159.6284139759664,-71.51735237766297,-76.56803086040554,-62.22728831002405
2025-12-12 17:54:40.268736,Right,-26.206561887543558,-6.1714059164605715,2.694402090368385,-12.410057042239714,34.771268298936775,-13.518649696187822,-18.1100936818259,-11.275411420972887
2025-12-12 17:54:40.271750,Right,71.56922484837969,95.13954564841333,103.17904707707567,90.51814588550315,-236.87983834348415,88.50996216351632,84.96859022584886,87.0773113717687
2025-12-12 17:54:40.275761,Right,49.07339812325108,53.58829233031429,63.951390513440856,53.0002494906189,-156.77770246820728,51.186038252108574,50.049171714756994,58.858434688550915
2025-12-12 17:54:40.279777,Right,-49.513656966981216,-51.43426110281507,-39.973761027069486,-50.010912628285496,116.55711559944757,-52.67639215792724,-51.27087702175049,-36.75310136924327
2025-12-12 17:54:40.283728,Right,-47.072155467047196,-32.63266045744558,-23.608620349326884,-31.680570812717633,67.28354372628382,-37.39461767647833,-35.17166657172265,-26.059177296530834
2025-12-12 17:54:40.287795,Right,36.26497493613988,56.3555167444415,63.299938105306865,57.13748967229867,-212.19338682640955,49.309005611945395,50.56474439588783,53.98974772737347
2025-12-12 17:54:40.292806,Right,27.97921015197062,29.15951930319261,37.041463330844635,29.790315193761217,-195.64200657702168,23.43145939066426,23.460303638748883,32.11996557181192
2025-12-12 17:54:40.296771,Right,-66.93698674946063,-76.82175908551835,-68.5770852306141,-78.80180573758389,90.48623051473987,-82.70925063690675,-83.2281435348641,-68.15690350656678
2025-12-12 17:54:40.299830,Right,-72.25422258274284,-66.73401047837683,-61.70662882799297,-72.09247640069225,114.66485316163744,-76.29811046020814,-76.98294742856842,-67.27976016851608
2025-12-12 17:54:40.303782,Right,27.823519852089703,45.40397784281504,47.302312677597,40.554818457825604,-166.18263485822536,34.01101208906675,33.525536042479416,34.23858459756502
2025-12-12 17:54:40.307856,Right,53.65064290848204,57.346158938059716,60.33996112960449,56.66824400966334,-224.53771648046677,48.514918548665264,49.30475563528216,52.17649333922054
2025-12-12 17:54:40.311858,Right,-38.4188651596769,-47.82865301784864,-42.328212234466264,-46.057530828624294,53.58935082865355,-55.32713508478446,-52.39245255661626,-41.729002037250666
2025-12-12 17:54:40.315885,Right,-75.33451695378062,-71.2050830156212,-66.51042484753361,-70.70790212738211,155.969190675547,-82.77072717572628,-78.02374401464203,-69.03988900586955
2025-12-12 17:54:40.320876,Right,10.897676689530272,31.62926901749745,33.92850194300627,31.19545909227145,-100.10182632668875,15.141970803395452,21.426485253610736,22.510966402114718
2025-12-12 17:54:40.324896,Right,58.81950290556779,69.97060636798255,72.81765731986525,71.36924093990001,-229.04867310648842,52.78145147602845,61.67231399007778,63.304385919895594
2025-12-12 17:54:40.327906,Right,-19.010282163559168,-24.299331716593912,-19.260921641752248,-21.740585527301846,13.447514288171078,-41.37675976203718,-28.93621799619268,-20.117096028101514
2025-12-12 17:54:40.331941,Right,-73.1020947874822,-70.26071520415263,-65.9661466381749,-69.86019088949934,173.9504199642979,-91.59639786403022,-76.65500488957696,-68.66162689274915
2025-12-12 17:54:40.335981,Right,1.8188788763727644,22.106786137555503,23.607393944134856,20.14082712352024,-49.39426031833864,-4.350066467111901,10.856948080005168,10.266081380536889
2025-12-12 17:54:40.339985,Right,68.74142794516956,82.73825302939986,84.12906135767662,81.26404036094232,-240.72094461978122,57.250649910789434,71.35740172851729,69.10352909273433
2025-12-12 17:54:40.343970,Right,4.181373561285,-0.3031091738013174,3.4404272019901327,-0.8129400371719839,-43.044632770717726,-20.164366493556372,-7.12100156537781,-2.7566977519579723
2025-12-12 17:54:40.347922,Right,-70.60900318264066,-70.85669294935246,-66.87671665209291,-72.71500434489008,173.6446900029987,-87.27306203589615,-74.79120090132255,-70.23835337626838
2025-12-12 17:54:40.352985,Right,-15.28600249765077,4.3377317257088635,6.253159165736633,1.2925025005756652,2.2282382709527155,-11.385986168530508,0.9532676808939868,-3.6335158284873614
2025-12-12 17:54:40.355936,Right,67.92427287270039,86.79238450036996,88.94582693360735,85.88024915394567,-241.96960176825814,73.57409332404859,86.42666997384276,78.78209536960071
2025-12-12 17:54:40.360001,Right,23.216370762336737,22.481204498691568,27.749929234777483,24.622904248717305,-110.13779195843381,12.869625682129481,26.96803181395353,28.302516633769187
2025-12-12 17:54:40.364027,Right,-71.28874198746416,-74.21612955403907,-68.03866702997266,-72.20507947918009,143.58691402120166,-84.33311878823224,-69.27423059193188,-61.524234824973064
2025-12-12 17:54:40.368023,Right,-50.01477682193945,-34.533637593213825,-31.553000842746314,-34.698961429534165,39.81175081836409,-48.69381669747963,-34.06352977495408,-31.471385440479935
2025-12-12 17:54:40.372033,Right,34.89856164319099,53.9103234264644,54.112310374725894,53.328761066456764,-229.02329655559151,38.29887183130995,51.875761586688895,49.626330864637765
2025-12-12 17:54:40.376050,Right,17.383091877532934,17.52951098075664,18.077481791033577,17.739085787532417,-159.57747035736975,3.885038878997875,17.49211728370483,20.31907053654659
2025-12-12 17:54:40.381077,Right,-67.54676752140949,-73.98961889107795,-73.54519703146144,-74.9814512264769,118.81497759686317,-87.92856181495154,-73.18794417376375,-65.98829235571577
2025-12-12 17:54:40.384075,Right,-49.98954160715948,-38.73111883612819,-41.23160520522015,-41.68793732818506,83.5666118823865,-56.41278111833526,-40.68076437325908,-39.96186566461563
2025-12-12 17:54:40.388088,Right,50.716092153366844,70.74242656239221,66.47865926120812,69.4082646576768,-204.59128005801176,52.16847543327822,68.53644092793638,62.40188723206518
2025-12-12 17:54:40.392102,Right,54.72582592036633,58.26271347681541,56.74727219182796,61.781355598639266,-213.47441115193942,44.475389179006015,61.80042766691804,60.72756987844696
2025-12-12 17:54:40.396120,Right,-44.70446705162976,-51.72252565051349,-49.67943203215509,-45.171139391304024,67.65718944779655,-61.15818187012701,-42.657865067271814,-35.62277610879778
2025-12-12 17:54:40.400120,Right,-66.13749601430027,-57.495604768412704,-55.47015554667314,-51.44869361050649,109.1217583635298,-68.07875190093182,-48.996813942333574,-44.609989015336396
2025-12-12 17:54:40.404121,Right,23.869658279330906,45.55015190333779,46.18025627085672,50.91712214607216,-168.38590457513055,32.19153892122995,50.99347758735803,48.64748657413929
2025-12-12 17:54:40.409144,Right,48.76612197541181,56.67530873587111,58.24673114209054,62.6896889088018,-244.97240452344704,44.05385917789317,61.919992626548265,63.04146929569697
2025-12-12 17:54:40.412155,Right,-48.111605831920315,-54.82007248115315,-52.17074434729693,-49.52883880853142,26.506838088447694,-65.46255694157298,-49.3249558252528,-39.713431781122836
2025-12-12 17:54:40.416164,Right,-95.65032225500181,-89.70893062632058,-89.62416342067718,-87.25950792662383,143.77605360162852,-101.25243674030207,-87.56520429479497,-79.78306586983763
2025-12-12 17:54:40.420190,Right,-10.430705210132146,13.324071541093872,9.685789527541601,14.33636483102589,-108.98085315982462,0.24864665836867061,11.897413162251723,10.464870693801458
2025-12-12 17:54:40.424172,Right,51.60020945673023,66.82206943704205,63.329110838578345,69.31356740121453,-260.6018887140672,55.39363917974333,66.62497632477516,64.43655776558899
2025-12-12 17:54:40.428184,Right,-13.944533443966066,-16.55413453276742,-17.220048628938457,-13.131700065542873,-34.22036580643908,-25.87132209702031,-13.554386336686548,-8.456261486858693
2025-12-12 17:54:40.432282,Right,-71.40559937826765,-68.11540300446813,-68.29827417081106,-66.56205024497592,137.7334394803911,-79.34102028070629,-65.49289076984405,-60.282553876542806
2025-12-12 17:54:40.435223,Right,-6.753814141557086,13.397194430500349,11.624369091108747,13.133984173009935,-74.05283986941504,-1.0256208024220541,13.94899666325,11.225013880441566
2025-12-12 17:54:40.439212,Right,55.57992163144081,69.42065035597989,68.56530597692836,69.80455525744912,-276.84221192411496,56.31960548493953,71.66448803930871,68.25898043754478
2025-12-12 17:54:40.443273,Right,-10.924653018424578,-17.40078672038362,-14.96694493967152,-16.450197156496642,-89.4260375691374,-26.071782373732276,-11.276335070011555,-5.683951760536729
