timestamp,label,FC3,C3,CP3,Cz,FCz,FC4,C4,CP4
2025-12-12 18:20:33.121926,Right,2362.57347889283,2813.1000207356533,2803.667094177541,2542.16847523547,1804.0114825775709,2379.5922604904713,2627.673026790675,2887.639038324021
2025-12-12 18:20:33.138948,Right,12716.030820534663,15142.120069728542,15090.856841416713,13683.394708049833,9748.821008942681,12807.870725366327,14143.561398766396,15543.831547247264
2025-12-12 18:20:33.141975,Right,29120.19408338827,34680.68607608999,34560.94342474907,31337.550840378266,22419.56057009694,29332.00141191666,32392.206392679254,35601.52036190696
2025-12-12 18:20:33.145990,Right,36417.01663168235,43379.52535906354,43222.61674601429,39191.96307772376,28103.17275519039,36686.0444383436,40514.98504507326,44530.21250120264
2025-12-12 18:20:33.148995,Right,24740.170809537136,29476.466207119724,29353.88301839253,26622.264736737197,18954.029201353136,24928.784142227516,27529.717970553727,30252.062471287165
2025-12-12 18:20:33.153009,Right,3008.5944253714406,3578.7417587657983,3532.479216528416,3224.158680273482,1918.3918209416588,3035.453742568294,3346.4042931754957,3660.511216815008
2025-12-12 18:20:33.157046,Right,-13430.33760745998,-16022.976710568473,-16005.434083941334,-14474.54316958756,-10673.072823867871,-13534.970026955358,-14956.564548095106,-16458.161430763605
2025-12-12 18:20:33.161042,Right,-17686.114347348805,-21094.030355054594,-21052.832507464685,-19048.54695698619,-13475.58242393937,-17828.756620300992,-19694.185071102635,-21652.9312276789
2025-12-12 18:20:33.165040,Right,-12699.713242693048,-15137.95474820456,-15108.838637805311,-13671.873229595774,-9424.703037475934,-12801.058558595541,-14135.394665998057,-15534.620318680303
2025-12-12 18:20:33.169003,Right,-5429.401902453508,-6470.786300378619,-6467.403142141644,-5846.555921539315,-4148.665777153394,-5471.058136108215,-6040.204988889396,-6643.4851630792255
2025-12-12 18:20:33.172008,Right,-1463.6595216569258,-1756.2526236337144,-1768.2343673284631,-1582.9108727088897,-1342.9420746559626,-1477.760842556483,-1633.9598393698689,-1807.3690276746638
2025-12-12 18:20:33.177072,Right,-2343.198261805461,-2806.375121406745,-2813.368649935117,-2527.0803991978755,-1794.3034908836125,-2366.4445197400637,-2615.635740470607,-2880.1180827197386
2025-12-12 18:20:33.181092,Right,-5658.424718213384,-6742.718279409921,-6734.479525840143,-6088.909109064145,-4135.197487665457,-5701.185452508507,-6295.985954689211,-6917.212969367974
2025-12-12 18:20:33.185099,Right,-7697.130059771123,-9165.184430593508,-9148.344618474366,-8284.797685100464,-5922.874043921707,-7749.07206416945,-8559.10935011087,-9408.447662950493
2025-12-12 18:20:33.189058,Right,-6813.641716390499,-8122.715655782726,-8109.051229888224,-7340.506089731236,-5451.652343130903,-6861.871655344847,-7583.394972553942,-8341.759696491528
2025-12-12 18:20:33.193128,Right,-4516.814762946218,-5390.746954733855,-5383.885212751455,-4867.106421297067,-3448.7004117345205,-4553.9138183704345,-5033.772001247271,-5533.072954959236
2025-12-12 18:20:33.196136,Right,-3338.998629173613,-3974.368840745883,-3969.6769783841446,-3591.9023400392616,-2291.2479591834126,-3365.9847938345047,-3716.94926742767,-4076.7601162514184
2025-12-12 18:20:33.200167,Right,-4011.589041068335,-4767.04722159775,-4759.515054051997,-4315.962511000573,-3040.2493509090273,-4039.6032830654876,-4460.052006295533,-4897.718388141366
2025-12-12 18:20:33.204157,Right,-5049.523920024629,-6015.032024139538,-6003.581472703721,-5441.169058641768,-4155.049012439791,-5089.6625943429535,-5623.557570434641,-6185.836322032148
2025-12-12 18:20:33.209172,Right,-4860.015224914998,-5799.853958525695,-5786.609284069156,-5238.830272554187,-3824.8876496097073,-4907.456100899726,-5422.601088741096,-5961.548313930165
2025-12-12 18:20:33.213179,Right,-3644.914666432538,-4342.377777978079,-4330.635433926014,-3923.324437546544,-2528.5983281462686,-3683.428883218323,-4065.783499542158,-4459.796799701406
2025-12-12 18:20:33.217216,Right,-2905.7258046027273,-3449.354485545773,-3440.720826598583,-3124.5169149234425,-2078.6397001910955,-2931.7058575728443,-3233.5327528344933,-3546.822709253989
2025-12-12 18:20:33.221208,Right,-3385.0355315782363,-4028.192603218369,-4020.316837018123,-3646.691574038705,-2827.2702842587605,-3413.5432811374776,-3769.673020280665,-4147.362617805833
2025-12-12 18:20:33.224229,Right,-4126.60669413046,-4925.290574400453,-4914.551283073379,-4447.761114768684,-3341.5530487892684,-4166.194072401035,-4603.227914623683,-5064.211067756871
2025-12-12 18:20:33.228230,Right,-3829.2079521320993,-4565.301816024119,-4552.45115980925,-4120.488141805865,-2726.353340957081,-3865.7001132392325,-4267.786202991847,-4684.971984373406
2025-12-12 18:20:33.232197,Right,-2655.999464344466,-3152.8135654546786,-3142.4372164374217,-2852.691255522426,-1815.0428651190596,-2674.2389550696826,-2949.3348986064084,-3233.9562654928304
2025-12-12 18:20:33.237260,Right,-2018.5142412943533,-2395.7189809673,-2388.7179009879474,-2172.263070351444,-1697.6070413941052,-2027.2218080875464,-2238.0756125024054,-2462.799267932074
2025-12-12 18:20:33.241265,Right,-2596.906958928914,-3098.307089120848,-3089.5299036714714,-2800.2623648198787,-2202.798694971367,-2614.903566912748,-2890.0859131885227,-3183.536293169949
2025-12-12 18:20:33.245231,Right,-3364.4026214879705,-4011.279111263575,-3997.6009406165686,-3621.200131439138,-2436.921996349818,-3391.257604559418,-3744.4428730285726,-4113.475393702509
2025-12-12 18:20:33.250311,Right,-3035.9143192005577,-3606.2682942936663,-3592.225416986039,-3260.962703042198,-2074.6196771916,-3055.1414422970265,-3369.71212452068,-3696.510850813007
2025-12-12 18:20:33.253258,Right,-1891.1528177651344,-2241.7422384179663,-2232.393792205956,-2031.5669083734974,-1520.1467092535459,-1897.7929308761377,-2094.0533065362833,-2301.8435061210766
2025-12-12 18:20:33.257316,Right,-1346.9447570450138,-1605.4365014038049,-1597.656608064426,-1450.3960784842493,-1243.5703234989196,-1352.7709758448182,-1496.1965380215552,-1649.22055543866
2025-12-12 18:20:33.261343,Right,-1924.432742725592,-2293.3609541160986,-2280.37148131663,-2066.980376550695,-1389.023456943687,-1935.9516942346236,-2138.926194155705,-2347.7200585780665
2025-12-12 18:20:33.264335,Right,-2570.299175915541,-3048.4092900077812,-3030.477768638637,-2754.067578490707,-1719.632420167909,-2579.3823882990982,-2846.2529447465204,-3119.3710291739553
2025-12-12 18:20:33.268355,Right,-2228.0035775551805,-2636.5664345840923,-2620.366331537487,-2386.6941399370553,-1731.8563276783098,-2227.8544607941294,-2459.859773649252,-2702.0315545776393
2025-12-12 18:20:33.272356,Right,-1287.2617481604684,-1527.4118417189457,-1515.4807130076224,-1379.6521071591415,-1192.2601255754707,-1282.8714841714827,-1420.3047535931692,-1566.2820461622905
2025-12-12 18:20:33.276352,Right,-901.6000312203541,-1071.5748090841807,-1059.274099239963,-962.3901895978488,-631.6302189936396,-899.4456015735632,-995.5108994491166,-1092.711216610507
2025-12-12 18:20:33.280376,Right,-1349.1924947322113,-1592.8178881345084,-1576.6753418947337,-1438.0303497487912,-764.4062404377619,-1348.778058977914,-1486.6709640480112,-1624.1240865266882
2025-12-12 18:20:33.285322,Right,-1786.992758192937,-2109.5681816199794,-2092.384426092496,-1911.731408030726,-1352.3128845889587,-1787.529561853502,-1970.2697572872275,-2159.771518778638
2025-12-12 18:20:33.289419,Right,-1515.16022192745,-1797.9605683288537,-1783.448035274283,-1627.5254941872554,-1392.3012963405345,-1519.5902853193693,-1677.1694101279136,-1844.5404176244047
2025-12-12 18:20:33.292448,Right,-841.2927845186787,-1002.0837739999406,-989.5571277473355,-902.9004253285239,-650.6876408631215,-848.6545252260985,-935.4936957625905,-1024.2952439867659
2025-12-12 18:20:33.296433,Right,-520.6021191467298,-608.7265868156683,-595.8466827819357,-551.2737709230278,-126.16453819081653,-524.7709682676941,-573.6773480841657,-618.1933071021922
2025-12-12 18:20:33.300428,Right,-760.8202221295796,-886.6639121929184,-873.3694473510841,-809.7461016032612,-508.91717524291016,-761.7342760672327,-835.3440979733132,-909.8728021599818
2025-12-12 18:20:33.304428,Right,-1074.9263845966198,-1271.9881978057092,-1258.9805100240046,-1155.2643176672282,-1065.6294934500474,-1080.5506390969967,-1191.9985193696339,-1311.1532963841455
2025-12-12 18:20:33.308486,Right,-959.6617850472685,-1145.9825843875296,-1132.7339760216419,-1032.8542336461833,-822.110148839769,-971.4557038992643,-1072.658511231537,-1177.1138646627078
2025-12-12 18:20:33.313442,Right,-476.49909832014237,-562.6172237212304,-549.4058581282152,-505.91306340612937,-111.0581578494166,-484.1486498984741,-530.5374650486046,-571.4619042820996
2025-12-12 18:20:33.317423,Right,-127.51195228961296,-136.12648437242024,-124.92114771832712,-127.72234483249485,47.425549417792354,-125.21427236305317,-133.12357600405812,-136.39789210818708
2025-12-12 18:20:33.320433,Right,-236.04622518306132,-272.51564466010313,-263.48877507820725,-250.38604470447171,-395.1820219610818,-232.660090036341,-256.4298756911303,-282.46956651611254
2025-12-12 18:20:33.324504,Right,-546.2878296786803,-653.1957064479939,-643.5791006959626,-585.7975087218219,-576.2089873196674,-549.9785836980445,-609.029403294262,-670.1528247031965
2025-12-12 18:20:33.328454,Right,-541.0489798079943,-639.585892629053,-628.4063833410619,-571.7245856749942,-206.1850834408542,-544.8687373606372,-598.6863503123168,-648.4003721415065
2025-12-12 18:20:33.332525,Right,-127.51881358388346,-132.86847523786128,-123.24988635460613,-121.20696372899693,104.28850334428716,-122.07849513064139,-127.68742430553539,-129.14469345845282
2025-12-12 18:20:33.336541,Right,222.76823927962687,280.15974151092814,286.3762504637125,249.90314194536768,5.79460401943652,231.90548232896253,260.6040578317479,287.36751534586074
2025-12-12 18:20:33.340578,Right,131.2979011326097,156.30279432417592,162.61814107827377,145.43795183475595,-112.27654385063215,132.84429174551042,147.38846769341035,159.59588030230952
2025-12-12 18:20:33.345562,Right,-148.47716847539414,-176.37053820380243,-166.25663786486257,-151.82254662917694,25.15788638149388,-152.12695498866378,-166.07258926602663,-175.60393090944854
2025-12-12 18:20:33.348568,Right,-117.78545616136398,-127.16323615831789,-115.46573794385768,-114.21603858284652,140.07943725150835,-115.45192316785688,-123.54058063297998,-124.56118471044465
2025-12-12 18:20:33.352554,Right,233.09834902896546,289.8210634312418,298.5035314654524,258.2745019887225,75.43270952106104,241.77296258158458,268.0379103340674,296.93780656083254
2025-12-12 18:20:33.356582,Right,456.6149096806039,541.9093165132363,547.8069535878603,492.0343201868818,119.2185325363098,461.9843337659404,507.74035806978645,554.4280231539451
2025-12-12 18:20:33.360611,Right,349.88593529772334,412.85432498716546,419.7360581819157,380.0692322851828,353.53563861999646,350.2978928534503,386.6602592766867,428.1523701177284
2025-12-12 18:20:33.364609,Right,207.50413726553506,255.81629457870758,264.27990230398973,232.55221713715173,404.69019350485746,210.7349268771809,236.34805127889604,268.06997414258876
2025-12-12 18:20:33.368625,Right,302.2843695749034,370.44954813077493,377.90629499320494,330.61121856779937,174.6237783147517,308.988505981717,342.8133815913243,377.8288740493008
2025-12-12 18:20:33.373602,Right,501.44214822910726,593.3839994745358,599.8417355754646,536.4437370704836,125.30787920470175,502.5756955898105,551.9039950686274,601.8277042109839
2025-12-12 18:20:33.376709,Right,573.2249751780473,673.5982994741062,681.8832903657458,613.846148831828,455.87837229075376,566.2826653813099,623.0839617854654,688.0715914355533
2025-12-12 18:20:33.379710,Right,555.2351346499636,664.5221684447606,674.719962371717,600.3342715193576,677.556819331352,548.6582696567057,608.1326850801124,680.4875184669509
2025-12-12 18:20:33.384701,Right,588.8261661389843,710.6266995022597,719.7454267403518,635.1358623651904,457.77361395483604,586.5593395563192,649.7046653408324,720.9977945666469
2025-12-12 18:20:33.388694,Right,637.2833951821667,756.3220824940945,764.1454194985563,680.5950639730145,231.79878654223285,632.84401130685,696.1171435701544,763.3743635762366
2025-12-12 18:20:33.392733,Right,619.7595359245315,727.4361845988897,737.4224206415238,662.884695116838,436.2053609958093,610.7964945082786,670.8239529842394,739.6286315738107
2025-12-12 18:20:33.396715,Right,630.407245703158,750.5479438790353,763.7000743894023,682.6280136685818,739.7989108962647,625.5765232950798,690.6028430297738,769.7408149810508
2025-12-12 18:20:33.400734,Right,764.127688043227,918.4032515243744,931.3160488200956,828.0016557414783,663.5662036580907,768.3017864093417,848.5297713282052,939.0067914133542
2025-12-12 18:20:33.403738,Right,880.5304347014753,1047.096764973423,1057.8085469583166,946.4958519131178,433.1762777850381,885.6008140690974,974.4076454188325,1066.8243082779227
2025-12-12 18:20:33.407755,Right,812.1885968695278,955.7022727883887,966.650434606825,871.7598042020109,514.8373475901899,811.3480914876563,892.4789902028278,978.0838996808161
2025-12-12 18:20:33.412698,Right,685.4609393964638,813.8458628243534,826.6909424826736,743.1394740414107,749.079855056305,685.3217794448719,758.3494036579505,839.8322831005789
2025-12-12 18:20:33.416778,Right,748.0063102148706,900.2343636953738,912.2714003615547,813.6299330150941,700.6780686212587,756.2512789700995,838.1923505521845,926.0645842317026
2025-12-12 18:20:33.420777,Right,956.1214699515258,1141.002726161736,1149.8416761509143,1030.5141674005426,512.3404266439611,967.1982947136275,1066.112561459071,1165.703827245743
2025-12-12 18:20:33.424801,Right,1029.803881943808,1215.4632341710385,1223.4355196696706,1104.7214627182111,614.0335607687593,1034.680686085252,1137.2801355874399,1242.2499350440921
2025-12-12 18:20:33.427804,Right,895.9492107935948,1059.879906486487,1070.1438827575184,965.0726606589742,855.5657683318132,897.7585273233708,989.2730693583144,1088.3715806105174
2025-12-12 18:20:33.431754,Right,788.2387046619551,943.2956165852956,954.7817500079982,852.8238439508714,764.4205966421869,795.6067477765027,879.4261555123376,968.940536626149
2025-12-12 18:20:33.435814,Right,869.9416411777493,1036.4204439405585,1046.6381738373311,936.0649207569659,482.8258154008654,881.5195325767854,971.4170271051116,1060.3770069938619
2025-12-12 18:20:33.440831,Right,1015.907511551166,1196.840120590874,1206.8606643092353,1089.688556767418,569.0252925155219,1024.7670595581876,1126.273524700082,1227.1183475384023
2025-12-12 18:20:33.444817,Right,1048.4092855647905,1237.1063269010046,1249.2865753341466,1130.3813142237486,945.9997858848074,1056.482840249082,1162.7940066836309,1275.2191731889034
2025-12-12 18:20:33.448863,Right,977.5400214743568,1164.8474796046503,1177.8744575616438,1059.0867557113525,967.2753593074158,991.6587964629289,1092.314359577722,1200.652866573073
2025-12-12 18:20:33.452868,Right,915.6098536924692,1088.558628720697,1099.428414175287,986.6841214733431,575.9219839620637,932.8299950711662,1022.6511944778031,1115.2421478651231
2025-12-12 18:20:33.455874,Right,919.0978051436832,1077.0587132814107,1086.3662177338265,982.769860462402,456.8745145058492,930.499919970287,1015.3279193319613,1102.8342059439747
2025-12-12 18:20:33.459925,Right,989.3922472961713,1158.3534174019005,1169.1086258704308,1060.7196693228325,840.3707796309609,996.4624459856423,1090.6752420845442,1194.4608929804526
2025-12-12 18:20:33.463919,Right,1086.75296111044,1287.6170270524453,1299.9846055021044,1171.3004184593447,1082.3349206538405,1099.2891842446988,1209.5509789923672,1331.3110918236198
2025-12-12 18:20:33.468932,Right,1102.8040087447735,1309.9306552477647,1321.5883958271006,1185.6863156963373,788.7422434173059,1121.168287278153,1233.3496168160345,1349.7237210769672
2025-12-12 18:20:33.472865,Right,977.2917072339915,1147.442123635672,1158.2969344768208,1043.9990734172752,486.2209185649408,991.6387681184569,1086.5388312414289,1181.0980767367873
2025-12-12 18:20:33.476914,Right,860.402767569758,1003.4335790544283,1015.2210411871783,920.298149259761,675.1448388434947,868.3755111346254,951.329975404311,1039.490255732322
2025-12-12 18:20:33.480953,Right,955.0034738526447,1128.0227852324024,1139.5654739595484,1028.922809732845,988.2162045011064,964.9837494401727,1062.4316532743396,1170.7046449466143
2025-12-12 18:20:33.483919,Right,1168.507345088059,1387.3314289355185,1395.2699093236588,1256.8807891673641,901.7649404333206,1182.435029166285,1302.930162024335,1430.8436908833683
2025-12-12 18:20:33.487961,Right,1180.83362653316,1388.9481849942822,1393.5792713521514,1261.9845237494446,634.8894629060524,1189.0433312355308,1307.4201972158626,1428.0499332952313
2025-12-12 18:20:33.491987,Right,940.7465884358389,1094.79510808154,1100.1991915288381,1003.1289118608693,662.5361195895821,939.3680907317903,1033.564577463665,1132.0692113884725
2025-12-12 18:20:33.496929,Right,798.6638455650536,937.17396109947,944.6057098195888,857.456855678116,858.5998653578572,797.8929792419076,883.6649578453507,977.4033533250913
2025-12-12 18:20:33.500992,Right,976.7527967240894,1160.0674750746693,1166.1876251974609,1050.4216015805723,829.6584288752638,984.2533657248132,1091.7563423740212,1204.2338676045183
2025-12-12 18:20:33.505001,Right,1198.513960928307,1416.376727207331,1419.6372594842687,1282.9603575806832,681.5454969558632,1207.4934923996916,1335.04334966233,1463.2382514001802
2025-12-12 18:20:33.509020,Right,1112.3958910487127,1305.1570894715842,1308.91957461345,1190.317911629565,742.974959056126,1115.2552734998753,1232.4864529573824,1352.9313561019953
2025-12-12 18:20:33.512024,Right,846.6214205163997,998.5105426942464,1005.241102820728,913.568122548284,870.666921676835,848.8860441187862,942.699690210633,1043.858217174653
2025-12-12 18:20:33.516079,Right,795.9960609994596,950.9903581792023,958.0089237613138,864.0042575246189,744.824312352459,806.0212670235196,897.1198811871,992.3156610345468
2025-12-12 18:20:33.520061,Right,1000.6415362415137,1189.056111014448,1193.3801276772283,1079.319906817982,563.7387641009409,1015.1505619738018,1123.8680172979366,1231.1164283198304
2025-12-12 18:20:33.524058,Right,1120.1827049045824,1320.2834696192294,1323.4934468725696,1205.0296154641546,706.95561700291,1131.5420557950856,1249.5978539024945,1368.3594999311026
2025-12-12 18:20:33.528076,Right,988.9420438151574,1169.8645306366961,1174.242944336962,1068.6989428284578,953.3881274709711,998.7245323564857,1105.7390417004935,1219.182680908125
2025-12-12 18:20:33.533092,Right,827.2258862538729,989.6085333244409,993.1533558159135,895.9413197296672,816.7192809991539,840.3941552420147,932.6139004055876,1029.3172143360134
2025-12-12 18:20:33.537130,Right,844.6446210234426,1005.5535449723247,1005.3444916286971,905.7240587314591,474.33918667270336,856.9788779329974,946.9078531241976,1034.5234047148842
2025-12-12 18:20:33.540132,Right,950.2509687114507,1117.8634358027484,1115.4994538791943,1012.3252897048369,521.7157345137093,954.5666462914087,1051.5034949430265,1146.7478779931553
2025-12-12 18:20:33.544101,Right,969.9546105060726,1144.642586478265,1143.6610822947696,1038.0482323186006,894.8954019508092,969.8331486686366,1071.7602206780575,1179.0632102473173
2025-12-12 18:20:33.548086,Right,902.9955311198719,1079.7909401364159,1079.9605467328802,971.8498598558363,932.6021445248043,907.1349547121208,1006.6486303040292,1111.9951215791516
2025-12-12 18:20:33.552143,Right,836.6363341934048,1000.5882591856644,999.4730194592848,896.4575669958722,542.7173386666691,843.5481526762014,934.6479245931841,1023.8888676885981
2025-12-12 18:20:33.556147,Right,798.4276838501683,940.9709894976113,939.2821921724826,849.5894593398552,382.2550008436665,800.5098377215909,883.9678210595157,962.5660659992136
2025-12-12 18:20:33.561164,Right,798.7991877007298,939.9304904881865,940.4008122719824,853.9699788650032,697.1899474107195,798.5968319040257,883.9618636989035,970.2686264403164
2025-12-12 18:20:33.565136,Right,855.9594741610344,1021.8631652970798,1023.9913480028044,922.2528277214151,898.2282143218908,863.5529436421348,958.9585111851338,1058.6387066927273
2025-12-12 18:20:33.568207,Right,900.474287749501,1078.41585178487,1079.1455524528865,967.341852741316,622.4658258050913,915.6095357497688,1013.7109325807542,1111.4981506483164
2025-12-12 18:20:33.572201,Right,821.7490435654763,972.2693668676075,971.2191078502219,875.9000630881637,354.8633296673652,833.5559835229069,918.1036587322596,999.5923286092002
2025-12-12 18:20:33.576196,Right,675.5441667727428,795.1597504843958,794.4419023229275,721.6619447933044,524.896986978827,681.1943256276427,751.1002846634947,822.9954937479924
2025-12-12 18:20:33.580220,Right,656.3076115390286,787.5715230167843,786.6786387988832,710.2993490125518,760.5953244080301,664.9573953158688,738.5590881120879,817.7775101133157
2025-12-12 18:20:33.584228,Right,782.9154749369482,947.1919476711191,943.0001681854483,847.2917652616743,617.9316349857254,797.8518716407707,885.8725459317211,974.6611689506099
2025-12-12 18:20:33.589175,Right,828.8142986338353,991.0841403314844,983.4762557516806,889.1197384160478,379.27708638925105,840.7284970604815,929.1577958744019,1013.3755798109341
2025-12-12 18:20:33.593257,Right,683.6618813879322,809.9099898783024,802.5586322601885,730.7520632524975,472.47458243905567,687.3975160169648,759.4667824502103,830.2878660822753
2025-12-12 18:20:33.596202,Right,551.9369733796921,662.8503534214105,657.1940280024428,593.829702381976,665.0986681644572,555.7172004436143,618.1874947294127,683.1275659368839
2025-12-12 18:20:33.600275,Right,618.1871493209619,750.5112976408564,743.7061946380418,664.9856953120325,542.7590918630594,628.5006392329233,699.484066006029,768.9561879304238
2025-12-12 18:20:33.604272,Right,735.8168561252533,881.5584033215418,872.2615286407527,785.1043839917984,316.2118174486095,746.0864577069879,825.7363122892566,898.8952940006275
2025-12-12 18:20:33.608300,Right,678.7517134922091,804.51578356768,795.9438986075111,723.2538788330276,409.31649931764696,682.1521367924288,754.6196296950802,824.0573760543484
2025-12-12 18:20:33.612321,Right,520.7520722971531,625.8088071595412,620.3756832808722,560.7217567270854,628.5303763216361,522.4294442554237,582.6908683150541,646.0408659749664
2025-12-12 18:20:33.616325,Right,491.7475517273415,602.6763890399598,597.9602793813683,531.1609828885412,517.6165812904947,497.8112207266968,557.1107309506042,617.6108998304699
2025-12-12 18:20:33.621329,Right,583.9856769727776,704.3379407371394,697.619529904332,621.7683917033719,238.03766267665196,589.096905920771,653.6670334137743,713.4786258065142
2025-12-12 18:20:33.624337,Right,595.8143380727852,704.7048335489817,697.5289397225715,629.4221541301813,288.8599840818206,593.4910322178621,656.0781845572637,714.8599969809875
2025-12-12 18:20:33.628314,Right,496.5017215750413,591.4534011459909,585.8918673531152,528.6237057859544,564.3321675430052,492.48364660691004,548.3001101338305,605.8283064824063
2025-12-12 18:20:33.632356,Right,448.8369119715644,548.29430158576,542.2058150928933,482.52019885438494,528.8055027581286,451.4160715373,506.12011858529877,561.6662463648245
2025-12-12 18:20:33.636365,Right,490.33027955447324,594.4216289834585,584.6845146511914,522.1335496543907,211.45997548138257,494.88629569637123,551.4172575017437,602.7457630825229
2025-12-12 18:20:33.640381,Right,483.26150861161295,572.1095248063793,559.7562729994534,509.00302709196694,164.83304999268148,479.90256482572295,532.1421887723263,579.0010473937728
2025-12-12 18:20:33.644433,Right,399.71423393767327,473.74691780714784,461.67210894357413,422.8271495096851,446.3465590410633,390.5664227626985,436.5769738383824,482.68598824285436
2025-12-12 18:20:33.649352,Right,377.56173828500323,460.61314407375176,448.5165175666334,403.77496251650155,512.3710725913988,372.40857740759384,420.2865403282922,468.09115807921626
2025-12-12 18:20:33.652495,Right,443.23748728935607,538.8727967021987,524.790535449516,470.6099652792327,223.57410657953005,442.1416781836888,495.1317866600584,541.2937469272874
2025-12-12 18:20:33.656429,Right,443.4344051675871,526.1115931293461,511.1255374462344,466.1763762369519,93.37069352192339,438.4292855341919,487.02890352124814,527.2463758497033
2025-12-12 18:20:33.660421,Right,331.4956304777879,391.9975063557504,378.7136990290601,350.9604315550532,327.1989822651958,323.11621583113447,360.8400576338172,396.61083973397035
2025-12-12 18:20:33.664437,Right,270.2471743533388,333.0322252762271,320.47511403344106,293.06631476653274,450.5141225887928,267.13270028773695,302.3478789952351,338.386763496208
2025-12-12 18:20:33.668449,Right,340.45352778211236,420.13458778115455,405.0993272892665,367.0654652743833,208.73220432840753,342.76250316144433,384.50319823238533,421.4384521675529
2025-12-12 18:20:33.672483,Right,385.90994267957285,461.46960327378474,444.52663862658665,409.9801366808824,41.65648922813125,384.13718452467583,426.62907860975247,461.0121884541586
2025-12-12 18:20:33.676472,Right,290.53364730917383,343.27791163453367,328.3553013681667,309.65460777923,245.25402440538164,282.5473309732042,315.6732492981246,345.85721183172427
2025-12-12 18:20:33.679486,Right,187.48634374258108,232.65162446245085,220.43647310335655,205.6664578303462,406.19845638156403,182.19802775292192,208.56036215636414,235.9530074876966
2025-12-12 18:20:33.683512,Right,220.6322838702472,277.13323026592843,263.9996772847371,239.5452283853665,181.95124459307408,221.37894043850247,250.1581067777006,275.67276190943085
2025-12-12 18:20:33.688438,Right,295.2304328776663,352.47272790409625,336.80771094106603,311.8538966733031,-41.12702676909976,293.8622861056356,324.65077104908414,348.3115813402692
2025-12-12 18:20:33.692503,Right,259.53895307611674,301.00176626304165,285.58403572055977,273.8939035718795,134.98973676294554,252.26118462719023,278.0343326011207,301.06180433614645
2025-12-12 18:20:33.696519,Right,166.9160374791827,201.68008712597657,188.38561922952067,183.30721829633694,362.1516770090675,162.2181810644688,183.0939829919953,205.92400014318991
2025-12-12 18:20:33.700537,Right,151.12781408417504,193.39512073725928,180.4068602268817,169.42586375563405,183.08747987111565,154.78335803444497,175.87694451690186,195.3502763286233
2025-12-12 18:20:33.703553,Right,179.9734652901534,219.48611705272924,205.67844671418425,194.30492893897463,-108.54312156967353,184.81053277803585,204.41266069782432,218.02136477513704
2025-12-12 18:20:33.707561,Right,146.5874961753143,169.76203554146923,157.2084344921168,155.50869602360763,1.8314878035453148,145.71609321411233,158.5517930801725,170.22771610424388
2025-12-12 18:20:33.711567,Right,90.3782167211175,110.58110772504006,100.23206173500512,99.28676174790598,296.79954163718503,88.7714397587115,97.73066112725064,113.08011427742895
2025-12-12 18:20:33.716655,Right,107.44151528429938,141.40160566975828,130.49038806918543,117.2025461884914,219.5225482172682,110.4590928798425,121.80352354445495,138.08768264495302
2025-12-12 18:20:33.720585,Right,138.74185538681922,171.1061361246975,157.7806541066384,141.87455212819623,-107.32947625569068,140.08970382413827,149.99093330744654,158.54251237446442
2025-12-12 18:20:33.724627,Right,75.0767415179289,82.73988679016475,69.48438014602289,68.96067709237104,-114.33282629016321,67.77628074702807,68.08817453257507,67.96535801759455
2025-12-12 18:20:33.728567,Right,-10.305612706404645,-13.58568211097736,-24.436442145321053,-16.02888036344666,171.0648410929134,-20.014178819023073,-24.65373423101846,-23.760046236100607
2025-12-12 18:20:33.731573,Right,24.51290898694424,41.02362832322251,30.42256335046841,27.56841027806513,195.429543847451,22.270473653741647,25.408168494526763,33.404816876980476
2025-12-12 18:20:33.735704,Right,109.78311763273086,139.3143592203851,126.19174840598134,115.96118340687826,-93.53655929747038,112.10413761570817,122.04601301503135,130.3520755651989
2025-12-12 18:20:33.739683,Right,60.18544704647502,67.62529289914528,53.574801314854994,59.63408176455414,-174.20677972503472,57.71120862587122,59.742823508859146,59.34538045251975
2025-12-12 18:20:33.743720,Right,-86.06652179942466,-103.60487577441381,-115.70426486467477,-91.41973031114321,65.91449214314343,-92.03240560280392,-101.8117193597136,-108.56069105915958
2025-12-12 18:20:33.748638,Right,-108.53743046050658,-116.21041411603801,-127.58145644463366,-109.70197482674848,141.78585469190148,-109.61729092424503,-117.18877780571347,-121.13277445035055
2025-12-12 18:20:33.752644,Right,11.494012968265451,25.96112559409812,12.303405474172905,14.236322780430783,-100.09160475528915,13.804302090138663,16.675946146890055,17.279134881915525
2025-12-12 18:20:33.756687,Right,45.88268595311092,51.824099642573856,36.79093181586359,43.28546408779221,-204.2263702986238,42.19711361301597,43.9525027644122,41.93730728176888
2025-12-12 18:20:33.759690,Right,-88.07104565086775,-110.68263298663078,-123.7512364629074,-98.97886797226965,12.738048097962746,-97.51445903728018,-108.68193831003737,-117.90765129658394
2025-12-12 18:20:33.763706,Right,-185.4809019259701,-213.96538680634694,-225.1957654824364,-197.54667231731582,110.0209981680382,-190.42698470700998,-207.47900355700403,-220.34153684962075
2025-12-12 18:20:33.767719,Right,-111.63003071193816,-122.48273413960123,-134.81797777645988,-119.4170445765194,-130.36753950011916,-109.32817417290062,-119.38598599506076,-130.71412241557846
2025-12-12 18:20:33.773740,Right,-26.802397224091692,-33.13914496466168,-46.52016838802956,-32.63306727138115,-274.0504984414729,-25.305753240681952,-30.521865097689442,-39.96789221954532
2025-12-12 18:20:33.776740,Right,-95.59745427177404,-117.94069731570198,-129.33758845319971,-102.52651706984034,-55.38752340571955,-97.87339578181854,-109.23314748794655,-119.75969017995521
2025-12-12 18:20:33.781764,Right,-211.21729487658013,-241.7681983539369,-251.06385765146115,-218.7221462140733,100.18609983311035,-210.5155055737996,-228.81879774830304,-242.8906534377311
2025-12-12 18:20:33.784775,Right,-205.33506064422545,-228.69872573539033,-239.3346240943356,-213.92090325025492,-133.75899287771608,-199.81044588095392,-217.34627468921826,-235.55986210278934
2025-12-12 18:20:33.788780,Right,-135.7989187429339,-159.42265108405263,-172.3591096351738,-147.9482333107153,-351.91886166253244,-133.50387692308868,-149.25375142673147,-169.62380170819233
2025-12-12 18:20:33.791805,Right,-149.55171269700804,-185.26648326401482,-197.32460526455543,-163.94800609331287,-156.08654672025295,-153.39002452700515,-172.57635489718814,-191.44349109448376
2025-12-12 18:20:33.795799,Right,-216.61248339473968,-254.1520964653173,-263.7497113088757,-228.77761906733213,90.50064657232724,-217.55083378702693,-239.8246487147553,-256.6882224373694
2025-12-12 18:20:33.799815,Right,-222.59196987697214,-249.96142942698498,-259.63949146677624,-233.05254612206772,-82.40396656678786,-214.8152077866689,-235.96157142751326,-256.0651901248639
2025-12-12 18:20:33.804818,Right,-199.37353847632767,-229.21549136386602,-240.55950559501798,-213.42123833733785,-380.5011586902074,-189.94286886329064,-212.23011698798655,-240.00349316596112
2025-12-12 18:20:33.808824,Right,-241.45617505629707,-287.7348410361665,-298.4475573421405,-258.84272178725223,-277.53099220887816,-236.83352661435492,-265.0892137942428,-296.4835597986603
2025-12-12 18:20:33.812841,Right,-296.297951611783,-344.0857260787234,-352.5927753056603,-309.9871788457767,20.461960305481625,-291.09494780877503,-321.33505080215036,-348.47900323279464
2025-12-12 18:20:33.815851,Right,-261.07406001114396,-291.624559811361,-300.2581219115018,-269.56723943955785,-42.29912289911772,-250.01419705872195,-274.8187922444231,-297.64341207077814
2025-12-12 18:20:33.819844,Right,-202.1425081753514,-230.49277743737184,-241.07650745924911,-213.76778043271042,-353.0082961111766,-192.30666538681908,-215.15263220009365,-241.2952879302793
2025-12-12 18:20:33.823863,Right,-249.20422228384268,-300.95791781903245,-311.13664588599204,-269.00067800612305,-353.56699799936905,-248.67609483083652,-279.183756399274,-311.420086381484
2025-12-12 18:20:33.827885,Right,-341.706308402594,-406.4223259758728,-413.8371738340793,-363.0206227442104,-72.61654322796676,-345.16523570917343,-381.4120922595466,-412.99457469722256
2025-12-12 18:20:33.831836,Right,-321.8392905606015,-369.00227980778436,-375.65224013738043,-337.79995859881456,-52.02798086653638,-320.11933465149195,-350.72987336854567,-376.3928512275306
2025-12-12 18:20:33.836899,Right,-228.7269259703171,-261.1355477216566,-269.72151760307315,-243.8196732309152,-331.4181049527251,-225.08990481465298,-249.55582328155288,-273.8823665165546
2025-12-12 18:20:33.840929,Right,-242.41804032104847,-291.36061392593547,-300.3088312515465,-264.06389942708483,-391.58040780168085,-245.84351816072012,-276.6637480496138,-306.2498960435041
2025-12-12 18:20:33.843982,Right,-356.64325657478184,-426.3894730641623,-432.80598726612516,-381.96556815243093,-138.22452741942834,-365.08789407034055,-406.10553612560034,-439.13178600085666
2025-12-12 18:20:33.847920,Right,-379.5979690836393,-440.392332808784,-445.4395168328192,-400.4541956676694,-69.55398011302168,-384.21981538654654,-422.95431488531176,-453.0897057276452
2025-12-12 18:20:33.851908,Right,-278.038421401463,-319.24420298115,-325.8976201431651,-294.6664138782362,-327.522894358699,-279.6510049806966,-307.9516012886015,-334.7062028872024
2025-12-12 18:20:33.855986,Right,-241.8099038922228,-289.0527320962283,-296.43131893797545,-261.21479658343014,-430.48861721827416,-248.29516699010856,-275.5234471503645,-303.766612806794
2025-12-12 18:20:33.859962,Right,-344.97888654566486,-412.6280773781764,-417.50774347555125,-368.4642326507019,-187.984775882971,-354.8330531481188,-391.1545471053396,-422.6631513175089
2025-12-12 18:20:33.864990,Right,-416.07697284204187,-483.1075619830226,-485.88694940606365,-438.53760261883144,-65.75202560186153,-419.5874720994907,-459.75251560111064,-491.9234706008574
2025-12-12 18:20:33.869001,Right,-348.0853207267937,-398.720755522314,-402.828414263553,-368.45521717111114,-306.9690553890832,-344.54867592203664,-379.62238150963094,-411.4538172825705
2025-12-12 18:20:33.871993,Right,-280.7268222271814,-332.32906530838227,-338.15878351184074,-303.31049939157674,-466.3005962080497,-279.9050173415453,-313.3920454792096,-346.61185929417843
2025-12-12 18:20:33.876017,Right,-335.2570903233136,-403.7906019332586,-408.2842812909512,-360.6592500230181,-244.52318156827823,-340.27424675485236,-379.69793961319374,-414.28156782325823
2025-12-12 18:20:33.881027,Right,-400.86719033133704,-471.3729085639934,-473.86940795119153,-425.04682646365836,-59.463130647549406,-403.93573381443275,-445.7548436052166,-479.88732924847864
2025-12-12 18:20:33.883991,Right,-355.097879739129,-411.99834145931527,-415.52510212972993,-378.58654900768306,-269.9410846596584,-353.5036793688778,-390.0604437098955,-424.6187210654025
2025-12-12 18:20:33.888057,Right,-292.1714396356838,-349.9285381839727,-355.7727413250832,-321.05724981590174,-498.4438204864564,-294.34580811765045,-328.69236330105923,-366.531444481574
2025-12-12 18:20:33.892068,Right,-337.4740703809657,-412.6589565544855,-418.45461571216583,-372.9697263551061,-328.0055471242231,-347.52305051713483,-387.61823000659933,-428.14365000108955
2025-12-12 18:20:33.897014,Right,-409.52108367014444,-487.86726565408753,-492.54464511940023,-445.252960895712,-79.1806554243667,-418.90019242092967,-462.70025318750413,-502.3377062357613
2025-12-12 18:20:33.900091,Right,-378.24796479637735,-440.57467360660667,-446.4552655998268,-410.8196109482669,-214.3491065086564,-380.3310619996628,-420.4443672755151,-458.9713174912031
2025-12-12 18:20:33.904018,Right,-313.8635291919927,-372.73653252312215,-380.5478904409101,-347.5004824892385,-478.5265806223615,-314.73413723811973,-353.360791221261,-394.2865940447082
2025-12-12 18:20:33.908052,Right,-352.27027789328713,-429.2798576193163,-435.6124596844893,-389.20013012818526,-379.21993518824456,-358.2448016034905,-403.15153362462297,-446.77563309209654
2025-12-12 18:20:33.912093,Right,-431.8667652999284,-516.9492002680199,-519.4963031742373,-466.86396474798676,-106.3428635096061,-437.7948482706561,-486.3671964482637,-528.2752780567971
2025-12-12 18:20:33.916123,Right,-404.5216223731986,-473.88767970510526,-475.23234718333697,-434.3223254295299,-173.64027605683077,-404.9175229567918,-447.08081962750293,-485.451679988415
2025-12-12 18:20:33.920140,Right,-317.5884769547847,-377.6262798946118,-380.65645714546554,-347.53205090475967,-456.5277201932622,-318.9163535198895,-354.9904300866183,-393.6898313644924
2025-12-12 18:20:33.925091,Right,-333.06141493382165,-408.3638540006359,-411.58704534952994,-367.861722467409,-427.51669492881047,-342.96618842182215,-383.6353587305639,-425.37188378121937
2025-12-12 18:20:33.928095,Right,-427.08778061089106,-514.5249420331093,-515.5978860110627,-462.26909754337976,-144.64034322585212,-440.0543913030997,-487.7002803849755,-529.4828418093966
2025-12-12 18:20:33.931161,Right,-429.7725612493232,-503.8571885221172,-504.420407528989,-459.6214712858782,-140.08813075727085,-436.31432893231977,-481.25938437052537,-520.088901709416
2025-12-12 18:20:33.936189,Right,-334.95025339804124,-394.4479462276213,-397.1165323876776,-362.56392879312625,-420.6807123905746,-338.0304612930631,-375.9728289199993,-414.0660019569332
2025-12-12 18:20:33.940192,Right,-308.48653321817983,-377.9192888204707,-381.14257383928634,-339.71839325519977,-456.1471971439896,-317.1493821059121,-355.7572002183297,-395.99840539018624
2025-12-12 18:20:33.944188,Right,-384.22845956502715,-468.3855268439511,-468.98617437283974,-417.16371018381324,-176.85987049498362,-396.46856998157455,-440.0561137960758,-480.8343169777654
2025-12-12 18:20:33.948221,Right,-411.50901223212713,-488.0535499902908,-486.85323986795265,-440.87374504632317,-107.51943393115653,-418.02935897087445,-459.64325592457317,-498.7579706464894
2025-12-12 18:20:33.951237,Right,-342.99125448009,-405.76357461803127,-405.8452197808074,-370.47479440137977,-382.10585693927715,-344.23252862592926,-379.52168620948214,-419.01734801824205
2025-12-12 18:20:33.955227,Right,-319.9022544553154,-390.4489062651992,-391.3988052350469,-350.6449895850965,-486.46666434191866,-324.4077430352918,-360.30791834928095,-402.4394979788922
2025-12-12 18:20:33.959257,Right,-399.32244468753925,-485.04011445329525,-484.0257869606139,-431.6360709564178,-217.20193797943648,-407.0265207015327,-448.63136898260564,-490.7378677262459
2025-12-12 18:20:33.964257,Right,-441.94694627070567,-520.7858451680513,-518.3501886500744,-470.4166673673317,-65.94228333572391,-444.0824410645291,-485.07958555745427,-524.0160527423723
2025-12-12 18:20:33.968265,Right,-373.3808999484172,-435.1184109116439,-434.5686112541007,-399.794138295576,-306.8962049000547,-369.02959841204574,-404.47367266379297,-443.09265197080094
2025-12-12 18:20:33.972275,Right,-324.0631749833119,-390.334817992989,-391.6967949224636,-354.9066469412064,-488.8959578689537,-321.89794491714565,-359.03910724585876,-402.1678014246281
2025-12-12 18:20:33.976302,Right,-380.49774549447466,-464.382214240497,-464.2519768719794,-414.6581172525184,-278.4066572931479,-382.36607433255995,-427.90679408807773,-474.060536370147
2025-12-12 18:20:33.979304,Right,-419.4884408010985,-499.805006107199,-497.38044762518257,-449.05067618121393,-77.2928889451432,-417.10351211752277,-463.9713020508643,-507.5089219926158
2025-12-12 18:20:33.983294,Right,-345.07693131885026,-404.87999732687604,-402.9457092744997,-368.7362421336584,-265.43427938292734,-336.56824116781354,-375.7045195528772,-415.9001418640837
2025-12-12 18:20:33.987327,Right,-281.3126816606964,-339.8187322343001,-339.1069587384118,-306.39537888218183,-490.16880802006926,-276.5738372684573,-312.99298601213377,-354.15137670969125
2025-12-12 18:20:33.991279,Right,-346.40452991065104,-424.04246552928817,-421.7694565502461,-375.70210771169513,-328.8744730221806,-350.373459983035,-393.737370562274,-436.5546398542356
2025-12-12 18:20:33.996338,Right,-423.68494132347405,-503.94063541456126,-499.2772402262781,-450.6708154990338,-78.24875478917966,-427.8030027396744,-474.21691056736745,-514.0970718992176
2025-12-12 18:20:34.000372,Right,-366.1836160008097,-425.0684556537308,-421.1880384569522,-386.89610526303295,-194.97872447851114,-363.7228492439026,-402.14559615938924,-437.37340533023234
2025-12-12 18:20:34.004372,Right,-266.9822893803939,-316.67238720168825,-315.34037816966884,-287.03531068214215,-443.27352007414447,-264.29784748505335,-296.19954353990033,-331.29210890829563
2025-12-12 18:20:34.008371,Right,-293.6957681531785,-360.60157911584247,-359.1823875097325,-318.281020725728,-346.0689795538783,-297.48197308543604,-333.95475939207245,-372.46231622144114
2025-12-12 18:20:34.011396,Right,-385.8058731146157,-463.6881175097078,-460.0341755372938,-411.1829994324362,-84.22195169713814,-390.812621297664,-432.51170337502845,-472.0210233529797
2025-12-12 18:20:34.015387,Right,-369.6033190881135,-433.0115661509335,-429.11392266780604,-390.72037801123224,-151.47944473900134,-369.28071405622177,-405.7587925767293,-442.90570661611855
2025-12-12 18:20:34.019360,Right,-276.31151040270925,-327.4136069417,-325.1353152958909,-295.31316589959897,-418.2693549176911,-275.3298187139444,-304.2391661051661,-339.74045039515477
2025-12-12 18:20:34.024415,Right,-277.6260465234518,-339.79529389273375,-336.89011977263726,-297.88456633745227,-371.58773766469676,-282.385259600007,-312.9173446719069,-348.38177566509694
2025-12-12 18:20:34.028457,Right,-365.3746408908628,-438.1814817120321,-432.2082925076829,-383.90248977346346,-84.27492055564653,-370.79117525275797,-406.0224315703381,-440.1659382021753
2025-12-12 18:20:34.032433,Right,-370.15457574871834,-430.9818487686571,-423.80573271925095,-383.6229666977888,-86.88674809550866,-368.25271315453574,-399.95745844219346,-431.6235514320433
2025-12-12 18:20:34.035444,Right,-276.1832567586098,-323.7875547555741,-318.1534272778081,-288.7700237730751,-372.29900720430305,-270.8811075484846,-295.7257474164944,-326.92720794922207
2025-12-12 18:20:34.039475,Right,-245.278204481001,-302.08826204237994,-296.6266536230687,-262.53430663375184,-401.0781249460997,-245.54941921879072,-271.53820674074814,-303.8356392318383
2025-12-12 18:20:34.043471,Right,-314.92540744377766,-384.2650973664131,-376.3147502442589,-334.5680404576706,-108.57951052772114,-318.5435251505114,-350.11121226102114,-381.48289081803523
2025-12-12 18:20:34.047481,Right,-337.5175426589558,-397.24815110105556,-388.26564143702853,-354.2961457083002,-31.237022077373695,-335.32137463230174,-365.823323600227,-394.8727757021552
2025-12-12 18:20:34.051506,Right,-264.09838816022966,-308.57570926635526,-302.06277117168065,-279.46759721648414,-307.8919852352119,-256.7851001077797,-282.16259644925594,-311.84974089008756
2025-12-12 18:20:34.056500,Right,-231.6815884760581,-282.087215756299,-277.87939616444055,-250.03647573280614,-418.7357400864712,-227.90893832372967,-254.82661158614792,-287.83958256524056
2025-12-12 18:20:34.060495,Right,-295.188213209738,-358.37366893095896,-353.68982613657136,-314.04049665061757,-153.04067032056628,-294.72587960760575,-327.4308050114196,-361.28318742790725
2025-12-12 18:20:34.063549,Right,-320.34632451308426,-374.80524758889806,-369.68265070731286,-333.7926000119187,-1.2593377737794071,-314.1853567472426,-345.4218303193338,-376.9553292293567
2025-12-12 18:20:34.067545,Right,-243.20802399062086,-280.2436055664439,-276.9781841788208,-253.16879571194295,-240.00651455309708,-230.79890436062124,-255.0070721891243,-286.6823721564142
2025-12-12 18:20:34.071495,Right,-199.53941866673995,-242.00656950543635,-239.7730535104638,-213.67489447048865,-418.04644951049704,-190.95643159328029,-215.33911767276004,-251.19515682198107
2025-12-12 18:20:34.075556,Right,-270.3624445423484,-331.37631226400845,-326.5071662289556,-289.47681293229107,-199.3541848937748,-269.13051559764426,-300.8822202972369,-338.36661437386647
2025-12-12 18:20:34.079574,Right,-321.7953606209485,-379.31595100765117,-371.26595460425597,-339.4111580760218,13.833256155194249,-319.9789317571558,-352.69853810674977,-385.18389890284743
2025-12-12 18:20:34.084559,Right,-250.07093408703804,-286.37178400624543,-278.5799539529253,-265.0210061663529,-163.71140598296188,-244.12921619100962,-269.18840350059327,-295.77145984384697
2025-12-12 18:20:34.088589,Right,-178.84076118393568,-213.3232207687106,-207.3122491958784,-197.7264998597093,-384.7028131125844,-176.24347695964389,-198.67424750572536,-224.70554689795244
2025-12-12 18:20:34.091611,Right,-233.0136996898218,-287.279654783546,-280.6951102571329,-257.85300796700176,-227.0199141285848,-237.39421077724546,-266.67225030774716,-294.4923549632076
2025-12-12 18:20:34.095540,Right,-303.9082464509993,-362.5147135888692,-354.32005885988474,-327.50976758019533,15.759788890194613,-307.0105039656046,-339.29779819212854,-365.3463337959256
2025-12-12 18:20:34.099680,Right,-246.86860491952393,-285.50398947740905,-278.119912036811,-264.3395355725661,-108.76073066261597,-242.9937011746806,-267.5513043082319,-289.78400194249116
2025-12-12 18:20:34.103682,Right,-150.04547801375156,-178.94637635129038,-173.06137116625905,-165.57900772057474,-359.29202392185107,-146.38618022040464,-164.55331342690624,-185.87917077168822
2025-12-12 18:20:34.107680,Right,-174.53783940023277,-217.92830487061292,-209.87448407534976,-191.93566489592195,-255.05788758862764,-177.9409373497474,-200.065064884373,-222.03245484316722
2025-12-12 18:20:34.112608,Right,-258.839155217458,-310.02779396122787,-297.2209262656979,-274.1633230812149,18.51478576340014,-263.38914358167676,-289.80851402378175,-309.0565573635977
2025-12-12 18:20:34.116692,Right,-233.30052192608127,-268.6655711767962,-253.60311040806118,-243.13338655617554,-43.82643575500697,-231.63852932461305,-252.7934008758748,-267.03142810217105
2025-12-12 18:20:34.119641,Right,-131.63912873825757,-155.8228173526004,-141.47945230733603,-140.70625534874853,-317.56812496460043,-128.5393614937202,-143.29673944658134,-155.46916896558832
2025-12-12 18:20:34.123692,Right,-124.65751679847017,-161.87736230972223,-146.90246814885177,-137.89281939167995,-280.05151541664964,-127.37661067052977,-145.09536271588877,-158.05949747527484
2025-12-12 18:20:34.127685,Right,-204.46300699928543,-252.83626040571835,-234.96326680469792,-218.09609073842876,8.056330062565394,-208.26825910044136,-231.05681716103572,-243.0982449974399
2025-12-12 18:20:34.131694,Right,-205.6455096756108,-240.55233329103794,-221.3819456915371,-213.97727540507913,13.86614040331915,-202.10542199894553,-220.69200446864124,-230.2142426589271
2025-12-12 18:20:34.135891,Right,-116.11177653202321,-135.9164788260823,-118.2303322282387,-121.46509371011052,-268.13801101822173,-108.84788950619986,-119.69558901083656,-129.7327246911591
2025-12-12 18:20:34.139730,Right,-94.4361922085518,-122.55663942627143,-105.62818123260513,-102.10067631234415,-302.2741169501678,-92.64382288028719,-104.39988719602115,-118.14470246597193
2025-12-12 18:20:34.144723,Right,-168.42041243991116,-208.4878446495859,-190.35523553949315,-176.71944178972626,-13.948222667444497,-170.03093186032493,-187.77972347382456,-203.57795170892496
2025-12-12 18:20:34.147762,Right,-184.5850536187063,-213.66507665999234,-195.815223743557,-189.03709234966664,68.43786646035733,-180.52298810944194,-197.62024203507463,-212.84449505480006
2025-12-12 18:20:34.151763,Right,-99.78045855066739,-112.43737528391648,-97.5528492477606,-103.0288931694231,-199.4303317570011,-91.2083583920612,-103.53821148118004,-119.82011304434855
2025-12-12 18:20:34.155752,Right,-63.36697053158423,-83.10555789677892,-69.75225397822214,-71.16236647666665,-307.67092967405915,-59.520932997227646,-74.59062528726645,-94.22931220091414
2025-12-12 18:20:34.159731,Right,-135.250419741089,-171.0545308435685,-155.48666979145491,-145.40201807802077,-44.74942261801334,-136.15585043473402,-159.3057112302631,-179.59829154238105
2025-12-12 18:20:34.163776,Right,-171.05998671217822,-200.5296803181409,-182.76183265505824,-176.42229445331031,108.84948563895887,-167.84550413960824,-191.3069362298702,-208.09660688467557
2025-12-12 18:20:34.167808,Right,-92.68820253195008,-104.07230540504679,-87.2486277486314,-93.4948357619578,-119.5973181599984,-84.97505632648245,-100.74857265426544,-115.26456325338222
2025-12-12 18:20:34.172816,Right,-36.55650216608774,-51.40128997649299,-35.738933429005556,-39.709250414860435,-287.2861296701012,-34.082526999060065,-47.15169713762589,-63.47801895625889
2025-12-12 18:20:34.175827,Right,-98.48028635192895,-132.16944428527495,-114.60700310609536,-105.04454424465075,-68.7809674393502,-103.33327793428907,-120.943526693678,-138.53742654708913
2025-12-12 18:20:34.179834,Right,-152.96315822040197,-186.3339155986905,-166.20475711219478,-156.5473238522536,133.31282271753298,-154.99463115917752,-172.4818059997633,-187.28433627967024
2025-12-12 18:20:34.183842,Right,-88.15078826947138,-102.99273837625515,-82.96593182929792,-86.65209168026922,-55.69584694149671,-81.96698876545997,-91.9452146878466,-103.74757332372246
2025-12-12 18:20:34.187785,Right,-17.020006657170597,-29.2937974446686,-9.971559712896124,-15.901582936872728,-278.0631125314394,-9.425942478061188,-16.93262111902004,-29.35183886392042
2025-12-12 18:20:34.191863,Right,-67.54950490081683,-96.73782474698965,-75.23275251837913,-69.07603884424316,-112.2168821154628,-62.70758688414935,-77.1847594959545,-90.5544035594794
2025-12-12 18:20:34.195883,Right,-142.69428146030987,-175.0099358712323,-150.34917717328062,-141.62775940954452,137.881977062847,-133.71731420088327,-151.930371641065,-162.5255905186059
2025-12-12 18:20:34.200869,Right,-98.75951796141453,-112.85677662160015,-88.23905333393486,-92.40584224095801,12.196309189661406,-81.54802926949924,-92.99990000086837,-100.09250822436297
2025-12-12 18:20:34.203898,Right,-10.214320394850802,-16.753176228958182,5.636348150786944,-3.5714195343316533,-243.77940601028968,7.06326069124043,2.065118279249873,-5.439958465693053
2025-12-12 18:20:34.207904,Right,-28.741884831048083,-49.60119250306161,-27.43163604993606,-24.92404725844972,-139.85751567946863,-18.373807808442507,-25.683963287388906,-35.16708192095393
2025-12-12 18:20:34.211860,Right,-101.78959006915102,-128.4160441751592,-104.829556418641,-96.02003610203974,139.1566039120953,-92.51140199467773,-101.78143055882538,-109.83437556540594
2025-12-12 18:20:34.215942,Right,-75.71087370841997,-85.30668090388644,-62.6751325064688,-64.69269011850702,78.913306195318,-60.98676583071938,-63.19381271250313,-67.96952804393368
2025-12-12 18:20:34.219943,Right,12.97750033752527,13.773257918248419,33.224122611631174,23.802549953514244,-200.45406948332675,27.07923080015462,32.29857415193692,27.845836083579343
2025-12-12 18:20:34.223967,Right,6.593954024312552,-6.826714353286661,11.403815846773796,12.061615679529496,-168.1518661926675,11.929639650858007,14.993507703009527,9.090259280637838
2025-12-12 18:20:34.227967,Right,-74.81150566565339,-99.18476192071103,-79.84900224715238,-70.61220740841236,124.10669196798699,-73.39288198039867,-74.83985280705383,-79.27381272276398
2025-12-12 18:20:34.231972,Right,-69.31492983701173,-79.32525844464544,-60.68864000902977,-60.89281694358215,139.4048594724154,-62.44342895166483,-60.35098252008902,-61.571503404004034
2025-12-12 18:20:34.234983,Right,22.218164489488117,26.70707937539555,42.08391341404058,31.324978794844355,-139.55890709056985,31.79944429558236,39.1347734592855,37.483067874913104
2025-12-12 18:20:34.239934,Right,36.850830683950335,30.30361243436346,44.03412701387424,40.1718820540118,-179.94572665923624,39.932707724161446,43.0222471896559,37.69624103157548
2025-12-12 18:20:34.244048,Right,-43.48855053819716,-64.75633598701097,-49.71946390561061,-44.011547165573575,102.15020762523636,-45.45470695599215,-50.50577061314834,-56.7542394848424
2025-12-12 18:20:34.248004,Right,-55.252470860636095,-65.86088815535186,-50.632883173937444,-53.208453544124495,185.26182786934078,-53.2010868472571,-57.2905031950213,-60.5194597018417
2025-12-12 18:20:34.252039,Right,40.55860342897358,48.54764485533815,60.933871606655885,44.762159791076556,-79.67674128187355,46.36513031303184,49.370246645761654,47.68691373936599
2025-12-12 18:20:34.256059,Right,80.76196951311431,83.98967719438951,94.44566353003029,82.1707650681492,-190.0812790619384,81.68517944373889,84.9931460734806,81.37119361368241
2025-12-12 18:20:34.259061,Right,0.24373181018745527,-11.859454811259639,0.21501844946760684,0.1012246944301296,66.96993683621986,-4.226290963968495,-6.075799938640557,-10.105094319500495
2025-12-12 18:20:34.263068,Right,-46.48575680452632,-52.18436681327876,-38.52373648661887,-42.39876165924943,217.61387486965396,-48.20145172267803,-47.73590276637697,-47.80734509404283
2025-12-12 18:20:34.267069,Right,30.15076544333715,43.83468395913951,55.707352875731885,37.6845894625003,-8.838355200714432,31.566795694001485,41.842248641565675,45.69050367560703
2025-12-12 18:20:34.272082,Right,91.63655028722133,104.59550965114613,114.20183516253019,95.99881713898503,-172.94297238520812,86.97419783385703,101.07561564736534,105.29215542695601
2025-12-12 18:20:34.276092,Right,30.601598436420318,27.38365924358368,37.99673120418447,31.10579784779111,48.13286441646051,18.188448929722654,27.568233780475566,31.869131471583387
2025-12-12 18:20:34.280107,Right,-32.38391556934221,-34.034186012489954,-21.21203573900857,-29.528858108678833,252.0873485951015,-42.388431017810944,-34.02626665268326,-26.847753872803878
2025-12-12 18:20:34.283120,Right,22.40946894834633,39.10105057913461,51.62302763320622,28.969275210198248,64.6981088596367,19.777859727328178,34.47161732730456,44.13368372764671
2025-12-12 18:20:34.287157,Right,92.65200247531175,111.18365076504415,122.32664846433909,96.78880500033847,-157.39274561488128,89.8533408784424,106.69787613590597,115.28157817010651
2025-12-12 18:20:34.291147,Right,51.66065723579959,52.701946195127675,64.58434414304793,50.979915196454385,5.3242886758671375,43.96348735096399,54.28588732867502,61.3646175294125
2025-12-12 18:20:34.295145,Right,-11.87591050172341,-14.403768503398169,-1.4288694656570442,-12.032396321592387,247.01642928247747,-17.501159248000477,-10.912553546513664,-2.267974515008973
2025-12-12 18:20:34.300164,Right,37.66937421594048,52.72446410925477,63.52784238336608,40.670883410813985,107.91757705689815,38.67618559929542,50.66012856300222,60.98523093466065
2025-12-12 18:20:34.304156,Right,124.96526223310502,146.59679177240469,153.70904581606737,126.03965126833646,-161.6439738508052,124.41885579467635,140.67026880246704,148.92244185655727
2025-12-12 18:20:34.308186,Right,101.67765897753998,107.71118355321232,114.03515134422923,97.94266473469906,-63.87295468394586,92.10652156444849,104.09919299613102,109.20460216331412
2025-12-12 18:20:34.311201,Right,22.706752923040767,21.5263986113423,28.9246328168083,19.54966702318052,219.21542170365865,10.180129701067926,18.486912691500038,23.565502455778187
2025-12-12 18:20:34.315207,Right,43.227508071708144,57.6632188835938,63.02590129029704,44.77071663868264,167.20183567298227,35.99720167623309,48.93900430528447,54.60991999055841
2025-12-12 18:20:34.319209,Right,128.76351818307012,152.43174251000164,152.54085044565727,130.41598357712792,-107.44122434974997,123.00143421949178,139.7984257556236,141.9004730663728
2025-12-12 18:20:34.323223,Right,122.09533965260198,130.6976174985175,127.2475190415571,119.26617247943068,-74.27263272703567,110.89570454132627,121.51543027657317,118.14124654218904
2025-12-12 18:20:34.327249,Right,41.83390689610678,38.88861426393851,34.91418541326129,38.70964850910241,218.96719013698748,29.668290116780554,32.74595724431856,28.167593426507665
2025-12-12 18:20:34.332275,Right,49.51920934114605,60.67784572740493,55.4254334908037,51.55542933200195,235.09384330485773,44.425415483739926,50.259197575607686,48.565401353975176
2025-12-12 18:20:34.336274,Right,144.116335909217,169.8896280421468,161.52488907662337,148.11883114090597,-46.59550264321297,142.26158256980125,154.8964430312335,154.60768801411905
2025-12-12 18:20:34.339264,Right,159.18953237787355,174.07104149436054,164.5775995945005,159.2801271535136,-92.13979275526071,151.0118559893017,162.22883634336176,161.11151478900865
2025-12-12 18:20:34.343316,Right,72.13228175476252,71.93812623618578,64.5977404241712,70.38145108075696,187.50071382815077,59.00790346048598,64.92277549827122,65.5120634969353
2025-12-12 18:20:34.347293,Right,47.23933586283238,56.65914752167009,50.78525157237891,49.32990922535828,272.18084827903294,38.15534707893676,47.036639647893026,52.463953979851794
2025-12-12 18:20:34.351370,Right,130.3485682373721,157.00679374919855,149.84618215709634,134.71735883111978,8.862962471190258,125.31542753498798,141.9251323274948,150.01688976958394
2025-12-12 18:20:34.355322,Right,164.8408112716279,185.71214918297483,177.87699988942768,165.77042354087462,-103.11700608118736,156.0078105271241,172.01682114762662,178.90302416194754
2025-12-12 18:20:34.360333,Right,85.77660711485078,90.93909263605747,85.12042310000106,84.64868755506177,148.6783440254485,73.51666172187106,82.43661203191732,89.1361723693044
2025-12-12 18:20:34.365345,Right,41.97961799265977,53.54618443549407,48.918891147040995,45.50451928500115,289.6553235458168,34.91185321579542,44.12007179079228,54.115550945993164
2025-12-12 18:20:34.368356,Right,117.68346470356119,148.4732860529548,141.46015162293043,126.17518339112576,49.6048770053776,116.06630508056696,133.5698104934272,146.21072699613433
2025-12-12 18:20:34.372356,Right,174.3958977042057,203.74527847869467,194.15023633487,181.77997355467596,-126.1186843750329,168.45361314978436,188.71637394036588,200.7975244439076
2025-12-12 18:20:34.375373,Right,108.0286144119982,120.00973644755868,111.3286208924983,113.3791171281373,92.74434283643859,95.51074204876932,110.05434989132482,122.24743428017246
2025-12-12 18:20:34.379393,Right,40.996051286862894,53.54509597248034,46.70722320461573,49.971996889036745,303.17675755291566,31.988694323450545,44.44381940451785,60.06353360970752
2025-12-12 18:20:34.383344,Right,93.27503332902165,123.90756002844319,115.72150713988958,106.910977851393,121.92752730294887,93.17101188211018,110.9171395142821,129.1393703666654
2025-12-12 18:20:34.389394,Right,161.73400566230703,194.31981411592733,183.12555876259648,173.68070667086113,-99.57862022452173,163.24027101152433,182.06911172238642,198.45139943640606
2025-12-12 18:20:34.393377,Right,117.48651309791603,132.3765727330183,120.3191517409141,124.84505803272987,63.252752021406195,115.35176220813628,126.55107318887212,140.19526839672972
2025-12-12 18:20:34.396432,Right,48.039307964005275,58.888967252980365,47.04653480875049,55.495856557550724,310.5305211544546,48.21687467624088,54.97878207867507,69.25655958720745
2025-12-12 18:20:34.400446,Right,90.0333948773332,118.15281228073218,104.16001709116335,99.76775687804911,179.60605499539088,96.48509775889943,108.61696764330554,124.24634462176437
2025-12-12 18:20:34.403455,Right,169.64215179869643,204.1038110264817,186.8451904370886,176.4323966886841,-86.23842291008623,174.59051277002072,191.1180840857669,204.5362740704004
2025-12-12 18:20:34.407453,Right,140.53339977091673,159.00335544602785,141.35373430865366,141.70616922189947,8.964883685890527,137.44053483581956,149.36603334659594,159.46567231717563
2025-12-12 18:20:34.411407,Right,59.89136543208588,70.9623004062887,55.11096333896057,61.450954563690175,286.5754791670406,55.2610372690724,62.83284284496767,73.36447626550944
2025-12-12 18:20:34.415479,Right,82.51780711542233,109.83646753050562,93.74814757632339,89.46610650590446,228.46501433580124,84.1845667496309,96.07837333594216,108.93720939678315
2025-12-12 18:20:34.420503,Right,170.12335783022718,207.9729055749849,189.65850446166587,178.55563888241159,-53.61658158573118,173.52645600627875,189.84880310671724,201.6828177165662
2025-12-12 18:20:34.423444,Right,161.16040119054378,184.9802649812409,166.7635915202991,166.61509623556776,-29.424740202040994,159.07688531646272,170.7483846710893,179.46617408612656
2025-12-12 18:20:34.427516,Right,72.16504840038397,84.56147506129491,69.34739104037726,78.38390586533933,255.5122954959952,69.5198057604066,75.58547556897975,84.91716625721165
2025-12-12 18:20:34.431528,Right,67.02707827909035,93.08136180126166,79.32113659336028,78.59554046582343,265.82972814916866,72.6173908250421,82.87808722336194,96.49556763633154
2025-12-12 18:20:34.435540,Right,151.09176399355056,191.46319763780048,175.95358292043966,163.79046418000507,-19.85948613176879,161.14918689057959,178.6423503113765,194.46068810747238
2025-12-12 18:20:34.439538,Right,162.43547618633602,191.8317474652722,175.13735778527916,169.73370428552153,-68.78482435108162,166.5895673112609,182.22809758335643,197.00375052689924
2025-12-12 18:20:34.443628,Right,76.6911943237792,90.67547578029917,75.4161970311543,80.88375107687898,208.00393358537985,75.45539954629203,84.83267034240998,100.09976736688986
2025-12-12 18:20:34.448570,Right,53.926152702828404,76.70333107109764,62.399707959077205,61.49178144973121,290.4039265853644,55.54087742327829,66.80294325112482,85.15992226003436
2025-12-12 18:20:34.451627,Right,138.83946393914812,177.66779326908,162.0035422615474,148.5871788632794,25.957165178697323,142.08314812960452,160.39813446163316,179.6574627985974
2025-12-12 18:20:34.454687,Right,176.2383706348919,207.97663869075768,191.82029192114715,182.03845107342931,-83.43933877347445,171.87836164269538,189.5711904769123,206.17305704261526
2025-12-12 18:20:34.459650,Right,101.46979182894574,116.35744721390074,102.58248819311848,104.08017982376623,176.58819064141426,89.62084148130089,100.36816429049941,115.6953412896546
2025-12-12 18:20:34.463669,Right,61.480244370308355,81.839619461447,69.89055006140552,67.27867650905682,328.0224071974517,52.14613014679344,62.64148047588242,80.37249646722921
2025-12-12 18:20:34.467668,Right,138.6080756727315,177.2415353817487,163.7653912048263,147.92633776480216,93.29105713962053,134.21384200584725,151.51580315038154,170.92309926709277
2025-12-12 18:20:34.471656,Right,195.18052980741777,231.3352897001605,215.94882830137794,202.24493543966673,-85.75421630039637,187.51388729180326,205.8831902844977,223.31405162086594
2025-12-12 18:20:34.476688,Right,130.3073849312641,148.1289207560476,133.69078332572826,134.63556724433147,125.07125466741854,117.3078095583478,129.12640503827424,144.59637191043294
2025-12-12 18:20:34.479675,Right,67.33358835526451,84.73752056018566,71.62219158667722,74.78304209890484,328.336539731361,58.12783727329224,68.08948460542888,84.6788479185343
2025-12-12 18:20:34.482673,Right,122.22907099395525,156.30414813377138,141.3444375632098,133.38696968887234,141.95056950868457,120.68608651449904,136.43935796771257,153.8940355473751
2025-12-12 18:20:34.486702,Right,187.99558255939337,222.1489237382484,204.25731735538284,195.80607029345992,-84.07789119935478,185.25774769195414,202.30157919728663,217.22597002441762
2025-12-12 18:20:34.491704,Right,137.8000505630771,152.61635202207253,134.63958173488209,139.50339322449872,75.64868504427432,127.84309850688442,137.56753346981714,150.1964071156399
2025-12-12 18:20:34.495693,Right,64.11879217046953,74.27461816271534,57.67123516765423,65.7599420369952,323.32283051032573,53.77097300752939,59.95648879301734,74.722236865171
2025-12-12 18:20:34.499722,Right,104.37512518666335,132.16110797447618,114.46362062179833,109.61721582981409,194.99445285488036,99.81791441106179,112.4223520905798,130.66755975820706
2025-12-12 18:20:34.503741,Right,180.86626395936764,215.35501062459662,195.08277058278327,184.64521422698454,-70.29199150287604,176.3231567661569,193.49551538162632,211.42716845829273
2025-12-12 18:20:34.507755,Right,145.36911974326358,163.28962248426978,143.0580353167752,143.6725257129001,21.6295186970965,134.7953689659771,146.3832458089746,162.00782370116212
2025-12-12 18:20:34.511772,Right,58.971738026622916,68.09607269990374,50.13558110948361,56.217675907711964,294.2399387328478,47.899942784861196,54.16671057519852,70.51446707066498
2025-12-12 18:20:34.514784,Right,81.18115854548523,105.1773517842521,87.65920323494356,81.66609590908047,231.49984361811948,75.89105328354344,87.02772604755592,106.07004417880671
2025-12-12 18:20:34.519732,Right,172.88701512437547,206.51073869681568,187.47972041746834,172.93077466610703,-55.00528595225478,167.68258606625022,185.30471761757508,204.23544417475932
2025-12-12 18:20:34.523789,Right,167.32538014499005,186.24490462461836,167.7041839612939,163.17385076000937,-35.29800898498797,154.92065795441158,169.8229207121767,186.4869625917636
2025-12-12 18:20:34.527818,Right,77.23320339477505,84.01014584241784,68.42069887416437,73.54667390574468,246.43760777408897,63.394559285457944,73.09403677069349,89.95616387296468
2025-12-12 18:20:34.531769,Right,67.56623328011483,87.4545846649562,73.19381705200067,69.95218497805763,256.2343737886986,62.15430035124882,75.01740960488678,94.09838242645492
2025-12-12 18:20:34.534837,Right,148.1859587217332,182.43778895610012,166.8846129165904,153.35504639244755,-27.573930917715188,148.27773091872223,166.76955212600296,185.31828038569074
2025-12-12 18:20:34.538782,Right,159.87660861277254,183.85601836859132,168.42566641321173,161.7955317576998,-73.32304382871371,155.6280279607745,170.61949729407206,185.96336486653308
2025-12-12 18:20:34.542909,Right,75.34424307811423,84.90967960635317,72.45987766957842,76.16427197065786,206.94924544161768,67.60729147560778,74.8369335353782,89.34548306756187
2025-12-12 18:20:34.547863,Right,50.518290141713805,69.82879769278225,59.11159126550774,56.23599911225028,290.86462087210384,48.08781090626144,56.21168151139864,72.78719402203569
2025-12-12 18:20:34.551919,Right,132.0901925858634,168.27616427326575,155.7943442648393,141.19330882365466,22.442786567175062,134.59206451597856,149.75041786252405,166.12945993369794
2025-12-12 18:20:34.555897,Right,169.81671389972325,199.2793689633836,185.20033857930684,175.8806096787739,-96.84677128004842,168.42001463659108,183.79420362616656,196.53199566734838
2025-12-12 18:20:34.559912,Right,97.89196204353357,109.63799564520014,96.91920608881628,100.89989121156395,152.05401729722507,92.00820763985394,101.2786492043524,112.23360459486139
2025-12-12 18:20:34.563912,Right,57.11054661124945,71.99968236102723,60.55877756103291,62.34458622528473,295.8055236284854,55.359952036698814,64.34105236903997,77.54536194202956
2025-12-12 18:20:34.566937,Right,126.8413269915327,157.25130898714997,144.16170609064284,134.0409515594074,57.28897887899075,130.71868905148585,145.3195244599774,159.87106844523805
2025-12-12 18:20:34.570949,Right,171.8359391692793,198.1607129975455,183.43823333096225,175.77272517394158,-122.58330487797502,173.33267525964766,187.0540916666796,199.11770393996267
2025-12-12 18:20:34.575938,Right,96.03115552701638,104.37686802571989,91.40395734703634,97.62416396808112,90.70322017220315,93.78614897376974,99.15562539728126,109.25814994596294
2025-12-12 18:20:34.579911,Right,27.813315837061964,37.59188193306909,27.249816136347363,34.147538922930835,298.44616877051885,30.755086936143925,33.8180143883219,45.88458190773963
2025-12-12 18:20:34.583989,Right,85.79180734299007,114.40163942982326,103.70957575010834,97.85156769052264,114.12956104142359,96.44512129202485,106.87316332780756,120.98321675002808
2025-12-12 18:20:34.586985,Right,159.62747460775427,189.6498850067146,177.2661485070421,170.03571318884497,-115.01971907485859,167.96916891209548,182.41667220398085,194.7680687790562
2025-12-12 18:20:34.590996,Right,114.13808398903348,124.71043213285157,113.00474843013217,119.44704163231654,39.23889435615274,114.16203986635082,123.25446421216475,133.14185050138622
2025-12-12 18:20:34.595004,Right,36.44426849405863,41.0695755398483,31.216643646766897,42.03688690793933,283.85264064755756,35.695269397547236,41.395743097906234,52.15744165054639
2025-12-12 18:20:34.599035,Right,68.07910231503774,88.84301186833181,78.47786350670503,77.232394971943,155.5031484401552,73.14852031238843,84.36250718944939,96.82265625498258
2025-12-12 18:20:34.603041,Right,139.430858026637,165.9196795503376,153.81783443750464,147.0184070825344,-109.91340368842066,144.53210841369582,159.71243687308743,170.68254330696072
2025-12-12 18:20:34.608032,Right,103.50623337208526,112.9559732406924,101.78651788941352,105.80807823396754,-19.969763464367134,102.79136173109873,112.47124290754437,121.24609990502358
2025-12-12 18:20:34.612041,Right,15.92071201786166,16.343503080221126,7.989479356590891,17.74945128869149,250.08735329957562,15.419071531534428,19.944580597715685,30.325789462192915
2025-12-12 18:20:34.615055,Right,33.50228419320774,48.791814338823315,40.76963428239105,39.16966925156885,185.30948309740052,39.718484834505944,48.76940751564689,62.17166768197785
2025-12-12 18:20:34.619062,Right,120.36540236932342,145.59814440147602,135.41613926697755,125.67454156576423,-102.81259972274711,127.03539015410934,141.76383084213012,153.9576022050751
2025-12-12 18:20:34.623092,Right,113.24336574634071,124.19648482388584,113.80883163231192,113.65489397989586,-83.3574925744615,111.54808104404947,122.78759612789145,130.65172261805856
2025-12-12 18:20:34.627104,Right,25.019277576502645,23.877054808312096,16.10608269862132,24.547166385833407,200.70141609520942,18.78234266428626,24.459697317215614,30.768965034687426
2025-12-12 18:20:34.631101,Right,19.535656454449054,30.868127998139244,24.45963515585754,23.53832763832179,213.8850021726248,17.526212975528324,26.439711348735727,34.3570605572022
2025-12-12 18:20:34.636112,Right,106.39243636743049,130.9445208577381,123.2644104626379,111.71064975339686,-68.23812738871493,106.29182681711973,121.22022358002141,128.97471419512294
2025-12-12 18:20:34.640134,Right,126.2099115823803,139.15478123663343,131.26700078512658,127.06192457655561,-114.0424799733446,119.89176635481999,131.8022473473975,137.06121609642287
2025-12-12 18:20:34.643096,Right,50.23426676291274,47.21325625869213,41.88065180846024,48.736827115761116,166.45774858053483,39.7991360843007,44.149712764599826,49.254809914215
2025-12-12 18:20:34.647142,Right,31.15905605291482,36.05081455412437,32.616058698360575,32.83896225277567,251.33092479934567,25.184106054337462,30.02466712106252,38.06260155409109
2025-12-12 18:20:34.651155,Right,112.93387383085792,133.03388401668053,128.8585986875405,115.89470581925707,-16.728550744825043,109.93864290247438,120.78683154648752,130.019545440824
2025-12-12 18:20:34.655181,Right,146.71486657322384,159.43140095710987,155.0778496004641,145.0964823885588,-136.57364901842084,137.28618129566894,147.10309443372535,154.33005057639093
2025-12-12 18:20:34.659258,Right,70.58804861782119,66.6339573727164,64.87961313850246,66.11713410314405,112.391500918151,54.88029257679591,57.88389902457129,64.41106915444834
2025-12-12 18:20:34.664186,Right,28.00773783234763,29.949775468354346,30.343397277843906,27.913548366865143,257.6372958916327,16.188201031676726,19.398461027623853,28.331774183374364
2025-12-12 18:20:34.668283,Right,100.2916413336934,121.04665267048404,120.27302255597897,104.83242853361298,20.015267280774424,94.81982176587917,105.1958284266293,115.076533473155
2025-12-12 18:20:34.671213,Right,151.33402701473096,169.8090090249898,167.4156486117863,153.47419259822345,-161.70983379085374,143.75520254977164,154.61682168758125,161.50926971496665
2025-12-12 18:20:34.675250,Right,78.27986495808,77.99223413420259,76.945739909861,75.95694558165269,48.34167973374133,66.17630005205865,68.50590821733931,73.06796253903303
2025-12-12 18:20:34.679245,Right,3.416244994063163,2.4017356552067213,3.4546540657174774,2.1118103635380976,254.05056778586004,-4.399622443801491,-6.248331965121906,0.2710485932184383
2025-12-12 18:20:34.683250,Right,48.21912965035881,64.72119229866075,65.01242168591125,49.920958723989315,68.41967575049785,48.53198333529872,51.68256011541234,60.55748265958391
2025-12-12 18:20:34.687221,Right,111.00951483679819,129.38220149997505,127.78954550740309,110.62624471043819,-163.4957505025959,111.28687097749207,116.90960810810793,124.13251095745363
2025-12-12 18:20:34.691288,Right,61.21097587177064,61.5613360501593,60.81801016168902,56.83161681974889,-13.261438284462201,56.7535097138898,56.52354161706171,60.93456380168209
2025-12-12 18:20:34.696277,Right,-17.500337845413014,-21.953784893121338,-20.279903190152254,-20.277362563909264,228.190760770216,-18.741872626604163,-22.590608198515838,-17.629703344748123
2025-12-12 18:20:34.699297,Right,11.698088708988507,23.824774920591153,25.511598297423916,13.619804028741783,98.00375627120957,19.95143873320194,21.01860074160504,27.751319086411968
2025-12-12 18:20:34.703283,Right,81.07241492674802,99.06864826616948,98.8656769094523,82.64429121401918,-169.14965650827799,91.85192888727761,96.14419159086538,101.3432330081705
2025-12-12 18:20:34.707318,Right,48.41223196739156,49.434289415716194,49.13965599401854,45.74568630399881,-80.44130917098664,53.574804620831856,52.098145346477395,54.121784157381626
2025-12-12 18:20:34.711331,Right,-31.29113273342955,-39.49930827773642,-38.406763218634296,-34.194260402276996,190.60698327001592,-28.153672646105406,-34.43101332853257,-32.641048761375714
2025-12-12 18:20:34.715352,Right,-5.962327368819388,0.20058199006598443,0.456744496957981,-5.706120214701514,128.32713717748993,0.8349104199878639,-0.4975127897923812,2.701611838856479
2025-12-12 18:20:34.719353,Right,85.00131040849374,100.34420496947132,97.87451121000049,83.776952381304,-158.140775093736,90.56553357421944,94.49447060933744,96.15417789010098
2025-12-12 18:20:34.724351,Right,76.94155673529895,76.91441402977216,74.21423543413403,69.8230687045143,-137.33921660021588,74.96282907440036,73.55375576362712,71.98976743247476
2025-12-12 18:20:34.727364,Right,-14.651694489381043,-27.63221810228424,-27.543406377299107,-22.9952455804887,149.59773084025073,-18.34771050688869,-28.1278550006391,-29.473639916745014
2025-12-12 18:20:34.731382,Right,-19.214728214021306,-19.38613998326764,-18.001525824787677,-22.609730065902113,164.81613665154146,-15.734757411206374,-24.586136474550585,-22.966545933973975
2025-12-12 18:20:34.735339,Right,74.68156097005703,89.09641184918291,88.69187369287829,73.15871898434125,-120.23966834647581,80.9509659044561,77.37406155162898,79.1340830308909
2025-12-12 18:20:34.739419,Right,99.74792360211723,103.71032125942293,102.253550772788,93.36138281677268,-172.3880915701593,97.80697982294078,91.83562612991955,90.54535219955142
2025-12-12 18:20:34.743415,Right,20.447277071521967,8.886278061181656,9.040173740242608,10.438141376362182,103.96187102755357,11.023291619159863,-1.2390867444773903,-3.2952184710738948
2025-12-12 18:20:34.747422,Right,-6.710811724697123,-10.040252214414068,-8.90587127620529,-14.367275914308266,188.03688334191247,-13.864848616285599,-24.15014126856113,-23.313009408317157
2025-12-12 18:20:34.752453,Right,68.73982891404012,81.0243722301966,80.54550571246364,62.986954400432296,-81.07765710352396,64.9481773309526,62.1072780295799,64.55118467197462
2025-12-12 18:20:34.755446,Right,97.37921340712637,102.12498566391878,100.59161736811802,88.5778215702303,-203.04522336273658,89.51950122672133,86.73158436214726,87.51342863641912
2025-12-12 18:20:34.758471,Right,14.555097423115512,1.4703873551188735,1.6890844393346924,3.952853108596173,45.928041183979076,3.0400081164116273,-5.972161640267586,-5.8280793935846305
2025-12-12 18:20:34.763453,Right,-35.237061609339435,-44.190541176023544,-42.34622593110544,-41.52698627518839,194.35088892016938,-41.299974983223365,-49.863242056497256,-47.39459883564268
2025-12-12 18:20:34.767422,Right,30.087050181013183,38.47636735315609,39.34416235303797,28.060101306371507,-39.64116575746448,31.015244638023432,29.945111228196765,33.23982090273057
2025-12-12 18:20:34.771483,Right,74.661352069641,80.53456074390851,80.70204717389424,71.07203816779656,-219.6318847737275,74.25775443104794,74.72942737629637,74.86263867162052
2025-12-12 18:20:34.775516,Right,-0.013197949578170665,-11.603677953811712,-8.960008453272167,-5.392488343219156,-10.347526606972679,-3.6292125900799874,-9.55904345572344,-11.928827455296414
2025-12-12 18:20:34.779527,Right,-67.61941409042629,-77.95565310210804,-72.52483675032272,-68.65345807814447,191.57384869746602,-65.8579562074301,-73.33613523301028,-73.73124140022264
2025-12-12 18:20:34.783533,Right,-10.282561317784712,-1.756300193417701,2.9090278296062024,-6.3018505272921175,-0.5142614633659832,-0.5154551816667663,-1.0666735802224139,1.300819156022044
2025-12-12 18:20:34.786542,Right,61.87912941617833,72.36902081803419,74.64893839307479,63.64324648807815,-237.69714049826143,70.0130699458241,72.38247342049726,73.9116644395981
2025-12-12 18:20:34.790540,Right,14.021078910969663,5.768102592104697,8.076830351696117,10.56274237355683,-85.92611164652772,14.815059256652603,10.67817387379182,10.27765254091355
2025-12-12 18:20:34.795550,Right,-65.69769074418582,-79.37528348671913,-75.86800620512804,-68.29598621619516,164.40215852639085,-64.90597579306632,-73.19259420067829,-72.74968281504698
2025-12-12 18:20:34.799568,Right,-33.2254698798788,-30.407064980463474,-28.52061483396392,-31.00559289022931,44.223887963475136,-26.82584958274674,-29.69031329693098,-28.228208404718316
2025-12-12 18:20:34.803636,Right,44.00297120161122,52.83926951789181,51.090845429949695,46.07177476081415,-216.53581771106474,48.71406534248672,50.38107199840306,48.85373965688632
2025-12-12 18:20:34.807641,Right,17.477501991081226,9.389287204961875,6.156137423706241,15.112419842349482,-122.66183600977092,13.561252664672793,10.464911188333645,4.613417298984132
2025-12-12 18:20:34.810636,Right,-62.32113154097169,-79.49887351576763,-81.93258660427819,-64.92800455057295,156.05207214559778,-68.29125278213178,-76.29096325377759,-82.36784173814522
2025-12-12 18:20:34.814638,Right,-42.169568466692,-44.36088236051728,-47.1299194193125,-40.61312391501997,102.02723968164719,-41.43498936481774,-45.26160987716139,-48.77847964387911
2025-12-12 18:20:34.818652,Right,43.131361963867676,51.272207884991076,47.1908357286884,45.17809168988606,-180.45716578324573,46.728575566732616,48.0334293352571,44.36852539978281
2025-12-12 18:20:34.823621,Right,33.18994189344812,27.301018813239352,24.70493438113772,31.35926407067018,-160.93696936887864,31.950053195789224,29.289505811546405,23.001410800337908
2025-12-12 18:20:34.827634,Right,-57.40227213186881,-75.25300005065947,-73.65746707570361,-59.363630656800524,123.26402885862626,-60.0246171133258,-68.60586691371282,-75.05431567439518
2025-12-12 18:20:34.831654,Right,-63.95663582157431,-68.58788892010489,-64.93041375152825,-60.95812797117105,137.87651181156434,-60.60134420554823,-65.93932153598143,-70.04754680785845
2025-12-12 18:20:34.836675,Right,22.804191901843296,32.948981901135994,34.93015179986833,27.430585308429727,-145.9332550962572,27.87971377276699,29.26827068820421,25.134392851774464
2025-12-12 18:20:34.839616,Right,40.51283690144919,40.59586274440517,41.21519219643233,40.78161344781256,-196.95189248318638,37.68324327117443,37.46606804076873,30.539544238134113
2025-12-12 18:20:34.843735,Right,-42.216316465099226,-57.03341998352698,-55.189968683327606,-44.087890935152245,80.07505227611728,-50.68896271049016,-56.699172724162054,-64.14933551774448
2025-12-12 18:20:34.847697,Right,-69.7264254965412,-75.48757606902655,-72.87425263543992,-67.51377756791771,164.65018265358594,-73.42292517244641,-77.18560534415155,-81.72165882236004
2025-12-12 18:20:34.850813,Right,6.692417716993077,17.62635443273757,18.73135513248417,11.68557312910707,-104.90394927540729,8.320114449816174,11.98409595371777,8.939826313486265
2025-12-12 18:20:34.854732,Right,37.013331807502254,41.617191294899385,42.261837054407806,38.439811517484486,-228.14110741171635,35.490729357487,38.70160354745167,33.93442930979654
2025-12-12 18:20:34.858738,Right,-44.4516360641901,-56.61644626838097,-53.068522207242495,-46.241551624276326,20.609315433314578,-49.24829567157576,-53.52414177578612,-58.61498651005968
2025-12-12 18:20:34.862685,Right,-93.23746606819259,-100.44640940229147,-93.87892561603076,-92.14120376389474,170.05789133277688,-92.3003236214281,-97.84422918673954,-99.49623665586842
2025-12-12 18:20:34.867746,Right,-24.197330098220846,-13.480240321703604,-6.721742625377374,-20.009432618011488,-64.77815862047055,-16.660050193677307,-15.961899392641499,-14.664609524603293
2025-12-12 18:20:34.871781,Right,28.57679532302427,36.7555239117537,43.57076262196642,29.837562516200705,-249.21542508053108,32.893033857053524,34.82094169125412,35.63147821515304
2025-12-12 18:20:34.875796,Right,-37.488008347165305,-47.736455226608086,-38.00496971273242,-39.78276636806186,-44.75350171255468,-39.329118362624286,-43.70203987793866,-43.34174950923989
2025-12-12 18:20:34.878785,Right,-101.18159473223932,-111.52674437047244,-98.71998779560818,-100.64929805918655,155.53411898373906,-99.96997662860667,-106.0777784655038,-103.32475518495994
2025-12-12 18:20:34.882824,Right,-44.544588702461624,-36.75788948045738,-24.37690346971067,-39.40107730224554,-35.88829122284187,-35.84238903196092,-35.48612979423706,-31.010822969103174
2025-12-12 18:20:34.886804,Right,25.961878736861763,35.86451481170661,46.41527492394016,29.761452492261014,-272.44472397007667,33.967260869154416,37.05837644908388,39.26822141776938
2025-12-12 18:20:34.890819,Right,-21.17452461594985,-29.581446710028104,-18.23815591599123,-21.230473893741873,-120.74604575812918,-19.33896027890296,-22.378589435458707,-23.111504669061105
2025-12-12 18:20:34.895821,Right,-96.55698745663176,-110.34731921794264,-96.88115381598254,-95.11067563645702,127.59348693973152,-93.97818330070368,-100.78750233777464,-101.14719225221415
2025-12-12 18:20:34.899851,Right,-57.93550590228551,-55.79719185567592,-42.79826696219607,-52.422336731136966,1.8635582539973257,-48.828258042594825,-50.94467560747944,-50.36314548750852
2025-12-12 18:20:34.903809,Right,23.84466667291781,31.049237370840274,41.82836034600405,27.51175974873695,-265.66929145527865,33.302461517359916,33.39447488138103,31.066489984628788
2025-12-12 18:20:34.906873,Right,-1.4527214986633226,-12.149513068034139,-1.400712610622577,-3.9006805083827203,-174.3713532294787,2.2981417354694713,-5.3552848451927275,-12.159457745938198
2025-12-12 18:20:34.910877,Right,-82.56836440854704,-103.2026687241505,-90.60921201796737,-86.47510255064844,107.23695291454715,-78.58837861647226,-93.30243102756685,-101.09862441367841
2025-12-12 18:20:34.914828,Right,-64.46408946896838,-70.93746354249379,-58.401345385893364,-65.16888287520942,57.14162528644374,-53.551842740638676,-64.76116354508213,-71.33827956232108
2025-12-12 18:20:34.918905,Right,20.257298109675503,23.14550836564331,33.8687442211085,18.994430850609206,-223.1291474202444,32.057081114329776,26.398680623612563,18.34894734345926
2025-12-12 18:20:34.922914,Right,12.768812125193108,0.3759652149268504,11.558096009119254,6.301503447553387,-200.31034850460492,16.72929706200557,7.71743158298159,-3.6514361974473104
2025-12-12 18:20:34.927927,Right,-73.02085855824225,-98.95664962015417,-84.7169663716686,-81.15949109009341,90.2672431159117,-72.64160529818764,-87.51590066169865,-99.07002503287003
2025-12-12 18:20:34.931929,Right,-75.00767216610802,-89.42591474423625,-73.81952272692251,-79.40153978102535,110.47820655761097,-68.44628770897816,-80.73089183688614,-89.69018038106458
2025-12-12 18:20:34.934986,Right,13.374227713024084,12.358226608535006,26.42407073738832,10.587086965821527,-172.30628122261624,24.608002328545354,18.075907841775006,9.42145235324324
2025-12-12 18:20:34.939943,Right,29.102476298185138,17.316971493936762,30.82699220923587,23.62259396157515,-223.9003310605076,36.650561048788745,27.758397744360536,16.895937780333043
2025-12-12 18:20:34.944027,Right,-56.56974343022557,-83.35311168127737,-67.95962680947741,-61.30561495512393,56.312334274716704,-51.52634630050625,-66.40068437277205,-76.90870318048655
2025-12-12 18:20:34.946994,Right,-84.0287057497153,-101.52865344129896,-85.8334830023881,-81.80781078129075,147.5975052184076,-73.54135700808274,-85.77207315301166,-92.62578759151074
2025-12-12 18:20:34.951034,Right,-2.8298112542943272,-3.343021716191288,8.936910982708923,3.8386507039740536,-116.13237400867001,11.294864409124784,7.267645466404247,2.0987600073294743
2025-12-12 18:20:34.955990,Right,34.37232607604892,27.508034470680286,36.55624208236486,37.4294224766636,-235.52030236439532,42.12901320251058,38.56364572636994,31.344942022798932
2025-12-12 18:20:34.960004,Right,-43.781708444654214,-68.13938557038637,-59.03672926276158,-45.289188350036056,18.202675541364442,-42.72709650688921,-53.02055824593481,-61.28943802084177
2025-12-12 18:20:34.963012,Right,-95.6523130435744,-116.15517600943349,-106.61302919062655,-95.61285383627546,174.69589331806492,-90.55323587398016,-101.83530570954463,-107.95526520960448
2025-12-12 18:20:34.967014,Right,-31.528910893695866,-34.49841040250976,-27.176817640533955,-28.23959090598146,-54.12230370674661,-18.57971198524683,-23.775261558745115,-29.042520562354184
2025-12-12 18:20:34.971040,Right,21.519529049648554,16.858795123069285,21.92804950484242,23.690034495768487,-234.86023675937395,34.067027254235654,30.077569508659508,21.730617799094034
2025-12-12 18:20:34.975073,Right,-38.99332801802302,-60.84492233359197,-54.76159947992346,-38.58015762321156,-25.37201163008649,-31.364036298748033,-41.10132077920207,-51.90813719533253
2025-12-12 18:20:34.979053,Right,-98.4789862409416,-119.92666130478392,-111.91361344979123,-95.14412593264205,184.59118949891126,-89.90006013746824,-100.4808246270295,-109.40723476055064
2025-12-12 18:20:34.983083,Right,-42.272704239174345,-45.807268068525445,-38.72431014359063,-35.87132428255427,5.321985294231126,-30.451942834075453,-33.90483986007894,-40.32154903655828
2025-12-12 18:20:34.988079,Right,26.87543293356066,25.248055438853044,30.152180075438082,29.843796179302444,-221.05281696894963,33.936165144350525,33.35857116403713,25.909756425808155
2025-12-12 18:20:34.991098,Right,-18.937949139151897,-38.78482583445657,-33.63641690541954,-21.86863975574306,-61.55645177749102,-20.602249021056195,-27.58483544478804,-36.787157875151024
2025-12-12 18:20:34.995044,Right,-90.70531576433132,-115.4439535833153,-108.969329418509,-93.77021618863728,194.6161232557679,-92.41121606092929,-103.31391260896635,-110.95532354480747
2025-12-12 18:20:34.999148,Right,-47.51990806523827,-54.91311784004574,-49.7952507930313,-46.85703219825518,75.45702424012416,-41.96479501680005,-47.23415267484961,-52.59175986376431
2025-12-12 18:20:35.003116,Right,37.38001146786701,37.62516192250769,39.917347571801656,37.802949441345845,-191.4179174816527,44.81897709613986,44.360790542257746,37.78299672902722
2025-12-12 18:20:35.007153,Right,8.447902438427263,-6.220120159487124,-3.87544009350313,5.716200457991363,-105.73317027122175,11.72633275077169,6.975447276396153,-1.8511179174893186
2025-12-12 18:20:35.011149,Right,-85.89046425134438,-107.9570333487427,-103.0911515041771,-86.98780061653088,169.72546724246786,-81.02032347356726,-90.02770467976006,-97.29712696673232
2025-12-12 18:20:35.015104,Right,-84.6855048982543,-90.44457699138002,-85.05030240338965,-79.91109620077623,117.2878391421873,-71.30602558995452,-75.26718358784638,-79.09838352983934
2025-12-12 18:20:35.018116,Right,-10.998267893621232,-5.029015719941526,-1.5389804362712312,-4.281053641272592,-163.14485033741948,5.3272063193398935,7.672924138736562,3.775540918621118
2025-12-12 18:20:35.023178,Right,-20.478465366191813,-27.112448679603403,-23.830744300626975,-16.456651368003804,-141.26307363501837,-9.941875871612865,-10.308403732513398,-16.854215203718923
2025-12-12 18:20:35.027192,Right,-102.54522371380881,-120.34449911347474,-114.78572156649534,-98.13928335260425,147.72188282853313,-94.6199091215567,-99.98979487755423,-106.4090083480769
2025-12-12 18:20:35.031234,Right,-98.02343163297337,-102.8359696281841,-96.6460161860523,-89.07919392125768,166.25715913870226,-84.83180361280392,-86.58776105102879,-90.19819369983452
2025-12-12 18:20:35.035163,Right,-1.0499723894245108,7.935448048032413,11.739600111624895,8.520026522761327,-119.89364673384989,14.281872301668045,19.045322674057388,15.870784438986448
2025-12-12 18:20:35.039224,Right,23.56331147682795,21.28323693886341,23.629718846863398,27.769035739576793,-177.49978844071302,32.28231482197589,34.7195201902141,29.21052138548839
2025-12-12 18:20:35.043298,Right,-56.99375383117149,-75.2484345245175,-71.51009207665629,-55.83557568764081,96.16079502690991,-52.96996995728841,-57.21135338165914,-62.91125051838753
2025-12-12 18:20:35.046249,Right,-86.51676619327918,-96.35761041991645,-91.97396672056493,-82.23292096293153,182.6273099241007,-78.00329729830264,-80.6662280688106,-83.56872621560615
2025-12-12 18:20:35.050268,Right,-13.92642078834615,-7.029724947838986,-5.042859394274274,-7.532485431845998,-84.55408051706763,-1.2397323110417346,3.0368924838185194,0.9430713350084261
2025-12-12 18:20:35.055254,Right,13.196746719506336,14.300076795530913,14.075435296101205,16.1794723645653,-206.8610443728976,21.401153041158977,24.899488655712048,20.00742729002377
2025-12-12 18:20:35.059296,Right,-69.58530203261762,-84.76173061931331,-84.58756483966499,-69.0677240364239,45.110738846764434,-66.19453442198574,-69.88991228394298,-76.54212303431268
2025-12-12 18:20:35.063293,Right,-116.70484857483825,-126.6932294429862,-126.69125409751723,-112.74007657934999,200.72001937356254,-109.4713756514393,-113.33686175408366,-118.61183107335091
2025-12-12 18:20:35.067243,Right,-41.84968591609504,-33.64680418210628,-37.1870460645805,-34.67222516951006,-30.2182955724129,-29.748224410599505,-26.269615325596533,-31.358822081339895
2025-12-12 18:20:35.070316,Right,19.273303069647227,25.406172216622508,18.124014346416516,23.492829103917757,-214.40243772273243,27.069845817670284,31.866175315088185,23.471913461493386
2025-12-12 18:20:35.074324,Right,-41.06095148235181,-52.98630233199947,-60.449286165312515,-40.694801189798454,-6.72878300629236,-40.509909728512866,-42.79146226798184,-53.36863159597851
2025-12-12 18:20:35.078331,Right,-104.39036496773042,-116.36218950830516,-122.51587725924765,-102.18869351453759,203.69627389927336,-103.09357953109429,-107.38328812168766,-115.59605279118841
2025-12-12 18:20:35.083351,Right,-48.47484286200779,-42.284803516718966,-49.22370563892764,-43.14892027621681,22.757856882861233,-43.18318516967702,-39.9051948974884,-45.175798051961465
2025-12-12 18:20:35.087347,Right,25.213236944226082,33.807838805347274,25.75848154729465,27.993995708930015,-210.93043796360143,26.736797602650768,34.309994335475494,28.405852338211844
2025-12-12 18:20:35.091315,Right,-17.142502106231404,-26.37865874201816,-32.14713645086158,-18.457268278732954,-61.400843627263384,-22.655093461682554,-20.810173158090038,-27.933488215945545
2025-12-12 18:20:35.095391,Right,-91.73530691950145,-105.55823832345777,-107.3560107524172,-90.5179146668379,187.61813579468435,-94.73150230709871,-97.58075485564041,-102.33287820346595
2025-12-12 18:20:35.098340,Right,-56.5754122378421,-53.02289196547645,-53.872688107374415,-49.300011113671644,65.13195865485613,-50.41860667111905,-49.13853710715193,-50.49644149777305
2025-12-12 18:20:35.102406,Right,21.157348556778743,31.62978312245832,28.837724325734598,28.6232283037898,-203.45042943592853,28.179758541693445,33.12994602257095,31.696653762366623
2025-12-12 18:20:35.106417,Right,-7.704103104886599,-13.573021389951464,-17.267161260686407,-4.945227897413133,-117.82420886420732,-9.081113946158439,-8.558317178751167,-11.659958022421051
2025-12-12 18:20:35.110431,Right,-92.367913044749,-107.00071952451253,-110.48104437247821,-90.14992063868704,160.33768004021113,-97.29163642034837,-100.25224665448332,-102.19080603928887
2025-12-12 18:20:35.115440,Right,-75.66379078610771,-74.6653498988453,-80.35941689330502,-69.31537066544843,110.69677615887485,-75.20938312140788,-72.38495335152402,-71.94311581777583
2025-12-12 18:20:35.119443,Right,11.993828959333769,24.507377422043646,14.555387772721588,19.030221434732084,-171.30617653232184,15.77064119734132,24.294658514168987,23.675237391398696
2025-12-12 18:20:35.123464,Right,9.2540221495874,8.772072331259551,-2.865566358443175,12.714716475747991,-155.18604933394818,10.642945967541891,13.999397635001515,10.289655652995862
2025-12-12 18:20:35.126497,Right,-75.11877969988564,-87.40927457612997,-97.33025167734013,-71.4225325387888,128.4373040665596,-71.84414997566637,-76.74082495900075,-80.11445321087376
2025-12-12 18:20:35.130484,Right,-79.65694468544098,-79.14172853728815,-88.46266452786949,-70.52983686603693,144.280272171236,-67.57940766109095,-71.09370204640436,-71.0163762644006
2025-12-12 18:20:35.134491,Right,6.403461119858548,21.556258782315126,9.880620322481263,17.556075836713717,-143.84181264889048,22.145279222917452,24.779127593697922,25.96420216117258
2025-12-12 18:20:35.138502,Right,20.986636346176965,26.398443756981578,13.205105031316634,27.61234696986503,-203.26654422806314,29.9395937957961,30.76624679571978,30.11884097947768
2025-12-12 18:20:35.143584,Right,-68.28697790369915,-77.44186578526569,-89.28932176627859,-65.070341396211,71.23763115659676,-64.79935193364508,-70.9445695528484,-71.36019797441986
2025-12-12 18:20:35.147539,Right,-101.66544941106258,-101.72267085110798,-112.90094673779095,-96.99905958228192,160.94242136045796,-94.63609136674495,-100.81976922648755,-98.13359247206245
2025-12-12 18:20:35.151638,Right,-22.133955503129982,-5.67819642964605,-19.136484117836517,-18.251352874147415,-105.34181551740767,-12.878771719806537,-13.866474459588062,-10.39247738764243
2025-12-12 18:20:35.154555,Right,22.83670604062354,32.58881009916513,17.444156600329734,19.891204290084715,-231.40177186043002,24.172246828667994,21.849321414651058,22.39014635948115
2025-12-12 18:20:35.158636,Right,-41.53624428609328,-49.28264755267446,-62.480589992956084,-49.527283426519716,16.51874048886384,-48.777459575707326,-57.752222070499556,-58.496627707565494
2025-12-12 18:20:35.162612,Right,-82.68522501822008,-86.3596377471913,-96.8362530606064,-88.03998754268105,173.237493152963,-88.33388961604214,-96.77532774076099,-94.6884843200096
2025-12-12 18:20:35.166670,Right,-16.622619446134195,-2.7056735859514447,-12.975243652865174,-18.20011403789249,-51.67020390212565,-17.509560677732225,-18.193098991680017,-14.048477737524081
2025-12-12 18:20:35.170622,Right,30.901723901995865,42.73744994849403,32.293414141604444,27.202178327650472,-229.22274887899403,26.910566736660257,27.71108999246644,29.87257783262612
2025-12-12 18:20:35.175620,Right,-36.840878279654135,-42.81978861254902,-50.941483906641224,-43.783446386660216,-16.963758573423547,-46.36872587877588,-53.09108063643362,-52.917960227387084
2025-12-12 18:20:35.179609,Right,-98.60675725819601,-104.38950853919232,-110.06778022118306,-102.87774593892391,196.10499781977705,-105.04694118467887,-115.41533551253815,-113.75329929240252
2025-12-12 18:20:35.182658,Right,-36.574232903381926,-23.792312606856285,-30.184910256306466,-35.99657588495029,16.366966281973873,-35.77319538380107,-40.82891991628276,-37.66180289546173
2025-12-12 18:20:35.186665,Right,42.27190362226247,58.315231061213126,50.46827150471654,42.960042882405105,-216.82354110379674,42.88115598613513,41.11993335904117,42.3447628910144
2025-12-12 18:20:35.190658,Right,0.8456254203338176,0.21096753841266036,-5.613051244927192,0.06704504149092827,-65.50840467353555,-3.2110548091950477,-9.113632936947397,-9.77712732454529
2025-12-12 18:20:35.194655,Right,-76.66563403576583,-80.97931351418083,-82.93426480708513,-73.62060143613053,187.9024296470816,-78.37108292958874,-85.3981611605268,-83.77624685716728
2025-12-12 18:20:35.198678,Right,-43.658771459588024,-30.10250021734828,-31.11495102661138,-34.789138970278145,70.42044526402606,-38.047740296409756,-37.4246798494496,-32.55772693052131
2025-12-12 18:20:35.203673,Right,36.93740616015566,57.80979724500503,55.21546093182769,45.36885659037216,-195.92805099345424,42.82962685043458,48.651173720318184,52.65681105801923
2025-12-12 18:20:35.207700,Right,13.978981197018584,18.847425699277665,16.573714881891647,17.46671279619477,-111.3095738867778,13.710346586558444,14.193548863942851,15.394032064978092
2025-12-12 18:20:35.210722,Right,-67.31964196779882,-71.28800205047446,-71.06198228070934,-64.56749227403634,164.65875480041723,-67.9411082047809,-72.8389610203958,-71.1120130790514
2025-12-12 18:20:35.214717,Right,-51.52430757731054,-40.403505994880106,-39.36482552433881,-45.2993038222703,112.2596178536769,-45.70655076643743,-45.57528180965164,-41.33933001938567
2025-12-12 18:20:35.218731,Right,32.94289184031368,54.859772844698455,54.72345731303358,38.62302354819985,-173.5605897090718,39.55193911441165,46.813698418831336,50.23025768937805
2025-12-12 18:20:35.222743,Right,25.513362399717153,33.811451608467905,34.39419300060035,25.89057832065737,-160.24326454232505,24.450006170176493,29.57709720198909,29.60228966192517
2025-12-12 18:20:35.226753,Right,-64.60666095685156,-68.36231016841339,-64.63936900526824,-65.75075350901898,125.04441584744927,-69.35469295214716,-69.36552477066289,-69.71471997496701
2025-12-12 18:20:35.230767,Right,-73.34304777551733,-63.98691473550571,-58.838623302235646,-70.02206017178105,146.89858948365145,-72.71921654989274,-69.57080466688785,-66.99520046416728
2025-12-12 18:20:35.235783,Right,13.190427805995569,37.822467793790565,41.45482006682141,18.911718177434523,-134.8658625331882,16.79320274329075,26.206566897475568,29.76633342396235
2025-12-12 18:20:35.238788,Right,34.31110900174099,49.68001598040428,52.88708555201811,37.09004885080503,-190.3953145313899,31.869621383746562,39.02928606761998,40.74401669940562
2025-12-12 18:20:35.242803,Right,-44.7973379350733,-44.07288844596769,-38.29754027779745,-43.174677824521495,86.95530048154978,-52.09863556966593,-51.4560204068257,-49.645976777901524
2025-12-12 18:20:35.246792,Right,-70.84773168727406,-61.60840934054431,-53.913014299027054,-65.18537330893014,180.90934161120458,-74.12540328480827,-71.85036640228645,-67.13975342829508
2025-12-12 18:20:35.250830,Right,7.078846607277228,32.026858035351324,38.69886551361742,14.70614188991749,-80.10065024427968,7.763481622234394,16.944715630968858,22.177067318581976
2025-12-12 18:20:35.254825,Right,40.91114141394064,58.1020409990233,64.05402941826833,43.93367236585618,-201.5707979147155,37.22162659724563,45.32654159097001,47.03820418876421
2025-12-12 18:20:35.259822,Right,-37.33468309086311,-38.926333495328436,-30.888521715767638,-38.52909758382157,49.84163379477104,-45.55492544898152,-45.630502806387085,-46.25912999347929
2025-12-12 18:20:35.262790,Right,-84.85349098271399,-83.24965203623651,-73.3280763338953,-83.88999382274051,208.31246447941157,-88.70023446230334,-90.45215507350804,-89.42927504152613
2025-12-12 18:20:35.265862,Right,-12.34153984112345,7.055094237330195,15.86887940374254,-8.248580045590643,-18.870390326967026,-10.436087994101399,-5.795873107133957,-3.406374889316794
2025-12-12 18:20:35.271885,Right,50.187457167732646,68.61178095560172,76.17597172541718,52.42901408885518,-203.38214685499042,48.888960473341285,55.33088737648359,55.95530147094178
2025-12-12 18:20:35.274892,Right,-4.64504154460883,-2.954011862642801,6.577663567028139,-4.264572025436792,1.199859843669401,-11.827089831014746,-11.037572776978777,-11.209033830804401
2025-12-12 18:20:35.278889,Right,-64.32792734076793,-62.237651018996985,-49.942949589223645,-59.58053441904485,210.637876666402,-68.59905309669557,-68.94281526041595,-65.76056940293711
2025-12-12 18:20:35.282853,Right,-10.7831436901688,9.087171805127582,20.985137031970226,-0.5268062730465317,30.912008455154137,-7.96760749466921,-1.1382239107442729,5.435484891699161
2025-12-12 18:20:35.286926,Right,57.07256631170458,78.87063411544295,88.83278644610527,66.18092430685283,-202.68111339264942,58.99510415078112,69.34098025070489,75.1509242559805
2025-12-12 18:20:35.291941,Right,9.58501770573639,13.255497252630448,23.83148992419501,14.505811469873152,-53.42677681174973,5.5318462794530205,10.150154393868434,14.1692861008014
2025-12-12 18:20:35.294928,Right,-68.68922502167698,-70.01709661119457,-57.2872848779507,-62.72806816713637,198.65703186931205,-71.49763320665079,-70.64763014232085,-65.13878180089523
2025-12-12 18:20:35.297958,Right,-35.62322987776861,-20.149180579122913,-7.82872396234734,-25.662981588113325,81.67512916111082,-31.623389923996,-25.38502195241381,-17.725951962354884
2025-12-12 18:20:35.302947,Right,43.8508779244803,65.81446962290647,75.67536765201953,52.461103171197465,-184.05778751796606,47.32918517138023,58.136366480488505,64.16934905303788
2025-12-12 18:20:35.306984,Right,21.462347410408256,26.78305261886635,36.25718986074128,24.571656874009932,-99.56052946341879,16.749082187037857,23.239340312014974,26.32579303550665
2025-12-12 18:20:35.310977,Right,-55.54927760336432,-59.510425972370285,-48.24936012217245,-53.82140815057937,177.0957010907805,-63.40110877720144,-60.919768608866434,-56.95371106827588
2025-12-12 18:20:35.314944,Right,-35.16090046464524,-24.269714995200047,-12.797854340583285,-30.888905860778323,127.04240578790996,-38.71948554838309,-31.041997125441412,-23.989453513022454
2025-12-12 18:20:35.318004,Right,50.07387869650847,71.78501112917002,81.74583291283761,52.90087608919566,-156.41434207421116,46.74120787976426,60.06504586488154,67.04377017747174
2025-12-12 18:20:35.321959,Right,40.91971208574978,49.22540361496067,59.827737097042245,38.1396893392739,-142.15473822417334,30.823912402171118,39.815496355502546,44.35751220817474
2025-12-12 18:20:35.326033,Right,-50.07743522622695,-53.87579310703586,-40.1178418728,-54.21437163637529,143.41492296315846,-62.30649626310333,-60.11396669625174,-55.18112703787119
2025-12-12 18:20:35.331032,Right,-59.15740852099043,-50.47960030219838,-35.38681379069385,-58.87500823904702,165.25055692637397,-64.52386752294842,-59.624831103174074,-51.94517213527797
2025-12-12 18:20:35.335033,Right,25.797640481185226,48.81979952108668,62.12600803524492,28.063627314964833,-118.58603103812857,24.83067095205115,36.65826034520069,43.97730509763278
2025-12-12 18:20:35.339072,Right,44.49334261405238,57.36172546427406,69.86318193290845,43.46259953632398,-178.65599601263966,39.1520508358808,49.58376806026354,53.20962707955914
2025-12-12 18:20:35.343023,Right,-36.242972501713666,-38.96605921487935,-24.333013968693194,-38.51228082054513,94.54489941766224,-44.667224113673,-40.85278658023526,-38.606909883095796
2025-12-12 18:20:35.346037,Right,-62.23428263230744,-57.616675826628125,-41.6570790622809,-60.70361777139624,186.86133964634428,-65.70088803341787,-61.452816465494834,-56.98139033613916
2025-12-12 18:20:35.350098,Right,17.12853298529444,36.31366833681568,50.38643490973391,19.744787988616736,-74.73165523631906,16.71134394877663,26.71134112377331,31.827399645779224
2025-12-12 18:20:35.354106,Right,53.43679260036879,64.40561281252303,76.78004707348646,50.28318508080338,-197.52844712998558,46.07017508539866,55.166531698268955,57.47768089384408
2025-12-12 18:20:35.358124,Right,-20.926584471628303,-28.260974146194712,-14.556103493223418,-28.810240660230193,52.883663526004966,-35.58263881501625,-33.002245409697935,-32.03211946783995
2025-12-12 18:20:35.363112,Right,-64.37971156576896,-67.89083782733542,-52.7505923702156,-69.64984498570266,212.28771544139818,-76.04147791450305,-73.1366495380098,-69.50023432053968
2025-12-12 18:20:35.367087,Right,8.321010733237927,22.207798942743466,35.838524756674815,6.8822357267963525,-13.112603716072044,2.879781939780514,13.14898293369879,18.933079408086996
2025-12-12 18:20:35.371156,Right,65.23705116591009,76.50514063553965,88.28123493448402,61.963788981687685,-196.98123972611575,58.16108613112738,69.94924987101149,74.1112095232238
2025-12-12 18:20:35.374114,Right,3.7751306354475673,-3.5859964322189626,9.314279673308192,-2.325721181172412,7.4631056528196495,-7.681929771271825,-2.2375150986808876,0.33393772587078274
2025-12-12 18:20:35.378196,Right,-56.76574894294026,-64.63732255566538,-49.93144299290543,-60.05262387996663,217.24784239541987,-64.6178391287176,-60.7563681184165,-56.34605940992515
2025-12-12 18:20:35.382175,Right,2.0688564800584572,12.386936328994125,25.863160806586166,2.810071750283896,37.459319851075634,1.1760193713271292,11.772841523679745,17.90512848448452
2025-12-12 18:20:35.386190,Right,75.81906455646458,89.13063395002973,100.11843064248205,74.4203585815103,-198.09395091759325,73.41040916205748,86.6241333199032,90.59130676884342
2025-12-12 18:20:35.391216,Right,31.40249385242896,27.530519272409947,38.757258259985974,25.358849577962246,-51.578627953764226,22.03395973339866,28.376854271571574,29.597400258449852
2025-12-12 18:20:35.395160,Right,-45.687487577488355,-53.966176413676294,-40.837584160684855,-50.63749684459435,199.10785225035943,-55.05248161300915,-53.05407044432104,-50.67742699293376
2025-12-12 18:20:35.399238,Right,-12.633766904653385,-3.654353721761254,9.118002948771391,-12.932912373969884,81.43496631409835,-16.140875158191193,-8.34365871663249,-3.444777452215021
2025-12-12 18:20:35.402234,Right,64.65024904436723,80.64850839664086,91.28830145077518,64.31878213987147,-186.4892323040167,60.80100819458312,73.99522079980306,77.93519956617183
2025-12-12 18:20:35.406261,Right,37.75451505206911,37.57739663721895,47.88151645073049,33.78390642668637,-104.98572046965819,27.427494424306133,36.339818896308316,37.597387694344434
2025-12-12 18:20:35.410280,Right,-44.070710150883315,-53.46025008099423,-42.17026311956761,-47.30161191300431,171.07039914796405,-54.82483320983556,-51.45913314925383,-49.67048885584336
2025-12-12 18:20:35.414290,Right,-25.67286601714477,-20.663663704407554,-10.734819051505838,-24.262014484133942,123.24916215188568,-29.479169680829727,-23.470121187038785,-19.166054891027215
2025-12-12 18:20:35.418243,Right,61.87484020336342,76.84946525575242,83.58017096126423,63.58179999824824,-158.3961605964705,60.143415065775116,69.66204086092603,73.33180709972567
2025-12-12 18:20:35.423313,Right,57.63995955286737,58.13296675650918,64.21894930426606,54.693521320007676,-144.30366778850657,49.826478304798,54.29716562588874,54.69884585817408
2025-12-12 18:20:35.427348,Right,-28.147123478866888,-40.7726518109539,-32.395680486382844,-32.40309418741708,141.39912541244303,-38.753269818767876,-40.430659899833245,-40.86494650375653
2025-12-12 18:20:35.430327,Right,-32.53987750120177,-33.32745329603222,-24.311982847390027,-32.85793892471975,165.1497622490533,-37.94874065872864,-35.899792299095225,-34.535303434578964
2025-12-12 18:20:35.434346,Right,55.19616572974792,68.55987182242552,74.9592426824347,56.22709609494268,-116.62082806089165,52.38706114998786,61.47862598817483,62.677315152523875
2025-12-12 18:20:35.438352,Right,72.39982031925229,75.69930888505587,80.14383200992597,69.44234675628604,-175.37325933257307,63.97957669050993,70.53978647375425,69.27070935505094
2025-12-12 18:20:35.442376,Right,-13.75415516996145,-25.709201981755086,-20.386471935620648,-18.438200659559698,100.23043447047712,-25.663072100398495,-27.153252306216245,-28.562937310815727
2025-12-12 18:20:35.446317,Right,-44.9707460031118,-48.680016604855155,-42.77422206585834,-45.34472330404833,196.82068387039726,-51.0808513072152,-52.85528478984156,-51.40212211059122
2025-12-12 18:20:35.451397,Right,33.169291798238646,45.69309835851988,49.8657584420871,35.98809509731609,-61.39487722325612,32.59418037571322,36.60577182215867,39.082647597708956
2025-12-12 18:20:35.455405,Right,71.560835531983,77.6928525530592,80.92402987684181,71.59579733034275,-184.27657216009538,67.40354374138042,70.88341853090435,71.06945368546758
2025-12-12 18:20:35.458445,Right,-1.6029998598725115,-12.651206209477323,-7.292111455808481,-4.023774145216635,63.68338342871175,-10.612373791364462,-12.892446231644271,-13.719680037611852
2025-12-12 18:20:35.462412,Right,-46.41295965869814,-53.17038265932251,-45.82103156341327,-45.4686129662264,219.93619021773338,-51.94775486618255,-52.443008357367944,-51.083101083831934
2025-12-12 18:20:35.466495,Right,25.10885262869249,36.251474995533044,42.351220193944755,29.576084137953387,-10.143006208672887,25.00090370306316,33.69218229729995,35.85983066066365
2025-12-12 18:20:35.470448,Right,82.00363471239598,91.06281885171825,95.27550074867759,83.94620143643533,-200.03969693857653,79.4260789963721,90.59160199251619,89.70280205648896
2025-12-12 18:20:35.474467,Right,18.53043657452372,8.836542968316735,13.97413168791536,16.737997319640044,0.7207751150799595,11.243082412404988,15.242936891293539,12.12780318116529
2025-12-12 18:20:35.478481,Right,-47.2827803743744,-58.33382202826897,-51.53075343452292,-47.308157514960385,211.2953926037544,-50.86391404091991,-50.35776149054436,-51.19046884438558
2025-12-12 18:20:35.483559,Right,5.954485912790915,12.323333001274477,17.925155135497334,9.130298055411004,33.42736417917695,9.659108514244053,15.568236600724958,17.702386905494677
2025-12-12 18:20:35.486502,Right,75.87169767410751,85.05891515071016,88.27407713562934,76.59447796196082,-202.8293594904062,78.58380571431803,87.13313618082702,88.69562903994483
2025-12-12 18:20:35.490521,Right,28.787661013302568,20.967287583377583,24.312676193541847,25.004903466062842,-58.184310210094736,25.51082506553439,27.843342645945995,28.03171068302072
2025-12-12 18:20:35.494455,Right,-48.569276852705116,-60.597161667482396,-56.1096012968992,-50.88168732462418,192.7437079689389,-50.28050297360551,-52.090603649321565,-50.27447070747803
2025-12-12 18:20:35.498539,Right,-10.301833755514053,-4.871936548592203,-2.367377264996321,-7.496560821165076,76.60945031793017,-4.376783223880466,-1.0937639863268487,2.520390571527969
2025-12-12 18:20:35.502614,Right,75.82055459800449,88.43412693834125,86.75878347516846,78.95922067393076,-191.4401206047014,82.70114936329264,89.93914441737797,91.11452127465236
2025-12-12 18:20:35.506603,Right,53.95660836976185,50.361011097533265,46.72517934523421,53.40521997668293,-111.25349753561204,54.68180048727754,56.163460460190436,53.022525535311615
2025-12-12 18:20:35.511551,Right,-31.46380299773591,-44.48474429307771,-47.82946005242047,-31.90837564339745,165.14702492462402,-31.69470447538606,-36.357998880020205,-40.54468330529835
2025-12-12 18:20:35.514542,Right,-22.156960492657163,-20.945313708097274,-25.5762289876875,-19.027743236350943,119.35045970408555,-16.3451504467439,-17.795838724301575,-20.81945804587849
2025-12-12 18:20:35.518588,Right,57.985547374973976,69.07615090217132,61.649389384569076,60.21087085806539,-160.81904606428088,64.70046453877876,67.87386795533894,63.615800064068935
2025-12-12 18:20:35.522595,Right,51.8018296976079,48.213827062597375,40.746941988727485,48.50113994732601,-145.73983821289949,50.883848493614096,49.78280610276124,43.02932038641302
2025-12-12 18:20:35.526607,Right,-31.595440655675702,-48.61745592682564,-52.78686680608371,-36.31658764639815,141.79498255174167,-36.91539128190561,-44.07246819805914,-49.483285918408
2025-12-12 18:20:35.530613,Right,-31.181606900439874,-36.65846221069023,-38.78217898383991,-31.52203702645511,166.60675070468824,-32.48565622545357,-36.1281759941503,-37.1826575116811
2025-12-12 18:20:35.534627,Right,62.43781566339203,70.66295717682715,67.34938964130924,63.651567199884994,-117.630011725224,63.06736581212499,66.57661116657255,66.8014524597802
2025-12-12 18:20:35.538629,Right,83.81106879049912,80.91568419912619,76.69232353147163,80.53666084776887,-180.93839912456951,78.73141114624377,80.31041528246715,77.91808686277545
2025-12-12 18:20:35.542609,Right,-3.3778375079091347,-23.171672242358,-26.00186080779531,-9.276698724808739,92.41893508752128,-11.09003593622947,-16.96939503563044,-20.267679106342257
2025-12-12 18:20:35.546670,Right,-40.86454139421039,-53.8446671096317,-56.06438062662528,-43.176154391849195,189.6168151589436,-40.98539323699333,-46.939013736278866,-47.67535906957346
2025-12-12 18:20:35.550673,Right,29.777680909523042,32.57746796533593,28.293163874928723,30.21390260579392,-69.33321807568018,36.91221839222453,36.8558932641572,37.346157654581475
2025-12-12 18:20:35.554705,Right,62.565534858387764,59.42572455975824,53.66034313682576,59.64355908492507,-196.14322519242296,66.79488352605767,66.24474140676466,64.7400726767737
2025-12-12 18:20:35.558700,Right,-14.671156680029526,-34.179876087068806,-38.414201773781315,-20.997749002102864,48.48308390532384,-15.320996281927364,-22.479030211590725,-24.528016198159094
2025-12-12 18:20:35.562695,Right,-63.35593699759738,-77.696418720363,-80.28791976844877,-67.36113222431413,205.61541653239829,-60.270468490125495,-67.86537405054514,-66.71515231610465
2025-12-12 18:20:35.565745,Right,4.502929502301413,8.921122215765536,5.531055095600095,3.348890294715602,-20.90078042245659,13.626094393999665,12.535425833402769,15.947573470446514
2025-12-12 18:20:35.569730,Right,58.99133751348927,62.0142509620764,58.30200247163884,55.319378479944135,-207.67543231757554,65.73308834615818,65.49584929626508,67.07279656614992
2025-12-12 18:20:35.573745,Right,-5.180033093876773,-20.52342622145079,-21.112939160007954,-11.918947982590907,-3.9447343475567322,-4.109168950582898,-11.580216642096275,-11.847719591665737
2025-12-12 18:20:35.578748,Right,-69.75117664544996,-86.40273144870753,-83.37497399488711,-73.83819069020501,210.91126696198955,-66.52254467358216,-76.82155005454297,-75.35263776112697
2025-12-12 18:20:35.582748,Right,-11.277880359093615,-10.751283213608986,-7.60288948294874,-11.600796755377814,36.754706858108875,-1.9049459169036709,-6.272719864935425,-3.0546236523077823
2025-12-12 18:20:35.586788,Right,69.23929075716114,72.12442659157568,73.82438217320669,66.55278854844437,-199.26637532721867,77.36812015764554,75.98126785375825,77.0484192532258
2025-12-12 18:20:35.590799,Right,34.09063599879846,19.241576994720162,22.035902955589336,26.586354709907027,-56.49647609986533,36.14445805137257,29.054264894282824,27.19980178482365
2025-12-12 18:20:35.593739,Right,-37.22903403893906,-57.39020667714885,-52.21362084937209,-44.192276384193974,194.53370229569347,-34.7730172758329,-45.33854100553435,-46.57338132846962
2025-12-12 18:20:35.597815,Right,-2.1439786117098265,-6.282643635174281,-1.5642308829137619,-5.957029531502485,81.66799316164156,5.30523816983623,0.23520424751950486,0.5916337834569276
2025-12-12 18:20:35.601819,Right,75.39008760889737,77.0171983552791,79.20865690216306,69.04644261845169,-181.59390223887362,80.51420197258994,79.48644231160506,77.8567595013883
2025-12-12 18:20:35.605837,Right,47.32967309525338,31.96307068036458,33.810217803857086,34.708257198093634,-95.95567268144168,43.7966884667494,37.400013587426656,32.386764636718
2025-12-12 18:20:35.610827,Right,-36.274113016097544,-60.73317256139944,-57.13598685403667,-49.632393346808385,185.5326106934035,-41.37326604709233,-52.83017962134181,-57.60282900541279
2025-12-12 18:20:35.615890,Right,-18.071114506699814,-27.01700969378362,-23.58941464786767,-26.551185756707127,140.7645582063476,-15.691893071791128,-22.773270901221622,-25.14280020044498
2025-12-12 18:20:35.619874,Right,71.5040285884279,73.83864874917253,74.9286064793123,64.51248911645416,-145.28281112707168,77.35683205677924,75.11946876382899,72.03048905034484
2025-12-12 18:20:35.622899,Right,68.53290882143847,56.875488526822664,57.469952124918564,57.98712136645554,-139.33578960552836,69.33433628674538,61.653370502932376,55.38891131739001
2025-12-12 18:20:35.625868,Right,-19.785209972702432,-45.04181803885058,-42.34279142439118,-30.843898004026414,143.79590347190424,-21.130283415728627,-37.097176231422054,-43.63842724121969
2025-12-12 18:20:35.629901,Right,-28.48134908166321,-42.62035987048239,-39.033810965758676,-34.6848064591868,172.1641727292099,-23.64873819253262,-38.3086409673233,-42.0793967733116
2025-12-12 18:20:35.633940,Right,58.13150996482727,57.73493766530646,59.92351098153267,54.665340137486055,-105.7970800326998,66.86230412695659,58.53182643866421,55.46014246411505
2025-12-12 18:20:35.638938,Right,77.88839145286329,67.27633363320001,69.53653873284566,72.2418987645924,-166.85207534756728,81.96754056447753,72.80583120460324,67.75821259971963
2025-12-12 18:20:35.642940,Right,-6.956279433496093,-32.863497416477,-27.705132066230362,-12.683958677132978,103.78633546691344,-6.11713553910522,-20.439922914692943,-25.037833232594494
2025-12-12 18:20:35.646945,Right,-40.83142343373402,-58.38932538682184,-51.511478230204375,-41.581076356849735,196.40660224482235,-34.51410579603544,-46.79838309808838,-47.5051168568134
2025-12-12 18:20:35.649972,Right,33.989820769944345,32.85056222390085,37.9751841892612,35.94173052148108,-66.808267045702,45.28637023309784,39.81953795453046,40.960181652002575
2025-12-12 18:20:35.653962,Right,72.09641154262135,64.56646036497932,68.0028474041901,70.44934748231753,-196.4176304283069,79.42725709130536,73.32633724725201,72.0110582055895
2025-12-12 18:20:35.657925,Right,0.5433047615479154,-24.56106396429641,-19.87737182608089,-3.8214706904273044,48.478386840907206,3.217955886397249,-9.769045872189963,-13.001069220637874
2025-12-12 18:20:35.661999,Right,-44.40145624548313,-65.94996383084617,-60.03702531703584,-45.40763595615135,208.82200128313707,-37.8288030873955,-50.92542292932376,-52.562336290984604
2025-12-12 18:20:35.666002,Right,24.179589437346294,19.77778968577786,23.701667348434057,25.889451647579335,-14.85989412447725,35.52247511059613,29.88051364133935,29.45345213888686
2025-12-12 18:20:35.671036,Right,77.79732138978216,71.07665416785585,72.1991700740291,75.27667843024574,-201.9365540191693,84.29328668132075,80.48972901728303,77.99230410525524
2025-12-12 18:20:35.674969,Right,13.201239164940489,-11.483456316331285,-10.562059949003014,5.739696264034137,-0.3230511127403588,11.988153257370868,1.513879817313864,-2.5585570678103977
2025-12-12 18:20:35.677984,Right,-51.71556344936107,-76.04543902257501,-74.56908317821399,-56.74887424172448,213.4297891110391,-51.25505153580889,-64.27329778981584,-66.13335733208805
2025-12-12 18:20:35.682065,Right,2.417344699086243,-2.762909806038806,-3.3143112623838533,3.0451781816136645,39.61506607414867,9.672683811179013,2.952464853924539,3.4012560525770823
2025-12-12 18:20:35.686013,Right,71.39709328305617,69.87512271020842,66.42933611235185,72.6668599972254,-195.5806510050188,78.13091427804102,75.07036787853212,73.80295305807158
2025-12-12 18:20:35.690074,Right,21.389050752495677,2.8467849951748576,-0.6977277109217539,20.611072691113804,-51.64095679801085,22.502256699572172,14.752030019697486,10.820057828366771
2025-12-12 18:20:35.694086,Right,-59.000119282216474,-81.66450205674028,-83.92648978089437,-57.38715794633026,200.02211158589944,-56.844662108502234,-66.87134337751013,-69.704219990188
2025-12-12 18:20:35.699108,Right,-20.563270005204686,-24.755880140894078,-28.507185995531017,-14.758769850453973,84.05143891195166,-12.480297011568837,-15.586999831170033,-15.820716855378123
2025-12-12 18:20:35.703109,Right,70.55714436571361,75.13458883568092,67.85012119717794,74.40009847876172,-187.88559648703813,76.72097757204574,79.36031255230773,78.32578723024926
2025-12-12 18:20:35.706117,Right,54.718331264193694,43.97597595865591,35.47028772154317,52.33584063408125,-112.16183573575017,51.3799394966245,49.766971744726106,46.19923317776738
2025-12-12 18:20:35.710075,Right,-29.543533043251955,-50.044585447803,-57.35968514084561,-33.40894338598628,165.60403665853846,-35.945964589551295,-43.35370430970579,-46.243144004094574
2025-12-12 18:20:35.714150,Right,-24.37602387118386,-31.11047958227391,-38.843927277340754,-24.68198696073523,125.27838825174513,-24.05649278803139,-29.199649018502896,-29.613884987651545
2025-12-12 18:20:35.718098,Right,51.33625939562262,55.285219698312176,45.10264432978079,51.51333470011923,-153.4224642537729,55.63131929771771,54.29488528865113,52.750238072392676
2025-12-12 18:20:35.722160,Right,44.108605248608,35.55190829570711,24.790030321998074,40.6498292655815,-143.0619466499229,44.111140847277056,39.315140499917106,33.774908408269766
2025-12-12 18:20:35.727175,Right,-38.286779170992304,-57.69696368001496,-66.43733858518272,-41.8710560089894,139.6553281144479,-40.74396415969568,-49.28456100319454,-55.8912163046989
2025-12-12 18:20:35.731138,Right,-38.71342022270801,-44.331254515426735,-52.35629668844297,-37.68066097337396,163.65711951489538,-36.42027088626128,-38.99759651583736,-43.22400587134689
2025-12-12 18:20:35.734217,Right,49.77642911086332,59.65056062925123,49.87346873192783,52.02161463272023,-119.91811270933977,54.74980827628315,60.7257167577518,57.16112843439623
2025-12-12 18:20:35.738176,Right,62.27117225138136,62.49999249787106,52.41802068094858,60.03580221836637,-183.32309602825262,62.969872871453845,67.10735678082528,61.560009071426975
