timestamp,label,FC3,C3,CP3,Cz,FCz,FC4,C4,CP4
2025-12-12 18:26:21.237808,Right,2495.104397280849,2743.220976014874,2583.422999614353,2534.426466900479,1939.741973095797,2482.6287771806496,2426.349577656878,2669.872111055544
2025-12-12 18:26:21.254801,Right,13429.798963054483,14767.769330032803,13905.397461385779,13642.402358318293,10460.300038407879,13363.615826231573,13059.592516911129,14371.368533777
2025-12-12 18:26:21.257876,Right,30748.02143451898,33819.46128988905,31838.453559747075,31238.01837226674,24001.941379314114,30599.42606502498,29900.22534560742,32906.441414567395
2025-12-12 18:26:21.260877,Right,38419.29537694983,42271.505653763656,39786.708070885434,39037.98892561332,30043.89505933966,38238.560172265985,37360.44913405566,41119.832302866416
2025-12-12 18:26:21.263907,Right,26028.58155331306,28654.916774719284,26964.440693531884,26457.16943776104,20319.639711985692,25912.046489380235,25313.481748734812,27858.722152611226
2025-12-12 18:26:21.268903,Right,3065.8088645538955,3395.5071075815067,3190.1902787461586,3131.5737225043704,2225.5211400573753,3061.740771530691,2986.1489872929233,3275.7402129617985
2025-12-12 18:26:21.271897,Right,-14216.96368002586,-15617.423026956792,-14710.989206504892,-14425.527572842373,-11305.821376938227,-14134.032005210145,-13820.916891330358,-15225.850953206536
2025-12-12 18:26:21.274929,Right,-18628.49700812326,-20461.01269972342,-19284.001284661994,-18905.66328563477,-14562.304364954645,-18518.755157447536,-18114.56546367478,-19940.83397258661
2025-12-12 18:26:21.279935,Right,-13378.088970736717,-14680.188372533768,-13843.500906154863,-13573.213837883086,-10326.084820417396,-13294.641008208913,-13011.444158986444,-14312.761990450439
2025-12-12 18:26:21.283922,Right,-5767.6845138433855,-6321.186526831705,-5955.30795906682,-5848.1413252159255,-4492.729282103537,-5729.48386856704,-5610.183359661838,-6168.841471251915
2025-12-12 18:26:21.287952,Right,-1583.0304526102263,-1731.2986616120907,-1619.2954340575961,-1601.130556140095,-1354.638619389094,-1570.051415749942,-1539.5722983964952,-1695.8074381748447
2025-12-12 18:26:21.291963,Right,-2460.4293946941616,-2690.466679435107,-2528.041895067785,-2489.42143619142,-1958.9750681779115,-2439.5800408910727,-2392.8920883815736,-2632.5545062092133
2025-12-12 18:26:21.295964,Right,-5953.816761162598,-6521.522340410622,-6142.322020158754,-6034.465003879508,-4569.275777148665,-5913.188671614858,-5789.955661892891,-6365.164631477557
2025-12-12 18:26:21.298996,Right,-8142.204669948551,-8934.14880085201,-8405.044273248292,-8260.452769827447,-6355.055024272529,-8095.799122198485,-7916.836967402021,-8710.051072369213
2025-12-12 18:26:21.302992,Right,-7199.112454663147,-7909.934502059012,-7432.010520221433,-7308.128442557645,-5737.091414862778,-7162.527688844944,-6999.8414867798565,-7709.779495707597
2025-12-12 18:26:21.308002,Right,-4722.464375619893,-5183.412699016859,-4874.4760330126155,-4793.559058312792,-3721.2979623795254,-4696.492870524293,-4594.138677726965,-5060.6990783454385
2025-12-12 18:26:21.312009,Right,-3483.0527288722806,-3809.122890043538,-3592.461146466434,-3533.996412827866,-2611.6364006112562,-3461.4668511846103,-3391.122324781725,-3728.5820260107284
2025-12-12 18:26:21.316018,Right,-4254.719723120797,-4662.344835666241,-4388.807277855813,-4322.122919557849,-3281.1936366866576,-4235.002703880891,-4141.197740358766,-4555.34657592827
2025-12-12 18:26:21.319988,Right,-5360.57269049075,-5894.568037742982,-5536.751025909558,-5451.844906614744,-4305.144789993297,-5342.355078293709,-5216.82848112518,-5747.836362035945
2025-12-12 18:26:21.323053,Right,-5097.712885298068,-5607.426150234416,-5272.809991559014,-5185.567845140118,-4054.482122778776,-5080.188767635962,-4965.006451442256,-5469.992793330923
2025-12-12 18:26:21.327039,Right,-3790.064681937336,-4157.389335875865,-3921.8019054061733,-3853.2537041995674,-2856.5183477732353,-3775.226675404818,-3697.2386948288186,-4064.8625016170554
2025-12-12 18:26:21.331068,Right,-3066.5698033240624,-3361.2923208253924,-3168.020862655947,-3117.104951196816,-2303.890860052663,-3057.1617195094004,-2992.4728874060092,-3288.3438088004477
2025-12-12 18:26:21.335101,Right,-3609.272666601697,-3972.392936893506,-3727.6822885151487,-3670.2217933232896,-2905.739205383463,-3600.9470615345053,-3515.6108276468003,-3875.0173439306673
2025-12-12 18:26:21.340046,Right,-4347.666886497056,-4788.506181312492,-4496.8237940634135,-4418.448909018654,-3498.2544863929506,-4332.176804585615,-4231.301425505895,-4666.794249637518
2025-12-12 18:26:21.344087,Right,-3996.127212035237,-4389.605992931407,-4136.086462642532,-4055.9504038207233,-3047.734216002631,-3975.11228830833,-3890.3389603456017,-4281.893714821665
2025-12-12 18:26:21.348119,Right,-2797.4463883594144,-3067.5655649325345,-2892.279205761384,-2837.614540763898,-2065.730853497167,-2782.6084725121036,-2725.684325804119,-2993.100882508559
2025-12-12 18:26:21.351184,Right,-2163.4818705697544,-2385.4818534189835,-2235.0911239811685,-2199.4733401970007,-1735.9904210416134,-2158.6845357466955,-2109.8571076453663,-2320.1495827920735
2025-12-12 18:26:21.355180,Right,-2731.535557074705,-3020.845282192109,-2829.3598032731097,-2780.296876421664,-2252.802938147681,-2725.928762005875,-2664.4067607304314,-2933.0753426942974
2025-12-12 18:26:21.359177,Right,-3487.141255648108,-3842.975210906705,-3616.12195602851,-3544.641909559723,-2698.6155886128545,-3472.566098547308,-3400.92141772015,-3733.961145402631
2025-12-12 18:26:21.363176,Right,-3168.1797375322785,-3482.966798707377,-3280.9361911057495,-3216.36244894634,-2363.4046040585963,-3152.0676177691203,-3087.948358366266,-3380.35931223887
2025-12-12 18:26:21.368160,Right,-2017.428915529279,-2224.277940314263,-2082.0573762769345,-2047.225633936585,-1593.719543875428,-2008.96574120468,-1962.8020239867037,-2145.424386296654
2025-12-12 18:26:21.372171,Right,-1430.4187399155926,-1585.8578564117197,-1473.8130267648958,-1450.813931541401,-1231.4798652749741,-1423.9622556478716,-1388.478003315744,-1518.6423246052582
2025-12-12 18:26:21.376193,Right,-1992.1826605020324,-2194.917839064263,-2058.3861737824045,-2017.6646367697977,-1552.59100249107,-1976.9196836471092,-1935.3876348697813,-2115.113424755633
2025-12-12 18:26:21.379206,Right,-2687.0972296778345,-2949.71361544542,-2776.2925154799595,-2720.7753699381137,-1986.3752006951254,-2665.9973744394956,-2610.9311777823605,-2851.568823165726
2025-12-12 18:26:21.383212,Right,-2372.71596370975,-2611.8082734723575,-2447.556087302044,-2403.8077000584453,-1842.2351696112892,-2357.815749659203,-2301.2942774445983,-2515.9474403656786
2025-12-12 18:26:21.387218,Right,-1364.1494992614025,-1513.9017640285892,-1405.5454444837524,-1381.9630487710238,-1167.615142764058,-1357.0354717510054,-1316.449049130897,-1441.944407394505
2025-12-12 18:26:21.391177,Right,-900.8196348333731,-998.7677575021517,-930.3223534290446,-909.2591620921157,-709.8373795867665,-892.0792556856759,-864.9372305192519,-944.9175377856009
2025-12-12 18:26:21.395258,Right,-1377.8872686134418,-1512.3809884012444,-1423.4100694719236,-1391.8959029737161,-953.9920449515339,-1364.5542397400131,-1329.1864761706674,-1450.9200782884145
2025-12-12 18:26:21.400276,Right,-1894.2723293321906,-2085.698645625962,-1954.7974686677335,-1920.6505280430429,-1437.2041786741465,-1883.8786870401818,-1831.0101598917972,-2007.7687031795504
2025-12-12 18:26:21.404286,Right,-1607.9004790934268,-1783.7434083353728,-1661.027690124698,-1635.7368002582807,-1348.558446053532,-1604.1285794266732,-1553.6004994624527,-1711.999342522584
2025-12-12 18:26:21.407293,Right,-845.1974846244557,-941.9687111728126,-877.6544026507763,-860.7916320252698,-680.0098987076199,-842.2063762162579,-815.4112578872591,-898.6039595223265
2025-12-12 18:26:21.411296,Right,-509.2567080660956,-559.3838180340827,-529.8680959829362,-515.1682315464132,-262.4164650426246,-502.9109785989858,-490.7122486247681,-532.3824228541926
2025-12-12 18:26:21.415306,Right,-827.5354274010751,-910.6651479841676,-853.577419598354,-837.5772799324477,-559.2215994863654,-821.0525800302858,-797.7953045881586,-869.8756001760485
2025-12-12 18:26:21.419267,Right,-1173.5141460854793,-1304.3406827024883,-1210.181708360673,-1191.4433476639679,-992.0896126640728,-1168.8133243031334,-1131.0816101257224,-1244.7028597533936
2025-12-12 18:26:21.423346,Right,-988.8142520656111,-1101.7133267758181,-1023.3343337044353,-1003.7151331595378,-822.3144984793616,-982.961946368101,-952.3027941520559,-1048.7438527686754
2025-12-12 18:26:21.428331,Right,-449.97812191490084,-496.44245570513885,-466.9426110837376,-454.64328879176173,-234.29786030267132,-444.01346156816,-431.602621160564,-467.71918375079986
2025-12-12 18:26:21.432372,Right,-134.7048968267627,-148.40959931176621,-136.62086380005348,-137.10395489633083,11.01081256440375,-135.28187834267737,-126.29584024340147,-131.0984598902287
2025-12-12 18:26:21.435371,Right,-281.90597181371413,-323.75145361491013,-288.0357643177267,-292.44642947689863,-268.72021752002183,-289.37084423174383,-268.8876810646616,-298.40344847983215
2025-12-12 18:26:21.439360,Right,-559.4928143717698,-632.777738779143,-580.4275014264858,-575.8145322137862,-503.5943731322768,-564.7916756160557,-539.8560606788378,-601.4956775156897
2025-12-12 18:26:21.443403,Right,-514.734588244115,-570.8085862047155,-536.5860069998889,-527.1907656828407,-302.79529946367256,-513.6609053667635,-498.5596000360674,-548.497511261492
2025-12-12 18:26:21.447399,Right,-124.57870948704658,-136.16742364224046,-128.10352155577857,-130.94070050900336,45.15478778007673,-124.67004767991602,-119.10764981858665,-125.93110532936407
2025-12-12 18:26:21.451343,Right,195.26981758751208,203.85829241381725,206.65688232076354,189.11677337327274,136.38117742873146,188.55519361339975,193.95386826695176,211.67364075261867
2025-12-12 18:26:21.455406,Right,130.26856106630294,125.6110230035265,136.09744909137953,121.0753002302954,21.299260343104834,123.74136939411983,131.06906558130868,136.42411734827328
2025-12-12 18:26:21.459417,Right,-121.11840695294086,-139.62573335683555,-127.53278139585746,-130.64716976130148,-24.934882225003093,-120.49675926292548,-114.95561274379725,-129.38537888677092
2025-12-12 18:26:21.462381,Right,-122.88696601381525,-133.02294764711405,-126.37842417747015,-130.3851423113956,59.88620094381622,-120.70361380587565,-116.71099645452341,-126.8912068028003
2025-12-12 18:26:21.467464,Right,194.6998077852768,206.187945856218,205.65157964342507,188.5097598489956,172.93367986596422,189.8923499531811,193.7698876556824,208.22218169565895
2025-12-12 18:26:21.471471,Right,457.4586619620677,484.94663587684045,473.9798362931615,452.0802636168519,276.17658179739374,448.3204333685717,448.69505177944666,482.91286902467255
2025-12-12 18:26:21.475416,Right,403.7001711961202,433.78283865898266,412.96440855555556,399.17239092664386,352.5205466072184,397.3017987714484,392.50472390983487,428.6916910186701
2025-12-12 18:26:21.479473,Right,239.62468907947823,263.31112906553426,243.7375672474227,233.5314637215306,333.8011630724068,232.97675966313,229.45061703989722,259.5386540404779
2025-12-12 18:26:21.483507,Right,286.0538698668606,305.69116312707774,293.6326381805993,275.57557830705264,257.54089744435623,271.1651800452746,273.70912586793565,305.12263916266966
2025-12-12 18:26:21.487508,Right,508.2992592740484,536.1433413256163,518.2759752398706,495.43928448163206,301.6681716855237,487.42948685654846,489.23959885050135,532.5389018498972
2025-12-12 18:26:21.490516,Right,639.2143574386137,683.6081555142009,645.4359576868737,628.7536915132514,497.318233774713,622.0512236791983,614.9361356433219,670.7147417091037
2025-12-12 18:26:21.495477,Right,610.04014183252,662.9621848376119,614.1426077464712,602.1827142179245,615.4087152042193,598.0045898334938,586.7690258278162,645.6470484369784
2025-12-12 18:26:21.499561,Right,581.309662882617,627.7909561577544,588.6742986979662,572.1032302368258,518.3594960342161,567.4886639979959,562.414669955615,616.1892845301772
2025-12-12 18:26:21.503548,Right,627.9883227266546,667.2975965263904,636.686608663178,617.4860914770688,406.46201654337347,611.748598866543,611.4032829197822,661.9527370631404
2025-12-12 18:26:21.507560,Right,670.1146275831852,716.7262303179014,675.7321285333601,663.7269114376395,498.50152737044846,658.5964706098894,653.0967179040308,709.443321309227
2025-12-12 18:26:21.511581,Right,693.2846291192109,755.6350713844295,700.1985510350205,693.5663662985899,676.7455215134542,687.3240711846738,675.7673122812994,744.0259459130466
2025-12-12 18:26:21.514607,Right,776.1505988896242,846.3798433559132,792.096167471318,779.4094877709867,706.5295937382034,767.8621482570306,758.6552328148391,836.8008700242499
2025-12-12 18:26:21.518594,Right,880.2414381005801,948.323976703221,902.5039285927196,883.3774729758152,626.2602883532527,867.5418015540927,862.2737869778648,943.7210672050714
2025-12-12 18:26:21.523538,Right,863.3935839350452,929.7172408750048,882.386593285948,868.2386182552436,630.5882545684581,854.2369640322868,845.2777218176052,925.2928221836919
2025-12-12 18:26:21.527646,Right,754.4719489153358,823.7203711215989,769.9284900532803,762.7575187296025,713.1082069891854,752.316393231682,737.5185441443464,816.8124674875289
2025-12-12 18:26:21.531637,Right,768.28824925347,842.0321210159454,789.6525300295907,778.0058371011401,732.0194643115974,765.7678875639103,751.8801968444604,835.9496101727709
2025-12-12 18:26:21.535646,Right,955.589672513539,1036.0754312815843,985.515958672273,965.5807651444338,716.1543851073948,948.4719281125581,937.374420004664,1031.019240811118
2025-12-12 18:26:21.539663,Right,1077.0018806728767,1166.8837077245116,1106.494776471518,1089.7224452740047,786.3433934692875,1072.5181603607489,1057.5700472511817,1157.4222359908745
2025-12-12 18:26:21.542677,Right,966.3496958842734,1059.2448242588434,989.113065072801,982.3208406794583,861.9626029483043,970.0677736576181,950.1917216858128,1045.01653895271
2025-12-12 18:26:21.546667,Right,806.7470777072012,890.9694938862231,827.7112077928614,821.5778519702144,783.5575015052455,811.8526708518621,795.5947293884819,879.3692980417982
2025-12-12 18:26:21.550683,Right,855.8075995943509,934.301044379943,881.3373604660155,867.0094062560238,664.0165932931704,854.2091662493767,843.9052450609161,926.9404885016847
2025-12-12 18:26:21.555642,Right,1056.8470738463802,1148.5160590433516,1085.5862014513696,1068.512826233753,750.4526033247821,1051.6684501038399,1037.23860577296,1135.808029260952
2025-12-12 18:26:21.559704,Right,1142.0257699254435,1252.8950971631566,1170.1945781994145,1157.8571495902725,960.1472290242091,1139.6080535715446,1116.2351354149869,1229.7804159678053
2025-12-12 18:26:21.563719,Right,1030.7654136705678,1139.3697903333232,1058.6021005172515,1047.0762871208135,955.6861775449943,1028.2725912786555,1007.1000310647069,1115.8430245016934
2025-12-12 18:26:21.567748,Right,909.8589452710003,997.1479034075746,937.9489351714728,921.3862981131533,721.7203229985898,901.2994386969367,891.7476510395063,982.7355382561218
2025-12-12 18:26:21.571735,Right,942.871166539262,1023.2753432251047,969.375152302091,951.8524614177877,640.7210633360082,931.2227193547878,924.2312664985657,1010.2010374360252
2025-12-12 18:26:21.574761,Right,1079.0643199306214,1180.244020741433,1105.0634059513686,1091.5776090861764,867.8990095119225,1071.3538867107127,1053.364043197711,1155.2476879606256
2025-12-12 18:26:21.578777,Right,1164.8677198243095,1284.5085619338788,1194.8902894229395,1180.535153515637,1053.2293212939985,1159.8680695680669,1134.2942087340634,1251.2294617325533
2025-12-12 18:26:21.583790,Right,1121.0004744179314,1229.2707712276606,1153.8871694708942,1134.1805109943962,909.7455387404189,1113.296718273894,1093.2334514308022,1203.7386632051785
2025-12-12 18:26:21.587785,Right,997.9670674531953,1082.9459647117183,1025.947497983696,1008.4803929221816,678.9133998147445,990.4434882606147,976.521899499814,1069.35331213905
2025-12-12 18:26:21.591784,Right,933.9708061466226,1018.8115280556958,956.083357826923,948.334452118841,720.946181270876,933.5836964752525,915.0594044262543,1005.190240744967
2025-12-12 18:26:21.595812,Right,1028.5539429979399,1135.2190132848918,1054.9862079577288,1049.181312288274,943.3410708117299,1031.9778011512244,1006.4119444143726,1113.4384045875631
2025-12-12 18:26:21.598827,Right,1192.3696968853474,1310.13071829814,1227.8266386246542,1213.1476200170582,999.1749062587041,1189.1042682518018,1165.1838217685,1285.4531747699948
2025-12-12 18:26:21.603827,Right,1205.0157598481746,1309.073123340262,1237.8781323800795,1220.4269206171157,847.8041157717817,1194.1623263991205,1175.5992345534032,1287.2977437141817
2025-12-12 18:26:21.607832,Right,1018.2870307138655,1104.8300315255765,1037.1634231782518,1030.6400447690394,745.6926869440358,1009.2362362154527,990.121892078896,1082.999860660988
2025-12-12 18:26:21.610845,Right,882.3044061246328,969.2423284547403,894.9664504255634,896.4827055867063,797.9807053087279,878.1074187161867,855.2450951962965,943.5547975315712
2025-12-12 18:26:21.615884,Right,1007.1784984830301,1107.6622457490303,1029.5399309846107,1023.4860121493693,866.2061427896842,1000.4594205119647,977.631749572116,1080.357999116648
2025-12-12 18:26:21.619815,Right,1216.6177681501722,1325.4127325599547,1248.4704564372078,1232.6848025132203,863.869982154225,1204.6221248413203,1182.8815902266651,1299.2375070785638
2025-12-12 18:26:21.623938,Right,1181.1983949502464,1284.683614906622,1208.086509144865,1196.5762873900821,840.3322796319844,1171.6807254641317,1147.1037892921595,1258.646707273554
2025-12-12 18:26:21.626851,Right,929.9164341842989,1020.8583606197499,947.0382102313451,944.9242186909541,805.0384006848326,927.2082818711642,900.3833035571733,995.1031768177636
2025-12-12 18:26:21.630910,Right,825.6216466177721,909.5369424850214,844.1511644741986,839.443395013921,734.373190231272,823.1980876976158,799.7469142489135,886.6583815533668
2025-12-12 18:26:21.634939,Right,1007.8053946227301,1098.4374741753563,1035.5939800892957,1021.1497623622417,712.6477733447682,1000.9662508037873,980.3453131796559,1076.6964581343345
2025-12-12 18:26:21.638944,Right,1178.8542113197036,1283.1209427097347,1209.1739490826149,1194.6384668124374,810.537889815052,1173.3406939601991,1148.5181532613933,1256.6163415207993
2025-12-12 18:26:21.643939,Right,1070.7671259040944,1176.9487917535007,1095.1350958328694,1088.8746841887478,880.4587184222182,1071.2507401187904,1042.5378149453318,1146.2303639033344
2025-12-12 18:26:21.647902,Right,843.4364200804848,933.3751563453116,863.8746580297593,859.0790767695289,751.8983756823,843.8210344503168,820.7715932282154,906.7799860951491
2025-12-12 18:26:21.651963,Right,808.6437074847054,884.2769283263478,830.9495388807263,819.8251526127569,570.7937496901723,802.657002965454,787.3616653301287,863.7852520325687
2025-12-12 18:26:21.654959,Right,962.5327913602814,1046.8795042131096,986.6932968618348,974.6990339839831,619.2219789237715,955.033678994514,936.3494311945979,1022.4907547959592
2025-12-12 18:26:21.659029,Right,1046.1195552425925,1150.4587134995963,1069.6555007460993,1064.3670807902236,828.909434966743,1044.0028929149266,1015.8010844409,1115.7002086255234
2025-12-12 18:26:21.662993,Right,954.7948162055109,1059.9341393935028,978.0180065757595,975.482415293809,848.2104667162057,954.1615065478254,926.793640260119,1023.248933796538
2025-12-12 18:26:21.667000,Right,836.470396120334,920.4102721961681,858.8395920780022,852.7409214784857,622.6348211236764,829.6584588252008,813.1584895947017,891.7817889263388
2025-12-12 18:26:21.671018,Right,823.4440926276147,894.3712419618387,841.5725447281729,835.8154961615801,503.6223198460648,812.7094225760084,799.8734399662353,869.2607001080178
2025-12-12 18:26:21.676030,Right,880.075245502172,962.3078778341878,894.4133604529779,894.3330849017948,665.2263359335484,872.7458749595098,851.3978406165261,930.2214238930028
2025-12-12 18:26:21.680050,Right,918.5983106852509,1014.123036330333,934.975028792629,935.3087022078689,816.3044530153275,913.5547121134587,886.4353904763702,976.6713216267526
2025-12-12 18:26:21.683049,Right,903.5371756905224,990.6736818524078,922.8530132097658,917.6854375042021,698.5527054209961,894.6680480653886,872.9528300750535,958.4109082249925
2025-12-12 18:26:21.687053,Right,834.5014717068989,903.3297425264027,848.7847813144326,845.0171948208008,505.3155464302981,823.8963452153839,807.4856207456905,877.9895965808537
2025-12-12 18:26:21.691075,Right,750.0905546389986,816.0332280341536,755.2377264769748,761.6668981702533,523.472031489946,745.0617722612806,724.509670286905,788.8860659517813
2025-12-12 18:26:21.695078,Right,735.517348531168,812.7457569567487,739.811997980345,749.9898618119769,659.5708662626566,734.5404347958975,708.9186892446596,780.0374893941917
2025-12-12 18:26:21.699128,Right,812.0561121664941,893.5407338696532,823.7632129397243,825.3241527781356,652.166685470962,806.5205088336952,783.9655241270084,860.7427506872918
2025-12-12 18:26:21.703164,Right,856.8356213148218,929.8940080320463,870.9112635671627,866.1648143022321,528.3304748939117,846.2578395213932,827.9645415722625,899.1173443049192
2025-12-12 18:26:21.708161,Right,763.6668977905065,829.356636060169,771.0095048546791,771.4258389791939,498.80605979962274,756.2640436170623,734.9112157184863,794.9649526332505
2025-12-12 18:26:21.711162,Right,633.4935503285378,699.722663767403,637.0966537499335,641.2648445952218,558.4844899772434,630.6672670979751,605.2849878350971,659.701022902038
2025-12-12 18:26:21.715173,Right,639.8962762546726,707.2113896748051,649.654850307852,644.9255623766221,540.0159657240147,633.1370462470222,611.1942158474121,667.6895344399381
2025-12-12 18:26:21.719174,Right,744.3925083329668,809.3961020712741,759.9156811488792,745.0138650778681,458.3214820660651,730.5387173625641,713.4073427371914,773.8540174104273
2025-12-12 18:26:21.723108,Right,745.8648861311376,809.7248322500382,757.6455032870872,745.3003211644245,463.70846924139187,732.9532889832044,712.9879287595395,773.8722857055254
2025-12-12 18:26:21.727145,Right,609.2838096232153,673.0241322310176,615.3317397296196,610.5789296802832,522.259652540437,602.5290614323458,577.6718939928105,634.7283595693298
2025-12-12 18:26:21.731182,Right,522.8347787560197,581.968830990605,530.880703976145,524.5520987934433,472.65931723685935,516.5694166604662,494.7824537556153,546.555448153289
2025-12-12 18:26:21.735198,Right,582.8059295680141,635.779346953379,595.4108168717939,583.3055560595822,357.59895823302213,572.5104715852067,557.2588709041011,606.2679722332396
2025-12-12 18:26:21.738184,Right,645.3161995077971,699.4701444453094,655.6026596801821,646.8039463649038,368.68085069651715,636.4733685787069,620.4537957463181,670.5725212517427
2025-12-12 18:26:21.743213,Right,584.700764866313,644.4415667387657,589.5078358647879,588.8017314578174,478.2124019829789,581.767638544552,561.1088125407696,612.4925112433266
2025-12-12 18:26:21.747232,Right,493.3948758227052,550.513115044334,498.7475513658719,496.77819538046606,462.40821763302665,489.92251793749165,472.20083516917657,520.8204245161032
2025-12-12 18:26:21.751170,Right,493.65481273818295,539.9878327789484,502.9006379562197,492.9269131765468,308.0544008873403,482.8009464411298,472.90054820652585,516.7912376141176
2025-12-12 18:26:21.755258,Right,527.5506460582837,569.4893205414992,535.115081320866,525.1583231403492,252.9310459003318,514.0713400203967,503.8605687645031,546.6985828025499
2025-12-12 18:26:21.759265,Right,491.71331883675884,539.9675931175007,494.19010599469766,491.9341457360424,363.46855693880934,483.3218991708709,465.2169713061303,510.8096312084235
2025-12-12 18:26:21.763270,Right,435.08275791979395,486.5916108892998,438.1030860055471,437.1010150735965,416.0200342241442,429.1394452910172,409.2409960521618,455.3910592950415
2025-12-12 18:26:21.766293,Right,447.8218881008215,491.42865219630767,455.21396334003657,448.23965157649945,301.730023794109,437.6074876228813,424.3755017439835,466.0474930758355
2025-12-12 18:26:21.770297,Right,471.6543161980808,507.2452926969854,477.77503402670845,471.622682489804,214.09024176280946,459.8877160390839,449.3925285595469,485.88780890463386
2025-12-12 18:26:21.775330,Right,407.59406796016265,445.0715545784915,408.23932157456875,411.3473154652165,284.1960278779734,401.8350079151569,386.19765416067094,420.9808879129123
2025-12-12 18:26:21.779317,Right,319.0568731946405,360.5731697801966,320.57198214752134,326.2541148222517,346.4935211080592,317.7594747870462,299.91278768365737,334.71996941347606
2025-12-12 18:26:21.783329,Right,331.5839334799675,369.7173046772368,340.19469681056216,337.4383194525726,259.81719805451576,326.92612936825026,314.26257558411453,347.89169525704347
2025-12-12 18:26:21.789351,Right,398.3408794341376,431.4764389919583,408.6397671275772,401.57082912989426,169.8355853658868,390.50530873518437,380.44741846167017,412.527204393642
2025-12-12 18:26:21.792303,Right,369.7768331343541,404.20170180802234,373.450412425329,373.9968974837102,222.6910985808354,365.91361063870136,351.0536409409251,382.1326358617516
2025-12-12 18:26:21.795337,Right,257.2991322405869,292.84947218955494,256.52369726484176,263.62889488460496,281.4208302239422,257.2732916458044,240.1202005862724,268.46064620488323
2025-12-12 18:26:21.799382,Right,217.21102538635023,246.0468984954059,219.40538144658785,222.234377733781,189.66825008753221,213.35284874029458,202.20520420686807,225.563060475979
2025-12-12 18:26:21.803376,Right,279.07898349454626,301.63694457069505,283.92699425737374,281.91067674884107,82.67757994157728,270.75858906225767,263.83402379683685,284.25491639622487
2025-12-12 18:26:21.807413,Right,300.4678257087944,327.4140284539899,302.744634563569,305.17956264840905,141.56843940820545,295.94775056582876,283.9469839830417,305.5773912392324
2025-12-12 18:26:21.811406,Right,218.84653559036087,252.3609868688509,220.03806102182716,227.1757484540576,240.16465438564774,220.35178203333635,203.81489876506384,225.77332408563234
2025-12-12 18:26:21.815437,Right,146.89283941837493,175.20451109611895,152.89591803157236,154.77535527863074,161.84839428117266,146.37836554448586,135.74944239202887,152.92460787843447
2025-12-12 18:26:21.818432,Right,161.73758602549788,179.3292166040046,171.46656848699786,166.48159322072752,5.242583226354327,155.3447421482997,152.71955069655087,164.8968062940985
2025-12-12 18:26:21.822444,Right,184.32667502644472,202.66484889911953,191.66189482191112,189.31830660521518,19.897077542555053,179.00774483534042,174.59279970324133,188.65698509686626
2025-12-12 18:26:21.826463,Right,142.82722754462156,171.09127720817924,148.5438508221414,150.97942616126966,153.04613582615275,143.2037675116444,133.04126499581616,152.91232347663026
2025-12-12 18:26:21.830460,Right,91.38258142478298,120.17870370578021,101.99746063677594,99.43494584667496,136.80154601548566,91.45259728294332,84.16595757112373,103.961344613228
2025-12-12 18:26:21.835479,Right,82.93723468697863,99.92957526654936,97.88731989171356,87.13377220672555,-31.760578393994365,77.61982571176486,78.20116473775124,90.39764718979131
2025-12-12 18:26:21.839483,Right,72.80867725569988,83.17480520391837,84.12250391911948,75.35648238071008,-85.21872661850648,67.03674758219859,67.67990709358128,73.96581021195743
2025-12-12 18:26:21.843488,Right,35.12507464480586,51.47880673815962,41.02994161366951,39.546263266471215,38.2588713321602,33.42816195968771,27.919804540171754,35.749528850778006
2025-12-12 18:26:21.846518,Right,31.687218407925684,51.94364094658522,39.00563030538615,35.80611337634036,96.39519885851769,28.46837907342706,23.195492348459084,34.020304249599576
2025-12-12 18:26:21.850515,Right,73.57172845100285,85.00439662841382,83.97068680688972,73.09146447945386,-19.465787090477534,63.090070429607294,64.65940447349567,72.18229683226673
2025-12-12 18:26:21.854546,Right,59.31834552332293,59.854891906434204,65.05695640348131,55.49209620687179,-112.12733855145052,47.0523145084735,50.08713590155821,49.87471365719102
2025-12-12 18:26:21.858493,Right,-44.14604667626554,-44.45273369026836,-46.18608043063432,-46.40609136002604,-54.737756934249774,-50.305992511159275,-52.68303119321354,-57.55697585409507
2025-12-12 18:26:21.862548,Right,-104.70193968375679,-101.26241532154381,-106.17146348702954,-104.3420099899522,-1.8104984868550673,-107.51743564964272,-110.83956555806799,-114.9402558611473
2025-12-12 18:26:21.867554,Right,-36.98267381545156,-35.067303618299775,-31.71233477612259,-36.41938044782728,-73.6279892915627,-43.10690960934153,-40.432131218141876,-42.663422379409894
2025-12-12 18:26:21.871581,Right,29.305771326995455,27.090991339471657,35.07643282035133,30.53502139437478,-137.70274899469223,23.025525020086206,27.910370844532736,24.360135736409575
2025-12-12 18:26:21.874576,Right,-46.88354624842759,-49.82070264860522,-47.82442603720119,-42.11095731658861,-85.37107191415271,-45.57810926408274,-45.56492253905162,-53.80342793330783
2025-12-12 18:26:21.878574,Right,-170.41849470918532,-174.21182424586732,-173.71979442005977,-163.11374947993318,-46.33157631353242,-163.6224247298669,-165.5365624888218,-179.1694600804476
2025-12-12 18:26:21.882600,Right,-161.96832236394403,-170.76229536457686,-160.3654326905962,-156.82785646180855,-125.67296110730967,-158.29390295612393,-155.71286273605074,-172.23051968653454
2025-12-12 18:26:21.886609,Right,-63.138763971364824,-75.26573819562327,-59.99815047616721,-61.82107781380182,-185.4254972068884,-62.8040534130123,-59.627184949902585,-75.34307852460188
2025-12-12 18:26:21.890635,Right,-64.73308113502571,-74.40048804538674,-67.88240394878085,-64.77633991301991,-110.76343502732925,-60.406484957027715,-64.76857276487863,-79.25153799264808
2025-12-12 18:26:21.895623,Right,-181.68211029001395,-191.15265899722,-189.3692016468558,-182.3168959346949,-52.121394335190416,-172.84864555401145,-181.66628391647828,-199.12581772817066
2025-12-12 18:26:21.899601,Right,-238.07985072646989,-255.19590777886333,-242.33133984243614,-241.10646791252657,-152.86991974963166,-231.88480190670816,-235.41079357784474,-258.6916483277746
2025-12-12 18:26:21.902668,Right,-172.77754858514527,-194.798080921144,-172.74732509735622,-176.70273089242983,-259.54160964161565,-169.94244401948527,-168.94595825803117,-193.8765562241315
2025-12-12 18:26:21.906610,Right,-126.67034427181352,-141.0088203123596,-127.6106258079817,-126.34691080925404,-185.68950417561427,-119.20698684740637,-123.0446670158999,-143.48756002979644
2025-12-12 18:26:21.910669,Right,-186.05372236848052,-190.79932602340705,-187.81428235242493,-180.3192250617867,-66.23053404270468,-171.62724560659262,-180.23551460074668,-197.51854641191312
2025-12-12 18:26:21.914705,Right,-252.73585124053352,-261.3361157019099,-250.4984608364466,-246.5988636270631,-130.46053055647644,-239.22356292228505,-242.3484325495374,-263.42914424937044
2025-12-12 18:26:21.918737,Right,-240.70975722218282,-259.9609156427614,-235.69142899048165,-237.26523921145417,-283.49909773783475,-232.48777522308956,-228.02693640370126,-253.9691622547034
2025-12-12 18:26:21.923713,Right,-213.77552211705915,-232.2544391245974,-211.93362830173282,-209.6222107579233,-265.89350147729533,-205.21724360994995,-202.99116505187703,-226.32003044753947
2025-12-12 18:26:21.927746,Right,-238.25331129562255,-246.000797163455,-238.7023558845758,-230.46608443865262,-117.97398650390824,-226.1921826551552,-230.14610601667846,-246.3297287770347
2025-12-12 18:26:21.930716,Right,-263.7600675126714,-269.50445525213036,-259.7118134569664,-255.88606876418908,-109.16973987981328,-254.98440505229473,-256.27926835047856,-271.2913855117904
2025-12-12 18:26:21.934788,Right,-247.65435093490305,-263.9497882646956,-239.29166039515076,-243.9684300667177,-258.4009028239743,-246.90684502901786,-240.00931146815128,-261.6277446025015
2025-12-12 18:26:21.939785,Right,-250.02790967019246,-272.659467184043,-244.9722293162813,-248.42107703656802,-310.8478140593361,-250.78214122405916,-243.0264460672406,-269.60599252412794
2025-12-12 18:26:21.943756,Right,-303.7149435729807,-320.5289287772466,-303.2987386352688,-299.7833580568331,-200.00771640404128,-299.09924782479357,-297.17419478377997,-321.13528898639197
2025-12-12 18:26:21.946798,Right,-327.9152218357194,-339.92602453443396,-324.8476947861782,-322.53983250583406,-151.0029247141647,-321.7190339729714,-320.56617893050134,-340.08657029907044
2025-12-12 18:26:21.951789,Right,-278.8191387440602,-296.93197126477025,-271.40141241805395,-275.85217908170307,-258.07974844792625,-276.6197706728999,-270.30914692430815,-291.24359222195926
2025-12-12 18:26:21.955808,Right,-252.86688470238005,-278.7006243739452,-249.5691660524899,-251.93400461567217,-324.9165892338642,-250.53537179130944,-243.63267462755903,-270.6774498993327
2025-12-12 18:26:21.958807,Right,-319.17394246862386,-344.650525160745,-324.19708805361006,-316.77582550457737,-241.9433237468329,-310.46227881697996,-308.6731391301146,-340.4753121147223
2025-12-12 18:26:21.962816,Right,-378.3296728277928,-401.685584826424,-383.9585727916274,-374.38285091731814,-181.63898776922724,-367.02541915824986,-365.7524721387017,-399.351499161392
2025-12-12 18:26:21.966825,Right,-329.708611541515,-357.0389954452403,-329.8186426270986,-327.1873022688087,-261.092742396635,-323.3039706595591,-316.6620247233077,-351.5520565136103
2025-12-12 18:26:21.970848,Right,-260.328255824541,-291.95222008615383,-261.070668636763,-259.4614873370738,-324.112540889706,-256.93280274420977,-250.26741464759107,-286.68578743294347
2025-12-12 18:26:21.974872,Right,-301.0923963978421,-330.4000763754302,-309.51348334157956,-299.59704068739666,-249.48701382806757,-293.9474993645272,-295.2057623039873,-332.640134649002
2025-12-12 18:26:21.979865,Right,-394.2689693342254,-420.86351012575324,-405.47548000584356,-392.95845967001515,-188.25914738792926,-385.324195275316,-390.43453234873596,-429.16364313443773
2025-12-12 18:26:21.983894,Right,-392.66632103564916,-423.28282987189596,-398.4150516545342,-395.13035259913886,-274.3879215035413,-389.6567176845274,-389.27007899270393,-430.02827803767286
2025-12-12 18:26:21.986870,Right,-318.2985470581625,-352.85541902296245,-320.70888590309187,-324.4850733499334,-361.0479131647735,-320.2485293033824,-315.78892070794245,-357.33353027462726
2025-12-12 18:26:21.990906,Right,-317.1152975424193,-347.28429056546884,-322.8839581789798,-322.7494315734948,-292.49179179564817,-315.0115509503521,-314.7976150252507,-355.11478804645594
2025-12-12 18:26:21.994900,Right,-396.2975206502597,-420.9700992438011,-403.4385574894841,-399.8973967198981,-203.78104990467546,-388.36728090484394,-391.5625699457014,-431.69230573560344
2025-12-12 18:26:21.998914,Right,-419.31371301366016,-447.80557418614626,-421.1984937185771,-424.21816598798614,-274.4091107803688,-413.6220943268272,-411.7043060619035,-454.5071270588087
2025-12-12 18:26:22.002931,Right,-357.0715759129962,-392.4447008924908,-355.26587854430545,-364.6081812326447,-388.24794657400344,-357.131126856606,-349.65101154334843,-393.95456000149716
2025-12-12 18:26:22.006952,Right,-332.81592886481667,-365.73698376253014,-334.2380289151333,-339.2218959869351,-342.3573134436738,-332.5668716103537,-327.56110464327503,-367.9981274338206
2025-12-12 18:26:22.011966,Right,-390.22313596017193,-415.57111776265083,-394.27395961101865,-393.13696204160806,-224.79676732118241,-386.58189191069687,-384.866360432934,-419.33888457971625
2025-12-12 18:26:22.014908,Right,-421.1221672166139,-447.32310880103614,-421.288555217674,-423.6054209769936,-256.0974356258521,-419.5633849631413,-412.7522780172294,-445.45791106985416
2025-12-12 18:26:22.018960,Right,-376.8140154739376,-410.7316444409662,-373.6383883662638,-381.5090254374081,-382.83181135280756,-379.6916707959026,-366.16793538135244,-401.00366748386296
2025-12-12 18:26:22.022933,Right,-356.9680829513236,-392.0484169322881,-357.48253660305636,-361.42047130852006,-376.37585345690604,-357.7694878872135,-346.4837091388763,-382.0804645343451
2025-12-12 18:26:22.027004,Right,-413.2360722794547,-442.26338627841324,-417.3737710698042,-414.8688548631617,-254.13725336710922,-408.4100441726041,-402.71663219935726,-436.7875871590222
2025-12-12 18:26:22.031022,Right,-445.9519508377998,-474.22322835290106,-445.51692828629166,-446.82722604699666,-242.90422530833166,-441.6817310190527,-433.08240732346894,-467.35331596486503
2025-12-12 18:26:22.035044,Right,-392.8953262862051,-427.5508851117338,-385.9056136837462,-395.19917171867564,-357.00889724394074,-393.1547300128732,-376.8853841437958,-413.95062695420347
2025-12-12 18:26:22.039035,Right,-353.43693783914205,-389.55580219166586,-347.976256326423,-354.61673667799914,-377.84473456128035,-351.3846541806706,-335.20256063330453,-374.0194638390676
2025-12-12 18:26:22.042069,Right,-407.01129068393493,-436.86192604800453,-407.72656840010313,-404.3574955466902,-266.93046677537495,-396.6544194437447,-386.6458064596518,-425.38225566619076
2025-12-12 18:26:22.047060,Right,-461.12694062525406,-489.2129595761653,-463.17843681108207,-457.7213298432762,-236.18242761690635,-448.72415447962703,-438.60343350167386,-478.89082616684027
2025-12-12 18:26:22.051101,Right,-417.681665078213,-453.0397049894673,-418.4050707069691,-418.3186303190305,-346.51923375047045,-411.85031345958123,-395.5205883278395,-439.3098075592425
2025-12-12 18:26:22.055149,Right,-353.64580666227266,-393.2942921772483,-358.8934093887801,-357.171568239748,-391.2328175382572,-351.3717563202954,-335.0216824297677,-379.9007249699207
2025-12-12 18:26:22.059150,Right,-380.92958315997384,-415.1522436538944,-393.6015650500776,-382.2170972430613,-284.49087084416533,-373.85818411706714,-364.9364237359259,-407.3659773169784
2025-12-12 18:26:22.063153,Right,-443.81114246032666,-473.5065619450761,-456.4102537027793,-441.63841852458427,-224.82800351287005,-432.3482848239364,-426.1488251465489,-467.03997737314785
2025-12-12 18:26:22.067153,Right,-425.7672318353434,-459.66082724556327,-431.8066800517263,-422.81487770943204,-322.938670908683,-415.5291706470307,-404.54356755519984,-446.8579344332684
2025-12-12 18:26:22.070157,Right,-362.7758501858916,-399.9770779949613,-366.53329591307556,-359.0475831212825,-389.9664110423764,-351.96015939879,-340.3487906992086,-383.1891223768471
2025-12-12 18:26:22.074159,Right,-369.58568636968266,-400.6237693715375,-376.6693730955012,-362.55432041268796,-288.0486558757839,-352.51974012790015,-348.38028786791256,-388.4391452227719
2025-12-12 18:26:22.078142,Right,-425.20115252712276,-450.1139298219932,-431.97389399044914,-416.4976974655292,-192.32010550197447,-405.5059503830271,-405.32356712658657,-443.0542139967438
2025-12-12 18:26:22.083109,Right,-418.79452919901814,-448.382188217598,-420.19199869816657,-413.94717938744,-271.57681005622726,-406.02963001234457,-400.4977437988273,-439.62131332734134
2025-12-12 18:26:22.087176,Right,-361.4274225756526,-398.53010831796564,-361.8079342212295,-361.64720066229347,-376.70427235175157,-355.5173916160129,-346.12787954468513,-386.79933421558235
2025-12-12 18:26:22.091182,Right,-362.012243873789,-396.7220127240289,-367.91718803253025,-362.3091739437077,-315.2741783335223,-353.431472813827,-349.10034745640587,-386.67987153248396
2025-12-12 18:26:22.094197,Right,-417.2453094960656,-444.6568204672076,-425.17574290174525,-414.43307426804677,-203.40686229337007,-402.99554652313236,-403.0256587679032,-435.05662933108397
2025-12-12 18:26:22.098246,Right,-417.7049015931552,-445.9304727243725,-420.0757832437521,-414.4257763988571,-245.47662691265577,-404.6043247679481,-399.7504045556998,-429.5335491254227
2025-12-12 18:26:22.102222,Right,-359.4469856288051,-394.0247896385845,-358.26957133586984,-358.04560359357856,-356.12656632915605,-349.8679285469698,-339.5532198975561,-370.7366705943132
2025-12-12 18:26:22.106232,Right,-354.25125309394207,-388.27636711951345,-357.3188495085342,-352.7181268024724,-324.3462376165553,-341.60968747665174,-335.2023836390581,-367.014360684203
2025-12-12 18:26:22.112238,Right,-412.5029614097439,-440.2992310288828,-418.9944088543998,-409.8794278843561,-205.62758322566515,-394.83920361904893,-394.70713929645717,-424.9694468260277
2025-12-12 18:26:22.115273,Right,-414.00183910969645,-442.1707998579368,-415.99653084308375,-414.2323923300719,-212.34633792564273,-399.6288211288629,-397.40526963653974,-426.5049568618415
2025-12-12 18:26:22.119267,Right,-334.4960038277786,-369.7932176266331,-331.4352359964978,-340.599106817157,-317.07853368477663,-328.45701123564504,-320.75125280499924,-349.94403351063374
2025-12-12 18:26:22.122275,Right,-303.9376246916363,-341.08901125972625,-303.1890424697194,-312.8604631583439,-312.31890861538704,-300.01923639758024,-293.7247357016895,-322.6994776619831
2025-12-12 18:26:22.126342,Right,-373.5024782147957,-405.452625124366,-376.15843462059274,-381.07076897786465,-204.91949098010082,-366.1578669095179,-363.9607459086692,-392.7582809540909
2025-12-12 18:26:22.130314,Right,-415.84596890571993,-446.3883579792455,-414.46168201148976,-422.75282610580325,-199.17201748566004,-409.33571111387573,-403.678292945493,-434.2746692496585
2025-12-12 18:26:22.134399,Right,-350.29347132868133,-385.5066267781658,-343.1855894395849,-358.69206422253046,-305.065959718253,-348.3621793120401,-335.85625340847764,-369.2249761237763
2025-12-12 18:26:22.139324,Right,-287.0914334640838,-323.0101599943591,-282.8648919579573,-295.06968737905845,-316.33288118388737,-283.72098062187433,-272.6577220753534,-306.5808584697079
2025-12-12 18:26:22.143330,Right,-327.66690136445686,-358.3688973484095,-331.31309963483363,-332.3050768453395,-202.65719268040266,-317.2432775385678,-313.1385797546245,-345.46568322496023
2025-12-12 18:26:22.147369,Right,-384.61034504917916,-415.0314741100883,-390.2676180760609,-387.59428171184845,-172.95091438281815,-372.69600981648546,-368.2944464085158,-400.2230468810303
2025-12-12 18:26:22.150369,Right,-345.30093517841306,-383.29795489343815,-348.2132225178648,-350.1398825541837,-282.08472072693985,-339.47083276184276,-328.13706597778946,-361.3804620526498
2025-12-12 18:26:22.154364,Right,-274.5022619263036,-316.1967559385812,-279.51492130744737,-280.53342675149906,-320.37309017952066,-271.7400223441655,-259.8419331932673,-292.77886339393444
2025-12-12 18:26:22.158334,Right,-288.66780677088536,-325.02641811501235,-300.0181980014313,-293.29746063577477,-203.55538221879397,-282.292805452249,-277.6781338682631,-308.3621142830234
2025-12-12 18:26:22.162389,Right,-342.6660758705111,-376.0436518060742,-355.1322890080046,-347.556046339334,-136.62429739756044,-335.5774682855699,-333.41473966941703,-364.48840509261936
2025-12-12 18:26:22.166413,Right,-321.05034767463803,-360.84481452580076,-329.4054023976205,-330.09224779659417,-236.42593684291933,-320.6385693991324,-312.8350009181304,-348.2471655787667
2025-12-12 18:26:22.171426,Right,-253.9827687938232,-298.6315798633732,-262.7672003105981,-266.112040717504,-311.14914045430487,-258.39722184988204,-248.92463273904286,-286.9000345680397
2025-12-12 18:26:22.175429,Right,-255.60425785649568,-294.33003250008915,-270.7171312052524,-265.65015960263554,-212.32463390677003,-257.04682002437767,-254.51947693678085,-289.4058579513803
2025-12-12 18:26:22.178444,Right,-309.46150029439013,-341.5351071236655,-327.50026140816044,-315.96584978769533,-110.28550580114825,-308.19275124080013,-309.5462703501107,-340.27574712457135
2025-12-12 18:26:22.182460,Right,-305.1213659417117,-341.4799705252517,-320.23583223170135,-311.13811268797144,-180.94416415592423,-307.8056303684134,-303.55968760617543,-334.45380497700535
2025-12-12 18:26:22.186453,Right,-249.73082288110163,-293.3232345950091,-264.2711066751508,-255.3065118440427,-282.7871108331601,-255.18178940704092,-246.62228395801503,-279.2659176615998
2025-12-12 18:26:22.190471,Right,-250.25731898483355,-290.4311759722186,-268.64019693713635,-250.60943851910997,-220.4675938866567,-249.5143097450491,-245.96048212901223,-276.39264211431146
2025-12-12 18:26:22.196501,Right,-302.7452251728391,-333.55294273549225,-320.48230446421076,-295.67178782005794,-103.57406721665757,-293.86540200095624,-295.28625171189196,-320.92615210078657
2025-12-12 18:26:22.199485,Right,-295.541345870588,-324.7606297530001,-305.4185723437695,-284.68684269546065,-138.48547852545744,-285.9090740419924,-283.4278234995436,-306.9182689882582
2025-12-12 18:26:22.204503,Right,-225.31632153724786,-258.9428114753682,-230.50544922146946,-213.6920362553792,-246.8886876841425,-217.34115362993907,-210.38673891115468,-234.20501467282884
2025-12-12 18:26:22.208544,Right,-212.21445316215977,-243.93168877495918,-221.84553658694495,-198.20285476755816,-218.52271171251778,-199.3326727115782,-196.8225104783196,-219.28927897522226
2025-12-12 18:26:22.211541,Right,-275.6388159489725,-300.00860982062295,-289.9700671202736,-258.6101827021921,-104.7521658668993,-256.2394329592353,-259.4908633979503,-278.8524789373623
2025-12-12 18:26:22.214534,Right,-291.60015828954056,-315.15932353469543,-303.24733146477956,-275.8534297734732,-117.29039504431421,-274.33793424104806,-273.9929922213778,-292.27724515344016
2025-12-12 18:26:22.218553,Right,-220.58954859839287,-249.9081646053819,-228.94338190183043,-209.25959175743628,-228.7557788862032,-209.9560226718895,-202.88763889641268,-222.77174581505824
2025-12-12 18:26:22.222574,Right,-184.68986594921444,-214.13374724064488,-196.56942217506003,-174.3943388062762,-226.34949773480184,-172.92284877377097,-167.56189044634812,-188.34021626412868
2025-12-12 18:26:22.226518,Right,-244.74330864544027,-266.7941679005744,-260.16888615267817,-231.06970425473992,-113.70206351409433,-225.43974052928388,-225.54011476354208,-245.0392891089432
2025-12-12 18:26:22.231594,Right,-285.9272635184461,-304.34974662947934,-296.02234281552956,-270.27735293121077,-102.44604143104516,-265.0232480566483,-262.25121953047346,-280.5249205189757
2025-12-12 18:26:22.234593,Right,-225.2889838364208,-246.78983168734703,-227.31976908457,-211.5141301280819,-210.06323540664744,-210.04299188836012,-199.4292866346659,-217.60656313842628
2025-12-12 18:26:22.238607,Right,-162.03735455247806,-183.0942157692043,-164.6720792662236,-150.0083698281087,-223.7764222882106,-148.95901537209284,-138.5283930458827,-156.06015310820658
2025-12-12 18:26:22.242629,Right,-195.46415020682616,-209.74223634880036,-204.79682784818579,-183.28411312861135,-102.04209612298291,-178.92468895658385,-175.50059219053946,-191.9693946277257
2025-12-12 18:26:22.246644,Right,-246.1376834496623,-258.2314791395329,-257.70025559078204,-235.70757685007993,-57.93005471531069,-230.29954517481383,-227.5899128082092,-245.4786679474637
2025-12-12 18:26:22.250573,Right,-207.04626647365512,-225.44198199838866,-216.80737160448916,-201.37109421438072,-161.8441459099413,-198.02925556100672,-188.60018185683293,-210.5105515490286
2025-12-12 18:26:22.254659,Right,-140.53986831993097,-161.87060059874784,-152.77688433189178,-137.42839473322965,-206.69375460472656,-133.69545787695097,-122.2750428582658,-146.67450652911793
2025-12-12 18:26:22.259667,Right,-157.91841039329302,-172.31240159180015,-175.44136455492117,-152.77777034591418,-93.14000257867156,-145.13080724910833,-138.85928795370273,-162.41826339880936
2025-12-12 18:26:22.262674,Right,-212.11005870206282,-220.83770829474088,-228.60537293902598,-205.88095083780354,-17.793782112945337,-196.56232693395577,-190.92395198275335,-213.8892306163907
2025-12-12 18:26:22.266684,Right,-189.0252598358784,-202.1217755586258,-199.2540776465321,-186.88709780713543,-109.99652179639088,-180.2863483011024,-167.2011024862877,-191.98839978384785
2025-12-12 18:26:22.270690,Right,-120.97960766626056,-139.0059178058873,-130.3379724281258,-123.82432649569819,-191.73942309390986,-119.21870021743234,-102.15418152749771,-127.53684893494938
2025-12-12 18:26:22.274701,Right,-122.74903738521971,-136.2720963738393,-138.03691689897096,-126.52372210356407,-107.97503359551774,-120.37710004032124,-108.21187989617465,-130.143796354183
2025-12-12 18:26:22.278654,Right,-174.1720607879688,-181.76729290513322,-192.05020110780606,-177.64517137990333,-11.98988685628865,-170.6973778004758,-161.87284664460458,-180.02888304385124
2025-12-12 18:26:22.282732,Right,-158.81016383459792,-169.97480952582555,-172.67196680628695,-165.13411648396868,-75.79798762139399,-160.83320705179358,-147.4511025637039,-165.79182865063194
2025-12-12 18:26:22.286745,Right,-85.36754521302646,-102.93259140988812,-97.31014536664588,-94.96011660632212,-168.67349400377134,-92.3234448156436,-76.28648774884641,-96.47905050823465
2025-12-12 18:26:22.289785,Right,-74.15279418096179,-88.91543062217534,-89.63597058283631,-82.68877531739417,-103.59107473195763,-77.53187818510924,-67.96864203276346,-87.04487375577446
2025-12-12 18:26:22.294763,Right,-131.69603348395322,-139.02110840863315,-147.15802826930303,-136.99212314456236,11.53618485480547,-129.8553004290443,-125.98080107441638,-141.7621788890683
2025-12-12 18:26:22.298816,Right,-137.0873861471191,-144.64655535831116,-144.61421107215574,-142.0325676377397,-24.80647380510345,-137.93639605719363,-129.25522616907256,-143.5860808174475
2025-12-12 18:26:22.302789,Right,-68.47317712847143,-81.51656594086671,-70.19509970879881,-75.11459807155188,-131.69467755506048,-74.90130336018046,-59.19295143475756,-73.81965534028132
2025-12-12 18:26:22.306807,Right,-44.25014253647532,-56.654856097884476,-50.2910283372039,-50.62878239597194,-98.54748926660977,-49.518380247754976,-36.150256918161176,-49.64474320993759
2025-12-12 18:26:22.310817,Right,-99.19107801327482,-106.80418373900466,-112.4438736482407,-104.50361105258344,20.822363128943834,-100.64562106330413,-93.51397515658755,-105.04355418717023
2025-12-12 18:26:22.313824,Right,-116.43948857457144,-126.6472625543247,-130.9724314948544,-123.84269111580215,10.772377711778972,-121.35819820000324,-112.93923659058055,-125.13031648879405
2025-12-12 18:26:22.317818,Right,-45.36118299810914,-63.799018351128325,-59.53453156154137,-56.26923684915528,-100.46986368024955,-57.441161623515654,-44.16884131357074,-58.89683988329489
2025-12-12 18:26:22.321852,Right,2.10718317941064,-16.9479641141952,-16.934390864509623,-8.430934459087439,-93.19176380161662,-9.42662400653353,1.0524494106066413,-13.933430375822354
2025-12-12 18:26:22.326870,Right,-42.75514330045553,-54.20343769527972,-66.91699877614155,-49.96601919765817,30.9118163070234,-47.48119007807691,-44.37547843676293,-57.54405285336543
2025-12-12 18:26:22.330865,Right,-80.77712776430417,-89.77304049732629,-102.62837056774879,-87.95459117222345,49.55973205869668,-84.17693675355986,-81.48619045439409,-95.15976454678457
2025-12-12 18:26:22.334884,Right,-31.334331546735484,-45.817370638484135,-47.77730341482675,-42.4856829821947,-65.09622092571226,-39.822938531287946,-32.322983224876225,-48.79948190716095
2025-12-12 18:26:22.338901,Right,19.587039790290873,4.456626650760882,3.4464811798534356,6.705745406681672,-93.1020316334907,10.318513574486133,16.40585141797783,0.4391377127612941
2025-12-12 18:26:22.342933,Right,-15.827869322383776,-22.517234385886695,-33.22003994125407,-25.93866357114166,23.86210463999305,-19.6749814695213,-20.454960475908592,-30.889559837349225
2025-12-12 18:26:22.347921,Right,-60.35076620813925,-62.3682100813603,-72.23904560867231,-68.68657002120744,74.47554242779734,-63.03559911024058,-64.31965705676703,-69.91724459535908
2025-12-12 18:26:22.350864,Right,-16.757813979289494,-24.68304959993111,-20.142172659980133,-27.38264677999541,-27.301898310426623,-25.42104059807025,-20.015481856709812,-25.700346950965468
2025-12-12 18:26:22.353896,Right,47.22837664157851,34.54045095399488,45.13488772022538,35.04195355105912,-82.42255736721563,36.04402076097904,43.53728341689566,35.933784195338376
2025-12-12 18:26:22.358935,Right,23.694799426186364,16.56007457402302,17.47753429954173,14.201699570985511,20.582627392926952,18.0314569293987,20.39360956143355,12.954845292435493
2025-12-12 18:26:22.362969,Right,-33.5034609567374,-33.94489896763116,-38.48822913574986,-40.20869505003793,97.97279463268933,-35.39775945339352,-34.19923008099431,-40.98475991160376
2025-12-12 18:26:22.366977,Right,-9.232752246723976,-11.391414758283645,-7.256807356578065,-16.91192113852594,14.787762609281344,-14.853367357573006,-7.078689925576327,-15.20527511893306
2025-12-12 18:26:22.370978,Right,57.58514046043274,52.69448137329891,61.92749290080974,48.457001955772284,-64.29400072424323,49.35187306624721,60.42755285810563,51.397681445319904
2025-12-12 18:26:22.373992,Right,47.16784607007867,47.59460136137204,47.31975812508608,39.69436675685574,14.904243280849187,43.37191522389185,49.19314396288246,42.73262863812852
2025-12-12 18:26:22.377997,Right,-15.28153214941267,-8.647029279381968,-16.102885087108007,-21.08989198319614,107.88876792942756,-16.13068817742169,-13.63838097237749,-16.286971545865526
2025-12-12 18:26:22.382040,Right,-3.846155463164905,0.056653871084563434,0.8585279625549447,-11.71125953696901,44.862048317008885,-10.436461671575671,-2.556803539133398,-3.5763650106673595
2025-12-12 18:26:22.387018,Right,72.99834156152792,71.78719785503927,80.51795186416712,62.52207332625403,-49.41872180768405,60.090772130701225,72.52843442576705,72.34628405657713
2025-12-12 18:26:22.391040,Right,84.86598376676557,87.25839615531731,88.00097991386428,75.89121780748246,9.425164334359579,74.43035806604894,82.45678719479474,84.83058038295712
2025-12-12 18:26:22.395062,Right,19.980956344050355,29.36857758887345,19.95682485544239,14.026329143438488,117.72647306945873,14.896775601897389,17.659070055553457,21.962679206306348
2025-12-12 18:26:22.398063,Right,7.46226266794838,14.903826047346229,10.93049924558727,0.6448635926644783,77.76752139352902,0.6008495641872287,6.037314734159736,8.230223775637569
2025-12-12 18:26:22.402119,Right,79.5046822571021,79.57663882095949,85.73757379845483,69.73356076097116,-29.60252642139676,67.70743441506056,76.91514037802699,75.26693196926499
2025-12-12 18:26:22.406126,Right,114.322903332446,114.71112431070651,116.91294642159482,105.35852453514235,5.820704955840483,104.11908239053446,109.21969317138428,106.81317987415241
2025-12-12 18:26:22.410131,Right,62.026918821036816,69.08210600123857,61.58049916761229,56.68609445396578,128.91290815394314,56.73454251419753,56.19376423978247,55.60367621577461
2025-12-12 18:26:22.415164,Right,31.96532415720867,39.129609233204974,35.54538113667513,26.89012017659843,118.14989074178447,24.910401121363975,27.18393270939123,27.02597604863695
2025-12-12 18:26:22.419158,Right,84.35235333710443,85.00775759993121,92.6029671075521,75.99177552372566,-3.0942651174555067,71.33133405444096,79.46476409528987,78.99906728416681
2025-12-12 18:26:22.423156,Right,119.54105917457491,120.04408771870658,125.65853820249322,110.29142673735623,-9.696353223975166,107.22057529332233,112.96365919269738,115.55629500426585
2025-12-12 18:26:22.426195,Right,69.18576078131446,77.35293511010241,71.79282171968953,62.61406483070459,107.0702825767803,63.372389236901654,62.19702831217728,70.25348185194889
2025-12-12 18:26:22.430139,Right,26.917901979162707,37.34228613952291,32.93165233914624,21.300435797689715,125.8092821543105,22.244221213884884,21.741932611039374,32.108160584481084
2025-12-12 18:26:22.434161,Right,73.29128004850645,77.20346663426608,85.3991868874291,65.34216274230857,10.307172074404662,63.474150328562246,69.48482985582086,78.31073244729487
2025-12-12 18:26:22.438171,Right,125.42438650448457,127.15842002099089,137.5031905836222,116.83504390987218,-22.020291556953453,114.90345236941357,120.94194070376398,129.8753371060884
2025-12-12 18:26:22.442167,Right,93.99719717637345,103.55317718577862,103.08260854196851,88.42143403025693,94.30945578587125,89.27625396332587,88.6859329839208,101.57356032291136
2025-12-12 18:26:22.447190,Right,50.57355485977314,65.83553801479866,62.81463640157017,46.799981355448836,150.70111220810213,47.807356311473995,45.78811372441123,61.98714522754017
2025-12-12 18:26:22.451211,Right,89.33416861036676,100.47831628991116,108.40261447359808,83.56627564928203,52.23061380546278,81.61221847863635,84.83210877358215,100.99340895356727
2025-12-12 18:26:22.454212,Right,144.97527376073413,152.44261052744696,164.53908118986146,138.03685885273444,-9.092478851598571,135.60285786939494,139.38316240120912,155.74935724615352
2025-12-12 18:26:22.459261,Right,113.25272069360653,125.93525376720936,127.81676748154132,109.1363953458349,84.43336047715275,109.91264180158032,107.57747859079973,126.81618492874986
2025-12-12 18:26:22.463266,Right,50.30364426315646,67.99292619772314,64.4489259059701,48.56113774856203,158.51396982395454,50.54915918293409,47.519653675626614,68.76854869666568
2025-12-12 18:26:22.467262,Right,73.6587846978291,87.07670138830872,92.82176657412492,69.8494119050738,77.26296927828662,68.80983712883608,74.27075876625167,94.15474758826167
2025-12-12 18:26:22.470282,Right,144.8147724637456,152.93522127514734,164.94517961587553,138.2889814868322,-0.8370073472760851,135.4424834699821,145.99809918507526,164.75442920725618
2025-12-12 18:26:22.474300,Right,138.73269000722212,150.38616664497385,153.71440805088423,133.19756321372552,78.50243232687899,133.00199043805333,138.18342773568293,159.30611742188557
2025-12-12 18:26:22.478303,Right,74.41937141252129,91.14165235713881,86.93025867272627,70.31012314475083,173.9550838053592,72.391594716486,72.03250658537581,95.9871439757735
2025-12-12 18:26:22.482316,Right,79.48445357711535,92.14942997917024,94.94296806749844,72.61216268917633,112.77959565880883,72.83141512873408,75.00096181040499,98.44784369428635
2025-12-12 18:26:22.486307,Right,152.98168921047545,158.79787410410427,168.31333264375735,142.15089436730705,15.111580413193678,140.68914248296278,145.23883481384473,167.01633002355447
2025-12-12 18:26:22.491374,Right,166.69135928479773,174.78453243035983,175.63036207344612,156.16328777887975,68.67242929326585,157.45163687600143,156.37329301408136,179.02898575656036
2025-12-12 18:26:22.494341,Right,102.61216649366906,117.51678253124192,108.03846844518375,94.7214201434872,175.63672110222615,99.50008741708007,92.84041442456146,116.83878684205229
2025-12-12 18:26:22.498406,Right,84.2997011859668,97.78137499436468,94.23377820635869,75.66244320751503,134.63036644597014,80.04662377465411,76.62105463144098,98.31767673167269
2025-12-12 18:26:22.502394,Right,145.59736885053553,151.85473187004845,159.6188903993134,133.65922076355673,18.592141655080923,136.66800793586413,137.78249706894576,155.48615573867573
2025-12-12 18:26:22.506386,Right,169.89719240022532,175.8749640599417,180.81418244381712,157.58459834072028,40.722723917569965,162.84588516362328,159.6851845698402,176.7880853387469
2025-12-12 18:26:22.510401,Right,111.23532536020866,123.20184783117656,118.82817228144268,101.4347055677299,157.6162312086817,109.93690508670443,99.98644685964064,119.20646100478189
2025-12-12 18:26:22.514417,Right,81.503590049786,93.52056491844633,93.06439192859398,72.11861965983917,151.34121665430575,79.71677258652926,71.85281887052042,91.12286451037653
2025-12-12 18:26:22.519450,Right,140.68213402431502,146.6941919089586,157.6979234729224,129.38794572470215,36.83012223006517,133.85135651129167,132.5628487285103,150.0586954371538
2025-12-12 18:26:22.522416,Right,183.44138379783544,189.94288517751556,199.18088548388914,172.65152227514773,32.436488688355894,177.18533613266482,175.13561883704824,193.83888344186562
2025-12-12 18:26:22.525454,Right,134.63525104564906,149.4705995592667,146.75758834875887,126.93643205369881,149.49807276252977,133.78094442505244,126.1796223244528,149.20097127627378
2025-12-12 18:26:22.530459,Right,88.38577973312204,105.94493839659117,102.73332357364416,81.00643173397839,169.8016905928962,87.16408825132385,80.78954862924729,105.82974510897475
2025-12-12 18:26:22.534506,Right,132.1702303194761,142.51823889828665,150.61073610928725,121.2173507704938,53.81505545978871,124.09281294450193,124.16160778151243,147.1612022981426
2025-12-12 18:26:22.538473,Right,185.3159649238005,190.95141802556464,200.78768527774082,172.47062401223957,16.025301002155175,174.63806287219631,174.3279268779952,195.76193745050114
2025-12-12 18:26:22.542474,Right,151.5600543126784,161.72077046216873,160.43248353096715,141.3032357324846,125.46852992805361,145.32547537875507,137.93024635576148,160.91838216413453
2025-12-12 18:26:22.546435,Right,98.63365248011542,112.55060376493202,107.81731058334117,91.22741048865282,177.63040649096365,94.21021299244603,85.61370233099296,110.1597468998516
2025-12-12 18:26:22.550486,Right,129.57463218767953,139.69932165056525,144.89928837075422,122.27699141498306,77.00293527993199,120.76343536085915,119.01012431208801,142.93787199539656
2025-12-12 18:26:22.553530,Right,188.228821574201,196.2738739266788,205.17738612111134,181.63560501643224,15.049443725583842,178.17352751897124,179.31439780970686,203.1919321509631
2025-12-12 18:26:22.558520,Right,164.64784047282592,179.2563723500498,178.0293523859582,161.77204443239316,111.44825464612222,160.94549268725677,156.9907010425086,183.0571035935718
2025-12-12 18:26:22.562526,Right,102.58222261897754,122.6016788170964,116.51830225657613,102.55120426304347,190.04265736696834,103.62931451958138,97.15385529414925,124.2277925604867
2025-12-12 18:26:22.566528,Right,118.01080145148444,133.3764730751427,137.68766447214875,117.06749624137592,107.96637815743452,116.38898007571697,114.54934012690501,139.08818569876894
2025-12-12 18:26:22.570561,Right,180.37771143164719,190.12185134438914,201.63418104709126,179.12823844104423,21.626557169132866,177.08107645677228,177.01709620394104,199.0927281629265
2025-12-12 18:26:22.574561,Right,167.89017934110598,182.15796317292552,184.46565832455235,171.1768606765836,92.79409600497456,170.7275035475468,164.4370726297784,187.60848641069606
2025-12-12 18:26:22.578609,Right,95.45897506621259,117.45668840894359,110.23545901678153,104.26614411044284,186.27075301831064,104.51623102997837,94.13423275089008,119.09407573936915
2025-12-12 18:26:22.581626,Right,89.65323954279302,110.54005424854404,108.73198354084161,99.17159001712571,125.11138006704277,96.7688614949293,91.11861845607928,114.66058001093916
2025-12-12 18:26:22.586624,Right,156.1614183152269,171.70114159802324,176.87051865749527,163.16898791925632,24.381204519362655,159.1023495307454,157.6103828506748,178.81239581271075
2025-12-12 18:26:22.590613,Right,171.54291083115095,189.0801187739562,186.86800171612413,177.78654755321622,76.81786093869596,176.30251373509236,170.39125791651895,192.7199015613587
2025-12-12 18:26:22.595612,Right,112.93326652036922,135.92298144838423,124.06436347437557,119.16525616501167,190.6138254403777,120.09826737437106,109.62924452283187,135.1296697924845
2025-12-12 18:26:22.599649,Right,97.03027899308654,116.72624253391405,110.53578299164656,99.69518867744773,158.20088595765992,98.27954765968025,92.4838076892629,118.54411134149996
2025-12-12 18:26:22.602639,Right,158.02124451086274,168.73127850602032,173.20000874443213,155.33810809564602,42.23211326557794,150.3467448309093,151.2454510670068,175.60345007455908
2025-12-12 18:26:22.606649,Right,182.64536994160153,192.58484603938996,193.19003957568202,178.76492073349073,58.37190143801854,174.53640537688625,173.24302473386342,197.83858654968208
2025-12-12 18:26:22.609692,Right,123.93628792617528,141.12850806009374,130.84771085338434,122.78349022670591,174.27932760844124,121.56143791397335,114.28820313581673,140.98671341969748
2025-12-12 18:26:22.613679,Right,90.76942231919384,109.5322274887003,101.75772456009872,90.3116097265447,172.8313114465709,88.84388857518206,83.16760072778561,109.80104846242466
2025-12-12 18:26:22.618727,Right,143.8412832817121,156.3519216569839,159.62190802197438,141.03580605745083,58.783400216241716,137.2530484720337,137.3777656279708,161.98395664588315
2025-12-12 18:26:22.622702,Right,180.5735461570148,191.5059107315028,193.3717182201217,177.44596145607647,47.497061503032455,174.35343125206418,173.08439753006678,198.4737044015783
2025-12-12 18:26:22.626684,Right,126.36655840510502,143.4952257059049,133.66767741538933,125.88253898557741,159.12563586815668,125.40944535640301,117.75895086883975,147.40100132086081
2025-12-12 18:26:22.630712,Right,76.3614267349767,95.45855038674199,84.88430202574818,76.40169556360343,180.73578314953193,75.02493379288353,67.83937250793679,100.20293492107885
2025-12-12 18:26:22.633778,Right,120.9649623344012,133.76142712368164,134.0488148489385,118.35307592153549,67.32522866461659,113.03142209010548,112.50438772738562,144.06738729021163
2025-12-12 18:26:22.637732,Right,177.5639209576184,187.76810153978295,189.5921480266552,174.91061475189053,28.47518370754551,168.37551493642968,168.86927029222716,199.86152954329737
2025-12-12 18:26:22.641741,Right,142.21796573561733,159.10960221439018,149.96313831119915,144.50103195160045,136.37869608459005,139.85878714040155,135.00967513702926,167.21647163308808
2025-12-12 18:26:22.646705,Right,80.33373743333505,101.53906914984691,89.40673542246805,86.81196513053146,189.04420817145729,81.43889144953573,76.39864075556397,107.93801944280858
2025-12-12 18:26:22.650755,Right,103.25868482730584,118.91844861855498,117.34762729913928,109.07691506136325,86.54473839663842,99.42804624332348,100.84113058127696,128.64992961499956
2025-12-12 18:26:22.654760,Right,162.22114546317607,172.86843920662068,175.31692156507052,166.46134112603613,17.542343455686932,155.2527484212187,157.6014922859904,183.43253689692938
2025-12-12 18:26:22.658792,Right,142.28406652840204,157.21718944393797,148.84230588420178,147.88981252058875,106.90022667270387,140.54214378548204,134.75647499304614,163.1218751425913
2025-12-12 18:26:22.661821,Right,78.31049250313663,97.82654175383504,82.90840501422645,85.04119565626024,183.25055454246467,81.53199279308319,70.60104682779638,101.5469637629285
2025-12-12 18:26:22.665822,Right,88.59212860817206,103.38080480095232,97.29572878190083,92.84868378896499,100.5004646393354,88.96368034966872,82.34526968345745,111.77497335974476
2025-12-12 18:26:22.669832,Right,151.7198676627304,160.3876145585964,161.24962368322304,153.39971585109015,10.700306063314201,148.2661386419786,145.79659837909276,172.6642951493268
2025-12-12 18:26:22.673860,Right,145.8683754153608,157.69792672866606,150.58390845987014,148.94049932205235,78.05225077827345,145.12500450201333,139.49324389189132,166.9730674600287
2025-12-12 18:26:22.678844,Right,77.03935738909058,94.70058287787833,80.24394590462907,82.35753538945573,170.58667778075323,79.41623876427184,71.0877618623199,100.12264279823285
2025-12-12 18:26:22.682815,Right,68.72112104279222,83.08414345255005,76.64781277242582,72.24179971686681,107.50360653747339,66.84169807762373,62.7953991391405,90.2242294534226
2025-12-12 18:26:22.686871,Right,131.77503605250968,138.51090856688097,141.28253901647986,131.5818690881424,-0.8448144862195477,124.17549169473932,123.21705520921387,147.7913953087991
2025-12-12 18:26:22.689869,Right,145.22223644933547,152.3576070672134,148.46605155192083,144.56271232271683,42.512811545224395,139.2070757545589,132.57003575583803,157.34243047676864
2025-12-12 18:26:22.693909,Right,84.2074623654189,96.7973902070953,82.22657741728472,85.1487865318777,153.9874158409366,81.7866587198223,69.22630531253526,95.6403924798069
2025-12-12 18:26:22.697889,Right,66.49002473498695,77.40854173118714,67.02037032789667,66.2584296289424,125.62961264557089,59.82158669072669,51.469958947825944,76.25538878139923
2025-12-12 18:26:22.701881,Right,129.1518804190564,133.381932422315,133.03781783932936,126.08599803151446,12.123446901881834,114.80257834147778,114.36062903158017,135.39809834762127
2025-12-12 18:26:22.706906,Right,155.60590456746286,160.99491005932214,156.98509621384437,153.48431486531626,26.014149339025607,141.59812593497918,140.8888541951601,161.4194575919828
2025-12-12 18:26:22.710940,Right,91.6927668309072,105.51030726678437,90.98262071041972,94.11937940240023,138.80803579062922,84.16609548425185,78.44029279294773,101.76147584978025
2025-12-12 18:26:22.713945,Right,47.123625010455726,63.19732996830135,51.7786178230599,52.13458582360181,134.35763892889372,40.91499921225477,36.36990541499108,60.67431929020677
2025-12-12 18:26:22.717950,Right,92.41318085891544,102.76167143069324,103.64288990260684,97.04629280831432,13.968349109083647,82.38614435409545,82.72177824747632,105.17655219492735
2025-12-12 18:26:22.721970,Right,130.43692653582548,139.7331742985407,140.77666562513332,136.61146122892387,-5.199673259165138,121.99260208039777,120.40541231163661,142.22785211002338
2025-12-12 18:26:22.726028,Right,81.13848203394446,97.27572232237435,87.55743672279641,91.92452034022426,104.48192736209603,80.3931975432788,72.48464313789736,95.48009358992567
2025-12-12 18:26:22.729935,Right,31.694938177912263,50.337857129692566,39.868058013904374,45.04640854592435,130.48786100698635,34.057740289048525,26.875240767840296,48.466509613528615
2025-12-12 18:26:22.735011,Right,70.89232248091139,82.89242781460052,83.0049484091578,82.6554304411402,18.470099652797217,69.39783788754721,68.92834069379023,85.63521839445457
2025-12-12 18:26:22.739011,Right,120.11239180481061,127.73291092479485,129.38016068586148,130.62413426078274,-26.680119080177974,117.44243841368007,117.75219630193897,131.1040073404729
2025-12-12 18:26:22.742025,Right,80.06713798228884,91.53048628280521,82.33777188599925,91.90086480366881,74.38406678548199,81.59865566360531,76.02818120695883,89.93329075817019
2025-12-12 18:26:22.746034,Right,19.294737891614204,32.035208281100495,20.00241996202385,30.584267934435047,126.72358807944693,20.690297086752253,14.319747285189806,28.400146296946332
2025-12-12 18:26:22.750034,Right,49.60122131500975,54.0145977952925,52.94495674993959,55.91808688043966,27.33350888940913,42.930163514771266,43.110949140478624,53.99822670186404
2025-12-12 18:26:22.754049,Right,118.16251078405185,115.3875165002828,118.73933910610504,120.00880919583142,-40.43229468561185,105.82642656989628,108.35234260282596,116.43991146233748
2025-12-12 18:26:22.758126,Right,103.64700399225694,104.42417276863125,96.5369249440846,106.05333377356874,50.45970794443565,94.33068588661263,91.02581913789618,100.17742680839729
2025-12-12 18:26:22.762109,Right,38.410226212930866,44.804416593920905,29.170747927506454,43.33142302153283,132.14751122274902,32.20733155004564,25.93349241564283,36.735328065929934
2025-12-12 18:26:22.767110,Right,44.267573628079845,47.653107670048485,40.03361431224039,49.21075662219664,54.51645611443382,34.317170031921705,33.3997510575864,42.55174703249941
2025-12-12 18:26:22.770113,Right,103.95177471710485,102.42037450146745,101.89516402920708,108.41666449018521,-35.4635647553805,91.23822547661257,93.83262895193184,100.58076407926274
2025-12-12 18:26:22.774125,Right,95.82739038695581,98.20797177235363,89.9785572742694,102.74092578125419,30.141171526818653,88.92543016604031,86.85420478755259,94.16491377327475
2025-12-12 18:26:22.778121,Right,24.52756230699015,33.577428681979654,17.657497554959264,33.86782306662644,125.60495045535208,24.315391694603022,19.068279916245956,27.596721690613776
2025-12-12 18:26:22.782074,Right,13.575071255298099,20.148087220586604,11.844424836075632,20.84444524112041,66.91604622128943,11.508498948067427,12.080013134749606,18.72200778045226
2025-12-12 18:26:22.786138,Right,74.51513138852897,73.94390789922909,75.14469206536887,77.73922804635367,-43.153882011800306,67.77259148823214,74.10936581432179,78.09588493948104
2025-12-12 18:26:22.790164,Right,85.94057987644919,86.1657560596941,81.30082677365863,88.50494021063787,-5.620871983555844,81.49685132034938,84.15375971837784,89.20195212902036
2025-12-12 18:26:22.795176,Right,21.351856172375847,27.784422421216732,12.348022188118193,25.525035199709237,104.56731273337209,22.06106594009907,18.66634482999507,26.789428094925825
2025-12-12 18:26:22.798184,Right,-0.6795488468924304,4.885803992452566,-6.457656753220363,2.4876245128107257,80.18716592449346,-1.7167330690426752,-3.327362958501908,4.845666083157994
2025-12-12 18:26:22.802177,Right,61.42075333157845,60.355891086830525,59.683301988989115,61.856330098205945,-30.941249493989744,55.037292240565876,57.96353774392628,63.78436193111702
2025-12-12 18:26:22.806134,Right,92.29496829288837,91.72638579297927,88.53032969360356,93.51832589629339,-17.90406022297975,87.4996254673606,87.86188335539191,93.772698726214
2025-12-12 18:26:22.810216,Right,32.83135716576362,40.29841100468184,26.930767720681615,38.20081624816521,95.72699678436038,34.820610617418424,30.138754758198047,38.51845074034645
2025-12-12 18:26:22.814172,Right,-10.303043600171804,-0.19258984964108095,-11.500893189804628,-2.897080039838329,94.83591655647615,-7.154490256609279,-8.705181572542642,-0.3373812600329984
2025-12-12 18:26:22.818243,Right,36.370682026361465,41.37747220825986,40.50240596845106,42.777050451230025,-23.795768450872856,35.08832740370417,41.18994994650711,46.28223244633409
2025-12-12 18:26:22.823292,Right,77.68333300133236,81.90435317956144,78.97226411748852,84.84244147615391,-43.6328910067823,76.70630901079858,83.05767978382937,85.90515237019281
2025-12-12 18:26:22.826260,Right,30.468606182053918,41.40231881516229,25.436814421089366,40.92912858046475,68.23141120740911,35.27835123901605,35.708707041310845,38.415821025526384
2025-12-12 18:26:22.829268,Right,-19.723472175974166,-6.697470957878977,-24.523983706807485,-8.732169872222585,100.51594549305446,-14.062773064739304,-14.29095406162378,-13.461351942751207
2025-12-12 18:26:22.834224,Right,20.34838046725781,26.098592067864956,20.12021477226517,27.488698745291913,-7.118836847279454,20.263886787448428,24.562380814255448,20.995049600751372
2025-12-12 18:26:22.838285,Right,75.54668044368736,76.4995989651361,74.82029526105907,80.03247680906497,-52.2180414073955,74.02114707817964,76.66078589968674,70.83431177159946
2025-12-12 18:26:22.842329,Right,41.522474751473055,46.96654472917726,36.37048938717635,47.736978669970995,50.37580373270612,46.463452294046874,40.63421334377199,36.51508949439449
2025-12-12 18:26:22.846317,Right,-21.375465006873128,-12.572221804977744,-25.83454938788782,-13.339219836081611,108.02695139257412,-12.338380783621687,-20.78044619935099,-23.99654675128113
2025-12-12 18:26:22.850320,Right,-1.6949495542357909,1.6543527871544939,-0.9720254884159658,5.0749606153258355,9.919494362009573,3.8190382156462874,2.105195946234744,-3.9574077657744056
2025-12-12 18:26:22.854332,Right,54.904257436021,53.80652875357191,55.89005808174261,61.23269969219109,-66.16506413462048,58.31152397778351,60.896575790902716,52.554999967629556
2025-12-12 18:26:22.857351,Right,31.902758333424572,36.40032660146244,27.74012394779129,41.69666633984889,13.312935550435213,40.55055181620992,39.428036600205814,33.045121381946956
2025-12-12 18:26:22.862347,Right,-38.06504188088002,-27.012583447634825,-43.32753347624384,-25.43410399714776,88.98843868405675,-25.354885828579427,-28.623531634235405,-32.52521562499169
2025-12-12 18:26:22.866340,Right,-31.117592738126405,-23.46411065668508,-31.699735271933605,-20.72511313101859,9.698394761813688,-22.589694805355975,-21.123613297153497,-26.232059242931427
2025-12-12 18:26:22.870365,Right,37.86100167143741,39.25308436930936,38.635653500285116,44.92188827364589,-81.98343439916789,41.554636975663016,45.301715532827075,38.30094846134307
2025-12-12 18:26:22.874376,Right,42.4265647608554,46.291522282204824,38.79870608942292,50.81223046069499,-16.011972422144026,48.62928352676681,46.3786602786131,41.42006136501732
2025-12-12 18:26:22.878394,Right,-20.819702952489024,-11.116918401618022,-25.144367628498003,-8.720084131200565,85.47321878171351,-11.161408480562386,-17.893343833828112,-19.0436060277425
2025-12-12 18:26:22.881407,Right,-28.819900873524603,-21.646340823499486,-26.104191881371662,-16.239186395294382,34.33317344466923,-23.067965258276672,-24.763288430360262,-25.104287478199694
2025-12-12 18:26:22.885442,Right,34.78404200641671,35.500214623025386,43.08510296900931,45.714899233862525,-73.79234623622324,35.3392442210461,39.5189246446389,38.24787509419548
2025-12-12 18:26:22.889426,Right,48.245368397809216,51.15436623635469,54.66168182172987,60.233148531478946,-39.460702227414004,52.02258826229081,53.139340884794365,53.44139473958057
2025-12-12 18:26:22.894426,Right,-19.013082753153867,-8.397608224622672,-14.633508960047038,-4.596189567644615,68.17337628779933,-8.421269776416011,-12.726541275696945,-9.645883504243102
2025-12-12 18:26:22.898473,Right,-47.19009730507969,-37.080333033329225,-38.935711022044416,-34.37997179236845,42.44579870686721,-37.26066239630745,-39.08867777530395,-36.56562905351166
2025-12-12 18:26:22.902466,Right,11.217546438158024,13.306883710043621,22.372933062753873,19.217125298411702,-72.93389972438308,15.340384967377759,18.89753263357852,18.45061035537219
2025-12-12 18:26:22.906432,Right,43.399528336231015,43.426883909560274,49.50719920926349,49.47398201140459,-65.41561610691133,47.14520910879946,48.51696798800549,47.5940383416164
2025-12-12 18:26:22.909441,Right,-12.899709728051675,-7.8359167394955875,-13.628573780231818,-5.1821157228405355,48.409961688252224,-5.00601548657869,-9.537249453685945,-8.795098873313691
2025-12-12 18:26:22.913498,Right,-54.06961390532524,-49.70517832356563,-55.184112018519954,-46.51508700889826,53.543558321696764,-47.260641372107784,-50.665204929580796,-51.28196045157529
2025-12-12 18:26:22.917505,Right,-5.691561055573402,-10.039207214213093,-5.195448177488288,-1.3718378115881933,-61.2410551383,-4.487179087969707,-2.9340124071386526,-7.999546650447883
2025-12-12 18:26:22.921515,Right,37.675686651215074,29.480181125625677,33.609163468274346,40.41604979617114,-82.46896872688376,39.01806642464362,37.65463200431259,30.93554646422126
2025-12-12 18:26:22.926540,Right,-9.886778662286815,-12.886530215524544,-20.77785976861196,-5.838324692660535,28.50763833093515,-2.5553417984046973,-12.69501562036021,-16.820516706931812
2025-12-12 18:26:22.930534,Right,-62.999933819090074,-63.990360326824884,-74.11766420752974,-59.5771890748365,63.48042176265881,-54.962254411431786,-66.8187314130846,-69.71346105105476
2025-12-12 18:26:22.934554,Right,-22.80081612302456,-30.92355327252153,-30.44990986704215,-23.51142312457523,-42.24702957376576,-21.42392069537891,-27.344511939008953,-32.942972250857565
2025-12-12 18:26:22.937512,Right,38.611096783788525,25.210998816764913,28.653545977962494,35.388396360038314,-88.2017728711362,36.8647285271727,32.02392347786372,24.80721922074008
2025-12-12 18:26:22.941572,Right,11.323091843725706,1.4140845527363126,-5.201099383462861,9.782312165370968,15.511273947238806,13.927479839629086,2.4714677896990906,-1.5818099692842225
2025-12-12 18:26:22.945564,Right,-50.48030900822778,-58.33126358437585,-68.12848359778582,-50.994587024179054,77.7990935988928,-45.99060948468832,-60.71234829714376,-60.38624066396733
2025-12-12 18:26:22.949622,Right,-33.25714846554183,-48.24407757310837,-46.58339547389187,-36.7959608484598,-18.438815993446042,-34.34075988821132,-45.165053479875496,-42.93615879253775
2025-12-12 18:26:22.954614,Right,23.540255907275423,2.2426968848740216,10.684994350507623,17.438920742133632,-97.91939286776324,18.82628254701558,9.202429944729374,13.133038045150897
2025-12-12 18:26:22.958619,Right,4.862233851359633,-12.206476084815222,-12.317914367547928,1.0562791864795145,-18.601620938083215,4.831906300874834,-10.159237339743413,-2.459379560663365
2025-12-12 18:26:22.961619,Right,-60.50845026494062,-71.55200711770158,-77.88560235398472,-60.74237422984879,66.62689050609333,-55.77073815520998,-72.72316741713439,-62.677965403025155
2025-12-12 18:26:22.965642,Right,-51.7213756033816,-66.40058273090835,-63.799378521907784,-51.982745302433614,-1.0117609620610892,-49.141896591980185,-60.13396640469,-52.28260219765434
2025-12-12 18:26:22.969645,Right,17.088532696878246,-4.245858552363643,6.470271299996966,15.766937971886364,-89.35389468687572,18.106128198640363,10.192629810706421,15.1354894987453
2025-12-12 18:26:22.973647,Right,20.288160673448147,1.5909800812260073,4.791421451431233,21.725475867562636,-25.720577075731853,28.259930618849467,13.614137213466165,19.48848604867817
2025-12-12 18:26:22.977670,Right,-47.12547789452219,-58.257120953447156,-64.14666307301013,-41.07213260705612,76.50162511166855,-30.46315086544928,-51.5562888642562,-43.78298489604276
2025-12-12 18:26:22.982698,Right,-61.72767294531877,-72.47317680812921,-72.47543138641595,-54.2364727970089,28.332080270833103,-44.10641219270474,-61.81410202705956,-56.2064754667972
2025-12-12 18:26:22.986707,Right,-2.5012232779081387,-17.306800824437232,-8.345413281904257,4.196474940148619,-81.12498321114253,12.831287933309795,0.9555209548634593,2.416028152571016
2025-12-12 18:26:22.989684,Right,11.194784961931873,-0.7168601809644315,2.3705679245804276,19.21999635269458,-50.61368654566104,30.083434552430845,16.513946231956652,17.124579952434942
2025-12-12 18:26:22.993716,Right,-55.019037963622395,-59.58396203214215,-67.4196695982464,-44.60400051999022,57.58775490750122,-30.36328403677544,-47.819410550964676,-46.126389337814544
2025-12-12 18:26:22.997719,Right,-83.74204673324311,-88.75088956951004,-93.28718922864232,-74.38039180941269,35.09732151210119,-60.39671271105908,-74.73102841402942,-75.48332019434656
2025-12-12 18:26:23.001713,Right,-23.32844129170917,-35.100559534028434,-29.40774302363218,-17.108245292874926,-81.6667386893696,-5.3688814041124715,-14.667023077243357,-20.83947640905626
2025-12-12 18:26:23.007763,Right,15.947276169436009,4.578189528085204,7.171156451868228,22.811776292703144,-78.69157568073388,34.44801896972058,22.52948495682722,13.551041571225596
2025-12-12 18:26:23.010751,Right,-33.289867991679785,-36.33292591184909,-45.62468846934007,-22.293248570742435,35.67399169155033,-10.411793064253288,-27.638165789121558,-36.16655177827306
2025-12-12 18:26:23.014779,Right,-71.9432540187654,-72.55938513614728,-81.84917909899468,-60.10418781664157,46.18380368830185,-51.755133272676176,-65.67912638114285,-75.47212995345035
2025-12-12 18:26:23.017767,Right,-22.134319432560005,-29.462217197188693,-28.894981737903436,-14.408360060586347,-67.20863840328093,-10.929072998042102,-16.14188414761702,-29.97048810203887
2025-12-12 18:26:23.021806,Right,25.701102850919597,15.7412417195128,15.031999877055569,30.598966085506618,-92.75750539435376,33.71664200734813,30.218962024741813,14.333161640513936
2025-12-12 18:26:23.025773,Right,-17.815895281929443,-20.939947957747336,-34.42630163765716,-11.300171787638646,16.34664054548375,-5.036528826354697,-13.240917738010467,-27.754569895270834
2025-12-12 18:26:23.029802,Right,-72.96788081318357,-71.69881272323964,-87.83240754515646,-65.23491150650716,54.79294635603674,-58.56671986015681,-66.07775757326363,-80.26938810258798
2025-12-12 18:26:23.033830,Right,-40.33815704359722,-43.756550573065624,-48.66766437365004,-35.313777015701135,-50.16441775110843,-31.44899093694403,-32.10493878737179,-48.607549729658786
2025-12-12 18:26:23.037824,Right,12.89356836044908,6.500487242579311,5.601008631409059,14.90281706857968,-102.86126465098027,18.605047235357233,19.37151813236983,2.4124989578995155
2025-12-12 18:26:23.042823,Right,-20.342544627927964,-20.528453385302782,-31.443826059548883,-18.6619506935931,-6.06430433198841,-11.008410071747676,-16.27755440201264,-30.081115783163114
2025-12-12 18:26:23.045863,Right,-84.7235549236666,-79.66679493244919,-94.83116019401496,-83.91640055815878,56.862452557376855,-73.39539494970722,-80.64317364908857,-92.80791047590174
2025-12-12 18:26:23.049848,Right,-64.03145794428383,-63.47847766671839,-67.9197240110625,-66.91733643177031,-34.349775443723956,-56.69384960634625,-58.186401464940445,-73.43269917169528
2025-12-12 18:26:23.053813,Right,2.513415258292298,-2.2907959865242447,0.4597047813695099,-2.8299293465206574,-111.09182827339464,8.262749086727581,9.428374018330032,-8.981183396197594
2025-12-12 18:26:23.057881,Right,-6.012661834118262,-7.363195025542154,-12.444288158898416,-9.594983636909092,-30.876069365690455,5.1835069126846065,0.9932828973751384,-16.240065089550626
2025-12-12 18:26:23.061883,Right,-66.78219550480208,-63.48329049869426,-74.72086416571256,-68.75679864804079,56.179969148270175,-52.34247238218086,-59.77544562375624,-74.76920924583828
2025-12-12 18:26:23.065866,Right,-58.69772396005101,-59.75957108708644,-62.578036886763584,-63.72604720014897,-12.294938311504666,-50.00131304053866,-52.608961663256196,-68.69777102259832
2025-12-12 18:26:23.070928,Right,8.028245845918718,0.4292650760980905,4.940048900680267,-1.2721980500173231,-107.81567911447746,10.683597272061888,11.478438739701232,-6.635805039994011
2025-12-12 18:26:23.073920,Right,9.706081810789328,4.855610705253639,0.485669136098295,0.5445650230867614,-51.61495802225909,15.262378081479255,11.178230520808938,-6.030258356324339
2025-12-12 18:26:23.078938,Right,-59.1380191428143,-57.28372721856067,-72.89636444623466,-65.40105887626487,51.1507936890539,-48.11705515688118,-56.2192665129478,-72.17259942547389
2025-12-12 18:26:23.081955,Right,-74.07036222515671,-73.98749379456785,-85.84572628224123,-79.95508038098706,8.730726445844994,-64.93908711275435,-67.95124509063862,-86.68081200286542
2025-12-12 18:26:23.085896,Right,-11.252619537553983,-17.844341388688918,-21.816143814146926,-18.52206563227446,-97.72335293379729,-6.867362834524101,-4.101768488388188,-27.39519617670885
2025-12-12 18:26:23.089986,Right,9.571225966399652,4.364725038383767,-5.680739996379998,3.64395156001774,-65.77217027524966,15.986553049813665,15.121659227261262,-9.369162661889277
2025-12-12 18:26:23.093968,Right,-51.29383669258459,-49.072133876488806,-70.27311213371286,-54.49604677141906,48.635185698865826,-40.0576398463927,-47.425646157767915,-70.89549718574563
2025-12-12 18:26:23.098009,Right,-81.05518193809257,-78.93874152834178,-96.950769043935,-85.53745937938584,34.085830772924965,-72.62811234315814,-78.09555536067273,-103.35816987322323
2025-12-12 18:26:23.101959,Right,-26.90306879158743,-32.44609285259503,-39.119193136175454,-36.006303737427515,-82.32338151817021,-26.152407615179982,-25.23027330207333,-54.2519099744095
2025-12-12 18:26:23.105019,Right,5.5757201212400105,-1.6068102084100246,-8.870280446775723,-5.538300173018797,-86.2161580069187,4.833456300806574,5.85974486082705,-23.20463644391566
2025-12-12 18:26:23.110033,Right,-48.11559157211741,-48.733492661671335,-64.89463751060975,-57.875131625376525,24.05306442008441,-45.03428853248988,-47.75528217460305,-72.76225198113389
2025-12-12 18:26:23.114081,Right,-88.63150202954785,-87.22850669388572,-100.36716802811861,-99.00064711605228,37.053954519153194,-86.9318794523897,-87.30294366656017,-109.76514024490461
2025-12-12 18:26:23.118089,Right,-37.684504956545425,-42.53824140071083,-42.478674843674526,-51.842077476328996,-73.0324251931379,-42.559596055350994,-36.81160984629241,-60.03534870224394
2025-12-12 18:26:23.122091,Right,14.139428051748837,6.661616154087824,8.876472812866268,-1.5374944679497276,-96.8151201890687,8.251680955312622,13.439681529860536,-9.599348344861937
2025-12-12 18:26:23.126111,Right,-25.948949485675257,-27.412345778764575,-35.37591175561829,-38.37319735936762,16.991287614157045,-25.961752505143522,-26.08652551254272,-46.62726227228268
2025-12-12 18:26:23.129111,Right,-80.96258273468993,-78.91058338951552,-88.17921258906426,-89.993330360463,62.33382442875882,-79.11745461955434,-77.36289646435398,-97.4675902408926
2025-12-12 18:26:23.133129,Right,-48.432872259443684,-51.31189706193254,-48.772940664493944,-57.04004540899041,-42.0554370455684,-51.722231430401735,-40.87839726288803,-64.06500498756941
2025-12-12 18:26:23.137131,Right,8.058981967893487,2.704557403245417,9.541921487340005,0.5645438773426577,-102.75610249553938,3.2051294894044986,17.556202744344773,-7.0540508996055
2025-12-12 18:26:23.142140,Right,-21.41374300930329,-19.493416876648553,-22.919277787361352,-24.605807049476425,-13.252414037313429,-19.92925514212402,-10.788661172024149,-32.164859684198746
2025-12-12 18:26:23.146139,Right,-86.41322248180222,-78.2280319665806,-86.98397077558184,-86.59972298356297,49.46828070363699,-81.04550143215602,-74.42299230721255,-92.60613108264806
2025-12-12 18:26:23.150163,Right,-69.67944727740542,-65.88218044162932,-65.55180638497404,-71.85118405483809,-40.550642401358346,-69.21896498510614,-57.647124233270006,-76.93334193968622
2025-12-12 18:26:23.154174,Right,-6.106070380526944,-8.493280981623684,-2.7122481214319123,-11.2565082697256,-120.8578621362467,-10.434667096444173,3.789166766728158,-17.61534510484489
2025-12-12 18:26:23.157182,Right,-16.83244805792492,-16.727293352334527,-20.360820897025405,-21.364858248380187,-45.0159342253246,-18.539482752763433,-8.894344779655512,-29.344310403277632
2025-12-12 18:26:23.161191,Right,-81.72719086085999,-77.83492756275518,-88.48324906008202,-84.78677962848451,42.47117254995828,-80.9676237511303,-73.50712622592255,-92.58773861141526
2025-12-12 18:26:23.165201,Right,-77.36784764201002,-79.17094466582785,-80.68794947244896,-82.28370505626663,-24.048609523350024,-81.70906847942388,-68.23756844905438,-89.29000360754435
2025-12-12 18:26:23.170202,Right,-9.711792155860167,-19.681947494696942,-11.69426094712253,-17.05030880340928,-122.1315777894124,-19.28794205043232,-1.437978128247778,-24.88808516282006
2025-12-12 18:26:23.174229,Right,-4.8711276768299285,-12.642479786962213,-11.243907883763313,-10.41816504442977,-71.22160895034176,-11.00148415887088,1.7528356092443573,-20.078010467623244
2025-12-12 18:26:23.178239,Right,-74.16089161191485,-73.81889591980871,-82.12084109940042,-75.83986420634756,28.90312950201769,-74.26072846214083,-67.27828847649653,-86.229703065168
2025-12-12 18:26:23.184240,Right,-92.23364477300493,-91.26209237173316,-94.5821991224002,-93.35926245247538,-14.904127125046216,-93.52686227410595,-83.42049547158967,-103.8708304825559
2025-12-12 18:26:23.187263,Right,-29.169048952862795,-33.415303017012775,-27.715385887320735,-32.44960732135223,-126.39272474435711,-34.913850524179,-19.621241479049786,-44.484390272569726
2025-12-12 18:26:23.190273,Right,-4.253999450083938,-7.478237792674918,-7.436984511849005,-7.911081758240471,-100.99378475380945,-8.29153791180579,4.124036390508991,-21.898253190971445
2025-12-12 18:26:23.193275,Right,-62.89508066439157,-59.93921773638431,-71.35139623218129,-65.67939537497296,12.13091476916452,-62.168219803068496,-55.54238631706539,-78.76705878903158
2025-12-12 18:26:23.197282,Right,-93.3524646089354,-91.24868131110998,-99.49420433979685,-98.20911594620702,1.7948686988602276,-94.42573563670885,-86.37806194024597,-107.36916497429775
2025-12-12 18:26:23.202298,Right,-37.292760398057,-42.75322378252895,-39.1673355115563,-46.13459787332977,-110.96885759157885,-44.15250054348871,-31.717575824077358,-51.77562910722918
2025-12-12 18:26:23.206318,Right,1.1712018141915905,-5.557561986868677,-2.71931151595345,-8.169500552117825,-113.13754862950009,-4.769166792008036,4.411411849869182,-12.495042070149793
2025-12-12 18:26:23.209317,Right,-47.70024692243169,-47.77048622788425,-55.45322583951929,-53.807518147041264,1.8716986313884263,-47.24140014151635,-45.50809965068038,-57.56501721739187
2025-12-12 18:26:23.213278,Right,-87.04698840950005,-85.40137263097859,-92.2896655681543,-91.60519587311865,23.040192622815084,-86.29080587666976,-84.39280259770021,-94.8100152801926
2025-12-12 18:26:23.217327,Right,-35.24766182991152,-40.208010290618404,-35.404935052290966,-41.4176038776277,-82.75866203402256,-41.33470891082834,-33.050472024471674,-45.452003733749734
2025-12-12 18:26:23.221381,Right,19.14516430983349,11.78009189965087,17.94054783249885,12.83885191688023,-109.80418054417532,10.253878259813064,19.444434495817404,6.677839324765955
2025-12-12 18:26:23.225392,Right,-18.832245028075704,-19.2798126205671,-24.41743500137818,-22.119176216707274,-0.5633446298888884,-23.54054284256563,-19.05336235379218,-29.152837795569212
2025-12-12 18:26:23.230308,Right,-73.30098571233975,-69.56146190453,-77.67494563603395,-75.09429131696379,45.23280288908427,-76.79414251948037,-71.27421937938925,-80.7977574684046
2025-12-12 18:26:23.234405,Right,-38.71695408719097,-40.696987130759226,-38.22151150152058,-42.85515513776045,-55.512166826592875,-47.626190879935166,-34.29495279536059,-47.52771642456355
2025-12-12 18:26:23.237399,Right,23.273512875333836,16.34349989371549,22.987332679564133,17.62842460165848,-112.79204982341616,11.941157443914562,27.845813338222797,11.623987782048061
2025-12-12 18:26:23.241395,Right,-1.3678725944992038,-4.019532435493602,-7.256715803050611,-4.366836592605978,-18.428284325578716,-7.301784639377729,2.4739391548428102,-12.61589770540013
2025-12-12 18:26:23.245414,Right,-66.89283441361476,-65.19864703666099,-73.44632847452885,-67.00198006629944,51.54608642558014,-68.6919501011289,-62.55346679653303,-76.23375352278526
2025-12-12 18:26:23.249431,Right,-53.48691583640175,-56.22280770086945,-54.89230695047445,-54.09413453302113,-33.623010939620144,-58.37623289963085,-48.08862330943521,-63.7257144026953
2025-12-12 18:26:23.253445,Right,10.18747642312519,3.0037878033472225,10.452658181529841,8.991860394889954,-114.02678617014317,3.16388129923871,15.772603580386203,-2.138954172449303
2025-12-12 18:26:23.257453,Right,2.5291869107313687,1.1104219050321262,-0.9441651543966145,4.103496111740242,-37.241548296377005,0.5708159733330831,7.969573018708616,-8.745785971565056
2025-12-12 18:26:23.262457,Right,-62.720037064493226,-56.11642746201687,-66.55328049344826,-58.823565255130234,56.726671343851194,-60.91954670119594,-57.09892045539891,-71.5930698158918
2025-12-12 18:26:23.265472,Right,-62.708022931576124,-58.302774318850425,-61.1605154817953,-61.68704271432216,-3.9932594271886046,-66.42012548766797,-57.95068764282769,-72.99805078835925
2025-12-12 18:26:23.269463,Right,3.399448227180983,0.4652848181431182,6.7647937879301026,-0.5195604592227028,-104.00758344618953,-7.299874971140525,5.241027345931798,-10.911382046091603
2025-12-12 18:26:23.273553,Right,11.91693227102951,9.197353274241323,9.675000461596937,7.039724683694658,-58.34565335405205,2.8494562833511736,10.882067520644341,-2.965037356407265
2025-12-12 18:26:23.277516,Right,-53.73448542785627,-51.458251352123625,-59.65542515592824,-56.66682478626899,41.766487040760694,-57.81562611679692,-55.06797384939273,-65.32109041632793
2025-12-12 18:26:23.281633,Right,-71.48008436137025,-71.18570772981911,-73.04725227221206,-74.9858649059679,1.8340167783098877,-77.65098814150406,-71.8173146173358,-81.47110166610219
2025-12-12 18:26:23.285518,Right,-9.733587263690424,-15.988890014850767,-6.624605090444675,-16.091284867492504,-109.74848098275106,-21.823837102951074,-11.096667996294855,-21.074037194543052
2025-12-12 18:26:23.290553,Right,12.684551938546065,7.742895983057679,13.70128265395033,5.802578321570763,-88.92907459934213,0.7604011979638017,8.132370347382675,1.78740593274415
2025-12-12 18:26:23.293501,Right,-49.49630572499882,-46.53116342754947,-51.48786563357862,-55.14060404376505,22.2879718069089,-57.59752900526655,-56.610480601215386,-57.45139687083429
2025-12-12 18:26:23.297570,Right,-80.0703678478094,-75.93778088281397,-79.19064499293017,-87.66577891557972,15.343030065036146,-90.67957306921016,-88.26853399918036,-88.22682118890225
2025-12-12 18:26:23.301568,Right,-16.773502853364334,-19.22966130790155,-12.427994334771938,-29.037814751747646,-93.14416324078775,-34.556161852160585,-26.46455441791477,-29.986708809636184
2025-12-12 18:26:23.305565,Right,31.45066577805119,27.651106590536074,32.938513468179735,17.872932054306148,-91.84725154034095,12.42284773306892,19.459638647364045,14.309755515496363
2025-12-12 18:26:23.309602,Right,-14.905732514460396,-11.995370595126587,-17.20876559188764,-25.023487932121498,28.576264937022643,-29.318275868492492,-27.783344641298754,-31.037732629672973
2025-12-12 18:26:23.313544,Right,-60.14842963185947,-54.94592105887568,-58.95017112885398,-67.43260247189028,55.25469148011325,-74.46931411116384,-71.76178291971155,-74.38782717290451
2025-12-12 18:26:23.318628,Right,-12.307314735888212,-13.590586995014746,-5.088236016024894,-20.071323590738757,-51.133751257133554,-32.07142314052908,-22.87925077151158,-27.5725977064576
2025-12-12 18:26:23.321628,Right,47.44719556142081,42.754430131972185,53.1200433903723,39.60261756119144,-83.5711897731162,26.994182856287807,36.145516428710835,31.111618813316454
2025-12-12 18:26:23.324690,Right,18.11099365478003,18.955890886521956,17.128355164735694,12.554699514737877,24.990425761367078,3.717816030381073,5.993254926674126,3.6948941102382378
2025-12-12 18:26:23.329642,Right,-33.95599759669858,-29.685835653093818,-36.412107160678715,-38.696323669901176,77.84506440797122,-46.081401958588685,-45.4089791668448,-46.67387112432334
2025-12-12 18:26:23.333713,Right,-2.5997151876217686,-4.316400140225596,-1.8014705913665239,-9.928669130931667,-16.54895662256604,-19.83893575338152,-13.142540431806992,-17.21205321346497
2025-12-12 18:26:23.337616,Right,56.99434915310121,50.075425491377246,56.48630761602544,48.36998734853114,-74.12421309493948,37.84962408251158,46.66845736064715,40.45048186908389
2025-12-12 18:26:23.341680,Right,31.38649088843522,28.966101570098544,25.196691181779897,26.150498168055492,18.372504877752363,19.500102268684714,22.49605536719173,17.471293910901295
2025-12-12 18:26:23.345684,Right,-36.673333622420614,-33.4531668165946,-43.16110023004876,-38.10606929246569,90.19181121488873,-41.45220420419355,-41.75664074108499,-46.28590427329618
2025-12-12 18:26:23.349698,Right,-24.952686214397545,-24.617159907022142,-25.340210669892258,-26.896834536681126,6.772163715908391,-30.607839206932113,-26.636118724636617,-34.223630372485786
2025-12-12 18:26:23.352692,Right,42.147773319164116,38.12189750397374,44.16647796519828,37.942307605022506,-76.52038461748452,34.21364592737518,40.526137381886656,30.56607366179378
2025-12-12 18:26:23.357729,Right,40.088509458641056,39.90224843750184,37.83221606724692,36.26631441484642,-3.4476582244715246,35.38553339498321,36.6748821969486,29.01167958199221
2025-12-12 18:26:23.361744,Right,-23.671899432491045,-18.56085040382459,-27.82845461992838,-26.23642939436104,91.07344380126233,-25.858983611746226,-27.429009377970942,-31.816535573954752
2025-12-12 18:26:23.365704,Right,-25.778970797851798,-24.745428036345402,-25.61768677285727,-29.906240305223037,32.307756599711865,-32.654956061676785,-28.383119123576762,-33.61471500976768
2025-12-12 18:26:23.369788,Right,39.18952489755611,32.76978570715437,41.65962455036788,33.14281110354932,-69.23976221581324,28.016601059825916,37.269804792471405,29.457355475286022
2025-12-12 18:26:23.373781,Right,45.774254698913865,41.20312271720468,44.26888220975525,42.22304863888712,-26.136373428475054,39.64893321145064,44.319545360351185,37.54632178873726
2025-12-12 18:26:23.377786,Right,-28.265291046976927,-25.501581230884767,-32.21048048356897,-26.982937435041094,75.03858351308736,-26.78392577466002,-28.225292993785843,-31.480684895606828
2025-12-12 18:26:23.380800,Right,-57.99686498684969,-55.79166303163947,-57.89337479247479,-55.50359846889114,36.79111505345281,-57.72854730673862,-56.691820979664044,-58.83997522469872
2025-12-12 18:26:23.384810,Right,-0.7428463276664843,-5.357365824886074,2.502881978703954,-0.24481798097258434,-77.94936784301171,-6.562392723375524,-0.2543512698030099,-3.084671056851221
2025-12-12 18:26:23.389829,Right,28.152996779826935,23.807732093780942,27.904566297733254,28.988496070280235,-61.74662138255371,22.99593659540551,27.277139404475747,26.545252178584633
2025-12-12 18:26:23.393818,Right,-27.94829836521967,-24.53724949539901,-30.991202083685494,-24.00394894663259,50.501827233456424,-27.178645524960302,-27.583046791827655,-23.9775419233265
2025-12-12 18:26:23.397850,Right,-63.702153924296,-57.75013514999955,-61.433595974383934,-58.82955104996654,47.531978707091184,-62.32589090825786,-59.80448207021618,-54.6878854490933
2025-12-12 18:26:23.401851,Right,-11.972267512021062,-10.6387414752935,-2.811618400082807,-9.070789300105389,-62.61262895127584,-14.755110106227221,-5.737070857296203,-2.357668593103881
2025-12-12 18:26:23.404850,Right,29.892410549597116,31.289341742191027,38.2086297226997,32.803918355170026,-67.69690708165581,28.35666991226026,36.05554543047401,39.27467529070418
2025-12-12 18:26:23.408877,Right,-15.73592608357285,-7.082214562215086,-11.909459259677533,-9.634520234390948,50.57111306461593,-10.809156717408769,-9.68581470134086,-4.2160563524012105
2025-12-12 18:26:23.412870,Right,-59.12152039061766,-48.30275603870541,-54.13320751049832,-51.43626997692627,80.35487947505317,-53.40818355158626,-51.92753465363785,-46.66018201040424
2025-12-12 18:26:23.417882,Right,-11.353273652563075,-7.527280996564514,-1.847361459153035,-5.334462548689771,-26.355480743921362,-11.645986969011574,-3.389220575489162,-2.0088167153444374
2025-12-12 18:26:23.421906,Right,46.92462992033688,47.14953606574272,55.88167201685792,52.72075840418984,-65.61859995335544,45.22614794289984,54.406270034302,53.51423529490057
2025-12-12 18:26:23.425897,Right,14.43897554538853,21.062596660678537,19.65319574448222,23.492366991104063,37.30079445699448,19.22444210011963,21.628047020494705,22.682630414146843
2025-12-12 18:26:23.431918,Right,-42.09900692983865,-30.264478648794466,-35.47678653076218,-31.224505826721725,90.39555253647632,-33.447428798739566,-34.569070636793185,-31.918235658296908
2025-12-12 18:26:23.434935,Right,-12.813970874667575,-5.209728255988011,-1.3278598765391507,-4.746067319654685,-3.670799941126461,-7.608533759273996,-6.286414917889488,-5.596569483397616
2025-12-12 18:26:23.437939,Right,50.15661784257463,53.480697689403314,60.83642315425095,55.16809266536802,-65.22713012223903,54.078700859878154,53.633909057411074,52.79001947790675
2025-12-12 18:26:23.440957,Right,30.405350372242538,38.20094577436248,35.519742124339245,36.397318655985146,24.368827695083382,40.82380972826286,31.693661271416204,33.1559466834733
2025-12-12 18:26:23.445959,Right,-34.77744393474495,-22.30069708294468,-29.77207059003922,-26.825023919293017,98.70466448413026,-18.996100280575774,-32.35619589376074,-28.510502421686397
2025-12-12 18:26:23.449975,Right,-23.80530555425503,-16.275606140679884,-12.437875807794626,-17.135943467641482,17.26313724670763,-10.8529857166468,-18.99352340918267,-16.336133736123884
2025-12-12 18:26:23.454006,Right,42.04714215792774,42.59853078820015,55.86764788097935,46.67765776687884,-70.69439429892554,51.60788681292979,47.28185852216484,48.90547536678423
2025-12-12 18:26:23.457013,Right,38.41556397074601,41.132681090773985,47.48495906956305,44.335403321441845,-4.208555581099063,51.77274082140866,42.747022996820306,47.82693223725073
2025-12-12 18:26:23.461013,Right,-30.199745196761796,-21.912658187095076,-23.85809698369303,-22.05792032820682,88.83833573836455,-12.427586935715226,-25.548784960203193,-15.825686757831136
2025-12-12 18:26:23.465082,Right,-39.65235115142059,-33.685213216627744,-29.36611608108433,-32.710722905825605,30.947459145618268,-25.058722249243147,-33.70263474494641,-23.487239419358957
2025-12-12 18:26:23.469066,Right,22.123666373277956,22.658943769318284,35.223803900422354,26.437582725257016,-72.96580362410532,31.558057679983904,28.18855511777474,36.423269506562065
2025-12-12 18:26:23.473085,Right,34.341150746700805,38.12319536920768,44.128072785777476,39.03743020731417,-31.41337889578972,45.081897292886424,39.184046981912616,47.746271892186996
2025-12-12 18:26:23.478007,Right,-28.97338947121534,-17.398337977752817,-21.600417073666904,-22.64475393194698,76.3231461935975,-15.64255624575162,-25.277757695650507,-15.102457692610187
2025-12-12 18:26:23.482021,Right,-49.468757468202966,-39.12838881306379,-38.54028737083172,-45.11469677146306,49.54424018296049,-41.56525934284946,-47.1619067257343,-38.14595380654282
2025-12-12 18:26:23.485080,Right,13.711648341150067,15.329749899770832,27.05025415995624,13.730510202110963,-58.11589431027369,12.831101016628963,13.15381742496902,19.72210115118105
2025-12-12 18:26:23.489086,Right,46.01731654883042,45.313905823069945,54.68546409940791,44.87869109977328,-40.26665539311307,44.26153065047765,42.51606056687888,50.01897369832841
2025-12-12 18:26:23.493105,Right,-9.272514698781379,-4.601054793300136,-5.216253733320627,-8.233679502560335,74.05102400244232,-5.8130913301502005,-12.855302860960364,-2.340544555856468
2025-12-12 18:26:23.497117,Right,-45.54464122513309,-40.031011244336696,-38.136186273803105,-44.02872898347414,73.16412356256933,-41.46771540293412,-46.41431329248189,-36.535212240645706
2025-12-12 18:26:23.501134,Right,6.8901849347603275,6.916962747023717,20.215818668393695,6.598874463294123,-41.67991888659981,7.340043270378374,8.567780847382892,14.20621449213104
2025-12-12 18:26:23.505145,Right,49.644598186981966,49.80649503624227,62.68565236227823,50.18668729015553,-58.20749191014056,51.98496794960556,52.40611336459733,56.25404007068573
2025-12-12 18:26:23.510093,Right,0.27096002410871733,8.572244667973791,10.251849620336543,5.197652008777368,51.07538496509278,9.56747209185778,4.0135609429435135,10.199867030067253
2025-12-12 18:26:23.513101,Right,-52.14195039435435,-40.365173399628475,-39.51201957243029,-44.4814401986323,79.65701343711999,-41.63999717656225,-47.03592328925879,-39.38330180161847
2025-12-12 18:26:23.517167,Right,-11.341325087194491,-5.351680547531942,7.017832090783486,-4.608116710362992,-24.556181449815995,-6.755739215283029,-6.036100779387198,0.0704750023833185
2025-12-12 18:26:23.521175,Right,48.21701609562933,51.0323250539368,66.50544308208737,54.60000637276971,-61.258407813411395,50.145495564618614,51.93379555544561,57.730733619166585
2025-12-12 18:26:23.525252,Right,21.31047881975519,29.6422436053399,35.20851719010534,29.612208312120856,46.13704872052949,26.425748566363836,23.264494383232886,31.856970593450114
2025-12-12 18:26:23.529201,Right,-33.2626577953115,-21.868637367027986,-19.133825360378978,-25.196242928101128,104.76067536125493,-28.838440476260075,-32.09059124253781,-22.33042052580322
2025-12-12 18:26:23.533224,Right,-6.283371507955962,-1.7702690184378298,12.08503997366779,-2.3885579720190435,10.829736714974842,-9.376115944929552,-5.880635692504256,0.744716422519673
2025-12-12 18:26:23.538226,Right,55.026083751429724,53.261874673065904,72.51374782114817,56.198799822309866,-57.2619334469091,48.23665230290317,54.05968933679196,58.073183118313466
2025-12-12 18:26:23.541250,Right,35.86859338965678,37.90145949437101,47.0434332673658,39.3613890220945,27.97761277306404,34.49738108586644,34.34166966180237,40.30741762163507
2025-12-12 18:26:23.544253,Right,-28.52657499461384,-21.598898647513124,-19.73599397840485,-22.45472841718265,106.38266435396338,-25.607985569849916,-29.295491673661672,-20.395682769382802
2025-12-12 18:26:23.549269,Right,-16.482246836113063,-14.334299318645208,-4.566877563702064,-12.674014754663176,31.16279240102176,-18.47131037530562,-17.503958564264394,-8.81329375706946
2025-12-12 18:26:23.553303,Right,52.989777072054494,47.94958810522803,64.48348644937425,52.77005356114455,-56.21250558903313,44.6698921739835,49.20365809512896,57.170688126811
2025-12-12 18:26:23.557293,Right,54.46676867662063,51.4857723245259,59.68145804177249,53.80756084283246,8.564472379859808,47.28442589886254,47.88543121996736,58.059888017980484
2025-12-12 18:26:23.561323,Right,-11.420092867442463,-8.432895031253793,-8.854191569184223,-10.300898325063528,104.1767186954423,-15.522548432931217,-17.851570504254596,-5.467226879900409
2025-12-12 18:26:23.566306,Right,-20.41708183607784,-19.375666454576276,-12.747690633624813,-19.566858573000218,50.42944120309653,-27.713039728359036,-24.768627983057286,-14.044029270246028
2025-12-12 18:26:23.569330,Right,42.92596288929701,37.897054971865145,54.44098124813763,42.678682590247945,-53.831986301622294,31.31571793297553,39.57659545690149,47.76929302899043
2025-12-12 18:26:23.572261,Right,57.04263687497627,53.403996502576774,64.974183462675,58.51793013854376,-14.780432968878813,48.370820128909145,53.13962271232731,62.97757133183495
2025-12-12 18:26:23.577344,Right,-8.014754690144287,-6.0998373543325215,-4.237760395321402,-4.124090204100185,94.32207702726964,-11.845063595571446,-12.47799247526791,1.119538563369133
2025-12-12 18:26:23.581336,Right,-33.47554839843542,-34.38149357380553,-28.34272267062761,-31.393446346614837,70.43611568297865,-40.50919921707464,-38.32306146531505,-24.627917743644502
2025-12-12 18:26:23.585377,Right,26.494163062038297,16.541569398638785,32.531808313748115,24.08225660000653,-39.890745308668215,12.577052461341282,20.726237365139923,31.40676088201144
2025-12-12 18:26:23.591374,Right,59.41304774632181,48.15633078130031,60.163832357058254,55.846955720748156,-28.87640908867411,46.74918020506675,53.517931379770744,63.292312875653806
2025-12-12 18:26:23.594383,Right,4.92514432988537,0.7399305239205205,0.7025168341451717,3.8182346054018126,82.58255176400166,0.1350343088356567,1.8049881813011552,12.64123258824111
2025-12-12 18:26:23.597393,Right,-33.18606234069284,-35.634059143859304,-34.8182891877932,-33.689857073486564,83.72237849909584,-35.306967883032485,-31.857384043609272,-23.05958704180921
2025-12-12 18:26:23.600396,Right,16.949883988947022,7.84539282537844,19.745223285710836,14.075132874315386,-31.45702093834859,11.051604708604145,20.571505577385437,24.347470473749127
2025-12-12 18:26:23.605429,Right,59.180549367267304,47.38425616274435,59.56826674073682,55.73106103243481,-52.867322190989285,52.914134360308935,61.72255832562968,63.47156242803612
2025-12-12 18:26:23.609427,Right,9.976617254455505,3.610631224360077,5.162470531845884,8.847497047870093,52.91928050050706,8.123173832476368,10.58511874950625,14.730408123996312
2025-12-12 18:26:23.613424,Right,-42.00955933527348,-46.34687677052443,-45.58619961246859,-42.952051882492015,81.54416732434913,-44.03785489546931,-42.41757802993095,-36.75934245692952
2025-12-12 18:26:23.617436,Right,1.2547161462935037,-9.477958931728608,2.861331745030384,-3.382880817444857,-24.902971556751595,-6.801282070967886,-0.3202939566185705,3.9415320918997168
2025-12-12 18:26:23.621497,Right,64.15243959571035,49.735313547137594,65.37395646913728,57.044135510692286,-68.62947965105116,54.41172740277105,60.54953171792067,65.01575665056589
2025-12-12 18:26:23.625587,Right,36.07076110728758,26.9496120628437,32.227451586917596,30.648308360236115,32.80728235743783,31.677818197003376,31.20310676935742,39.12503034944166
2025-12-12 18:26:23.628477,Right,-26.503575906103833,-31.941236905908227,-30.94533307130405,-30.17991308544606,89.59297335687688,-28.642465007694682,-30.792345113012516,-21.15427660146088
2025-12-12 18:26:23.632566,Right,-9.249520460762142,-20.2574102261392,-9.754105344216441,-14.25628428823984,-7.927615495697239,-16.41955999518359,-12.786415949449292,-5.515212444563076
2025-12-12 18:26:23.637504,Right,46.79528010685408,30.9230813169479,45.869063825028206,40.845845512043525,-85.03889305310982,37.014454423956295,42.86555836981097,48.66319307374579
2025-12-12 18:26:23.641511,Right,26.199604526902476,15.50939193900922,19.809342453187128,22.74663833962768,-8.039535388288018,21.966972241793883,22.49712751669358,30.969625334371813
2025-12-12 18:26:23.645524,Right,-40.50773130688776,-44.66655372396963,-48.140154717892074,-41.56858074365027,68.73756603225316,-40.028676409453965,-41.90377975131514,-31.075638002432243
2025-12-12 18:26:23.649533,Right,-32.14486059157571,-39.25605127031304,-34.708634981647265,-34.63162821498554,-5.624647101904571,-35.12833637334552,-31.200452284889707,-22.385200186578004
2025-12-12 18:26:23.653537,Right,34.831365636237024,22.052695130074426,34.75149981985305,30.23285274673799,-95.88886777315571,27.800130188456023,35.97448230346663,42.1542741153462
2025-12-12 18:26:23.656570,Right,34.107705601398266,24.364435278300334,30.838468642719818,30.9666055060261,-35.456195794279324,30.561407200819758,34.66842931257088,42.343198724895046
2025-12-12 18:26:23.661558,Right,-35.4035998847894,-38.51426427067099,-38.975493263883436,-36.073773050486125,60.166478321291095,-34.45581205026065,-34.11321277598154,-23.49935063338853
2025-12-12 18:26:23.665515,Right,-45.97883211003318,-50.45635645517791,-43.06240335112852,-47.71520709469223,9.431330018084623,-48.417874451673015,-43.7500551824869,-33.56758542719399
2025-12-12 18:26:23.669580,Right,22.67681494300996,12.847214031330395,30.143806159263477,18.491796951610013,-94.19442158425215,14.435003303182384,23.878115896703093,32.25570878740473
2025-12-12 18:26:23.673605,Right,47.296781476699834,40.24521940272871,51.46956353866426,44.30002457379669,-55.49197344990739,40.52361872576057,46.40840080574071,56.17855765479544
2025-12-12 18:26:23.677590,Right,-8.93309262844923,-8.150321881121044,-8.771710156084737,-8.640031931463454,58.23339438494554,-11.094614210715008,-10.479927094612322,1.6787914165252005
2025-12-12 18:26:23.681622,Right,-30.210487542153714,-30.003945704991338,-28.289662749488343,-29.964242449757876,43.052909034951426,-34.59525882831076,-31.291689621104524,-21.186496797101427
2025-12-12 18:26:23.684628,Right,32.964608364338346,25.04542898710804,36.850299717440976,30.664985972416616,-60.78474387283984,22.896277299189023,31.286139618845482,36.54736699952991
2025-12-12 18:26:23.688650,Right,70.6366198715532,61.03811409579609,71.12519710271408,69.29688005510252,-45.36487500581211,62.34364140901653,67.64631112693951,71.97670285998902
2025-12-12 18:26:23.692646,Right,18.99165047229144,15.946666488212571,17.065453388020615,22.405213052372346,73.96343932550616,17.875631015906947,16.104947447238374,24.10544804318124
2025-12-12 18:26:23.697663,Right,-21.13810856816417,-22.406838498403033,-17.591108456344955,-15.405619644046965,84.84545949386217,-21.539565061258145,-23.0951254778156,-12.50408803206301
2025-12-12 18:26:23.701672,Right,25.588891072191473,18.294219319461263,36.48161983811315,29.42938006699842,-26.90109929902991,19.201392165013203,22.703755208724942,33.232130839969614
2025-12-12 18:26:23.704695,Right,67.30441789258839,58.598533639532434,78.31889341050737,70.29993083694899,-51.46986525314662,59.56960665130464,61.80721146979158,73.8944387330921
2025-12-12 18:26:23.708686,Right,18.24564249179093,16.65049756295184,25.392736605696882,23.561110506076147,53.917036765399644,15.520395820049089,11.799715623455086,27.50256973892465
2025-12-12 18:26:23.712705,Right,-37.819739579135785,-36.3602643651368,-30.097411796735287,-31.763234268042652,88.14293902791928,-39.85293551781615,-42.33050661930611,-26.19690894595624
2025-12-12 18:26:23.716709,Right,-1.9578641192310897,-7.369061718746934,8.287367383076344,0.904120705969035,-14.837225920463652,-10.222678863321562,-4.463396338960592,8.039061936004146
2025-12-12 18:26:23.720658,Right,55.26367976815163,45.02988974885034,61.705394247035656,55.71982503293111,-62.144144188337236,44.77604282413631,52.95035013783672,63.87762721912077
2025-12-12 18:26:23.725802,Right,24.50654285636665,19.461944451347108,23.353420996571913,26.658832970410003,35.208346981404134,20.56236615535272,22.591703764443082,36.63087918865858
2025-12-12 18:26:23.729718,Right,-39.17626817518794,-39.57188129254541,-42.08958006353441,-35.15327691571656,93.72551182513689,-37.8107145652084,-38.95692766568118,-22.575860768487473
2025-12-12 18:26:23.733749,Right,-19.069040361888256,-24.786469081856012,-18.762016008339742,-16.639731394910996,0.37513989427861816,-20.315400716181102,-17.380163930427443,-3.2285875907036825
2025-12-12 18:26:23.736748,Right,46.91016837893949,34.717644130962526,45.52638585418208,47.5094781875905,-74.33728364652484,42.73333730642298,46.89063593481933,58.60090926220073
2025-12-12 18:26:23.740710,Right,38.878948320756535,29.142048722953405,30.101415144285056,40.85129334149133,6.89512522820587,37.60631749257482,35.27226366981449,48.763506982897525
2025-12-12 18:26:23.744787,Right,-21.188922560457286,-27.024430416196083,-33.35173318544457,-18.06204069697742,92.56929603008325,-20.94285528797991,-27.843491697530226,-11.467079872661998
2025-12-12 18:26:23.748826,Right,-12.752689404862394,-23.80467407784954,-21.909833400663047,-12.789859314050773,25.36005115768853,-18.607819635088163,-22.149308728541655,-6.029530284384236
2025-12-12 18:26:23.753804,Right,55.23472263866097,36.49174654802482,46.53147692251787,51.03534812209182,-65.45579583246445,43.554202756946324,42.41091706957377,57.88298336398657
2025-12-12 18:26:23.757766,Right,59.58586657990054,42.379293293719,45.54572418655425,55.60826623241337,-8.093449505876379,50.931510704249376,44.15678217005643,62.806428452022374
2025-12-12 18:26:23.760770,Right,-6.3836898357894825,-17.977273136508757,-22.974568785075462,-7.6908508107371745,89.50143604183722,-9.355440150244249,-21.74759641374203,0.8435570183864911
2025-12-12 18:26:23.764830,Right,-19.579800318941125,-34.034411217124216,-31.798532236176015,-21.320928369266767,42.78454972180816,-23.768697461542615,-33.81192439651386,-11.799565964764042
2025-12-12 18:26:23.768851,Right,42.34116072260622,19.984890345117947,33.00827332701874,37.85854860837753,-62.35042620126569,34.423175245177845,27.391346347008948,46.6299052951108
2025-12-12 18:26:23.772868,Right,58.74273979829741,36.61365398562475,45.363876051334955,54.50175133258563,-29.672647898773903,54.174624658766334,42.00842679323796,62.22908627127981
2025-12-12 18:26:23.776883,Right,-7.200258371864038,-22.228394962057337,-23.75377361091978,-8.135433928615385,79.56369428918742,-4.594005460314293,-23.248239863752133,0.5471280091696826
2025-12-12 18:26:23.780842,Right,-37.63445971568581,-51.532514910471946,-49.81895363323383,-36.87285270760913,60.19460675891787,-33.71799976845978,-49.89539072455136,-25.86189559624836
2025-12-12 18:26:23.785907,Right,20.409744445081742,1.261809168259333,13.118001034892131,20.811949749748237,-53.84121212804166,21.87144337790778,11.826815272634121,33.04706872326642
2025-12-12 18:26:23.788849,Right,55.373673943675385,36.82432878202917,45.45728780146919,57.394202323859645,-53.444167901556284,59.9579578408775,48.34780116229467,69.43770971973936
2025-12-12 18:26:23.792922,Right,-1.1540297268766153,-11.933172600933176,-15.632957134307162,4.444762295770488,54.71817045454827,10.16276779511827,-7.414508802798991,16.682320453161083
2025-12-12 18:26:23.796911,Right,-46.802174451946485,-54.969890374272836,-58.949531078553946,-40.30757704840471,61.69679788081157,-35.55214724992402,-51.947927656106,-27.213481104070524
2025-12-12 18:26:23.800973,Right,0.8436215397232445,-12.447600654101734,-5.9606987830873095,5.189130870747249,-51.60070187860856,6.019967415633801,-3.540050181258266,18.175754680436512
2025-12-12 18:26:23.804946,Right,51.37655883407024,37.91372465237055,44.23328978884615,55.89012264194935,-77.81743212728361,56.02502623015789,47.67765166262507,67.63393649299178
2025-12-12 18:26:23.809907,Right,11.17224698445898,7.240903584007356,0.9382780313012518,19.816621449075683,29.296045813169258,22.55117657268238,9.853377864246795,30.876394697908836
2025-12-12 18:26:23.813981,Right,-42.759178315549434,-39.56096227944636,-50.326438687197424,-31.365977342447877,68.25483700724362,-28.514424273947952,-40.53289920892894,-20.347248526581097
2025-12-12 18:26:23.816990,Right,-8.895598160781446,-8.114515777028828,-10.907271607696316,0.5971993659914006,-33.869013751762395,0.5030642006422568,-5.461449056161655,10.16882445869851
2025-12-12 18:26:23.820002,Right,48.133651898129756,46.898508001374466,45.00690546517626,55.212442413287135,-85.91346916730436,54.90806182644337,49.38849593229952,61.70924708156235
2025-12-12 18:26:23.825088,Right,19.421535639421563,24.100952099757706,10.400202820062304,27.478744785563322,9.147973502261266,31.15050635285843,19.153125548939897,32.13383129542126
2025-12-12 18:26:23.829083,Right,-43.3718312158835,-33.980047929113425,-52.366279534744535,-33.560466200116934,72.71669533026852,-27.525858134966256,-40.98066933012615,-27.944834444446315
2025-12-12 18:26:23.833014,Right,-24.421551395043934,-19.47992915333998,-26.944860788101806,-14.793337930834241,-14.593022508046488,-10.987823071873208,-16.861684443285412,-7.766854962061188
2025-12-12 18:26:23.837046,Right,39.01949516759669,39.6793419590731,39.374475157603506,49.8358822264363,-88.77827596869975,51.30890707315666,51.116695304477616,56.41074602592198
2025-12-12 18:26:23.842063,Right,25.387036073874697,31.836907054660514,22.910588103020388,41.43922265945366,-9.171914653699787,43.47563789096057,41.29462296296424,47.034857521477534
2025-12-12 18:26:23.845063,Right,-44.23451857982036,-30.08126106461623,-46.283732780264074,-23.5548369197204,77.64357599560753,-21.951443449645012,-24.572552091805846,-17.51731876312624
2025-12-12 18:26:23.848068,Right,-44.90629649697985,-32.68536045226756,-40.66291267384099,-25.376522592032416,11.086427439688123,-27.568755541677092,-23.426428765422315,-18.78084820512413
