timestamp,label,FC3,C3,CP3,Cz,FCz,FC4,C4,CP4
2025-12-12 18:09:45.963866,Right,1858.8123666821427,2504.538869052386,2575.5789922971617,2278.442804266631,1404.449093494385,2119.5789093121925,2199.736133515334,2680.619117474475
2025-12-12 18:09:45.979887,Right,10013.239354508578,13492.97376434038,13875.29266978359,12275.35603262729,7534.0717408907385,11420.67221829186,11851.239953865766,14441.649664591732
2025-12-12 18:09:45.983916,Right,22950.031082869868,30927.57948864195,31803.187284090644,28139.927740215087,17185.966364426033,26185.452258712463,27166.036247464075,33102.83387875495
2025-12-12 18:09:45.986921,Right,28706.818386559287,38686.214000789354,39781.79718330719,35210.27429209775,21421.6109861347,32777.05114783718,33984.506135015,41410.548268408165
2025-12-12 18:09:45.989936,Right,19446.044181548008,26209.150836718138,26954.32523656114,23876.492278867234,14588.744534401638,22251.463676137617,23028.705101423715,28063.30095812156
2025-12-12 18:09:45.993900,Right,2222.7470435906143,3020.0652923505695,3110.640850747819,2786.2949876531493,1967.0607759179693,2645.8131408324552,2659.065697263053,3249.6360655915923
2025-12-12 18:09:45.998954,Right,-10730.265766990662,-14394.478002254094,-14801.38689368905,-13070.137478698598,-7691.007094333443,-12099.47147736157,-12642.023451106186,-15390.998665818013
2025-12-12 18:09:46.002953,Right,-13962.881736830634,-18728.34305194684,-19264.573227844434,-17029.02965421212,-10439.391231818561,-15786.069569762622,-16450.50545888522,-20037.053636052122
2025-12-12 18:09:46.006915,Right,-9961.415864019305,-13360.008136434131,-13743.280904136773,-12144.8368848596,-7668.45192770561,-11252.515177080058,-11732.35160072206,-14295.94765318447
2025-12-12 18:09:46.009986,Right,-4294.443507120945,-5759.285622517113,-5920.107675970532,-5221.347877272929,-3244.4076520930976,-4821.280294856464,-5054.660777379584,-6159.639627104509
2025-12-12 18:09:46.013964,Right,-1228.6101592640043,-1629.4105831902707,-1670.893352123443,-1466.104019928025,-745.6432139992248,-1331.4767766676378,-1429.9997267153813,-1738.263343745959
2025-12-12 18:09:46.017940,Right,-1871.1205978906364,-2476.871772593702,-2547.1313774945447,-2246.3577053118497,-1363.3613342452445,-2056.977353277267,-2176.9073069177102,-2647.8473570181523
2025-12-12 18:09:46.022046,Right,-4430.394268546603,-5929.813603624236,-6100.374204520485,-5387.8182633783435,-3456.336604405893,-4980.28395897476,-5208.372957479325,-6345.286350436276
2025-12-12 18:09:46.026017,Right,-6085.920252602315,-8180.467877928051,-8411.399523671018,-7428.885746510932,-4551.803148115287,-6881.804102814058,-7183.2804404760245,-8751.793297989061
2025-12-12 18:09:46.031025,Right,-5441.170403749682,-7309.526224442525,-7514.408239412005,-6639.413852197351,-3877.7894775473396,-6149.309060031665,-6419.099645362003,-7817.435893533868
2025-12-12 18:09:46.035055,Right,-3574.9395468026632,-4777.672970308689,-4914.879110822338,-4345.873750977451,-2625.895872717374,-4017.230126228067,-4195.848932478111,-5109.3488526556175
2025-12-12 18:09:46.038051,Right,-2580.6594509031856,-3444.48860012996,-3545.5068769837962,-3132.5884307050146,-2108.851697745151,-2892.43477889325,-3022.52799283911,-3684.356107786647
2025-12-12 18:09:46.042060,Right,-3161.1619338811142,-4251.594261534978,-4370.616915168124,-3857.2822515909793,-2421.6347402071115,-3571.833488028613,-3729.8017067078035,-4546.266564130201
2025-12-12 18:09:46.046112,Right,-4056.1293204423273,-5458.45581528265,-5608.474190057605,-4955.494666111306,-2836.3671879492467,-4596.544686415698,-4792.366304610157,-5835.820933735929
2025-12-12 18:09:46.050095,Right,-3861.9994778777473,-5174.713853092981,-5320.409311505035,-4709.479874337441,-2787.168135275366,-4369.146513448446,-4546.308003819431,-5534.483347334433
2025-12-12 18:09:46.054145,Right,-2808.471333795227,-3755.8131462091114,-3864.089459117735,-3422.9286058254074,-2295.850153728039,-3175.9224596568383,-3299.2428176164394,-4019.4672324401326
2025-12-12 18:09:46.059117,Right,-2246.0599043032853,-3028.481249600416,-3111.2762634237297,-2751.9541374237742,-1845.5256252588006,-2557.4743191405432,-2658.4866668251343,-3240.5243038635235
2025-12-12 18:09:46.062120,Right,-2719.3835694355657,-3679.4834894482046,-3775.340951045975,-3340.276439999696,-1903.7576414060313,-3108.594004276325,-3232.6587328007445,-3935.2809672350995
2025-12-12 18:09:46.065145,Right,-3300.914336355054,-4442.170763434609,-4562.031918971334,-4044.666143252747,-2314.8682410659967,-3764.7865157122724,-3907.173524228856,-4753.773958434351
2025-12-12 18:09:46.070152,Right,-2975.1213107903022,-3991.353155667195,-4102.9108548993245,-3642.2099441315513,-2347.7753936698427,-3391.8537006907864,-3511.719798848848,-4275.394498389214
2025-12-12 18:09:46.074153,Right,-2040.5481226274278,-2752.9339333625976,-2826.7499246222433,-2508.401282722014,-1701.9466758405324,-2340.2678241138346,-2420.650143589708,-2949.3683051720727
2025-12-12 18:09:46.078157,Right,-1622.9869610461174,-2205.4880717769265,-2258.2230800639372,-2003.2058618071023,-1117.7155604972504,-1871.9170960942283,-1938.5459247087128,-2359.473224904621
2025-12-12 18:09:46.082172,Right,-2093.4094299544813,-2820.630497650942,-2892.116088070208,-2569.460333238938,-1376.497855771333,-2397.6810230144765,-2480.710628301138,-3018.061634870479
2025-12-12 18:09:46.086206,Right,-2608.8100428162143,-3496.7255815484095,-3593.0657719841693,-3192.693573417724,-2019.4953367256094,-2977.854336657794,-3074.988231696887,-3747.0645554570947
2025-12-12 18:09:46.090198,Right,-2316.4749633992324,-3118.056786152534,-3203.9405903925654,-2843.083384083817,-1936.1056364177493,-2656.7711164326174,-2740.361132031074,-3345.400037889369
2025-12-12 18:09:46.093207,Right,-1491.8486545803025,-2027.741434694035,-2078.725666944869,-1842.8251874360722,-1096.3923774342984,-1730.2811404454987,-1782.286280835513,-2177.493464976549
2025-12-12 18:09:46.098227,Right,-1101.3391641096678,-1492.3448342180345,-1529.4387505040504,-1359.7808554479852,-649.8688424527645,-1280.8429682190763,-1314.1146620353684,-1603.835587781854
2025-12-12 18:09:46.102257,Right,-1482.300773192197,-1988.827121079783,-2046.4062157766894,-1820.0346780760447,-1130.7726976724807,-1707.1743078574073,-1750.3268876919756,-2137.264306257246
2025-12-12 18:09:46.107247,Right,-1940.8167376426281,-2618.7074184051016,-2696.1058059326606,-2390.282977202558,-1640.747322598705,-2238.440930511104,-2300.37610573892,-2811.9305389358196
2025-12-12 18:09:46.110199,Right,-1730.003949580714,-2357.3372492172057,-2423.606396737043,-2144.4477503944654,-1309.239089608891,-2012.1588496002369,-2068.953543524258,-2529.63849550311
2025-12-12 18:09:46.114260,Right,-1033.6708721708274,-1414.2868028318044,-1453.243990319199,-1289.4186593675986,-617.4104047845467,-1216.9772685077041,-1242.4179232300958,-1519.7306344904937
2025-12-12 18:09:46.118295,Right,-666.8396854976891,-901.3221031537978,-930.0347918075277,-831.9309864020906,-517.7753972691135,-790.1337019964121,-793.0759725330863,-974.1499439226463
2025-12-12 18:09:46.122285,Right,-964.9873047384899,-1308.9620119195897,-1349.7623926362721,-1201.2875642179279,-948.1517388124485,-1134.665006877156,-1149.085619133315,-1412.1629637191072
2025-12-12 18:09:46.126308,Right,-1370.7290185667807,-1876.0750329399016,-1927.4706733115017,-1707.9185889179353,-1108.470470735163,-1608.6783545971848,-1645.7100681579905,-2015.4237667685375
2025-12-12 18:09:46.130320,Right,-1225.1275968439877,-1675.4000109029002,-1718.6113027317915,-1525.6447089334251,-777.3311519328854,-1440.0357548178872,-1471.1953369305702,-1796.2842560531572
2025-12-12 18:09:46.134335,Right,-648.0216946147848,-875.3007287516957,-900.0180966111366,-806.8153423236217,-463.52317380637396,-770.4561976433033,-769.4124949770048,-939.5630873806076
2025-12-12 18:09:46.137330,Right,-328.13121978373965,-445.2376990438206,-460.09489581687376,-416.11801054759417,-457.329540968698,-407.4650198603049,-388.664560116129,-479.6149789154297
2025-12-12 18:09:46.142296,Right,-564.8514756431687,-786.5704915828537,-806.7298278639792,-718.1270639844006,-531.0913872273522,-689.9624704609159,-685.7683139193105,-842.1012801567558
2025-12-12 18:09:46.146327,Right,-896.000067681598,-1233.7031961407047,-1263.4646314831916,-1125.1819829092128,-513.9961007267702,-1067.761261782609,-1080.7059446241474,-1318.129395237891
2025-12-12 18:09:46.150356,Right,-776.7535527509172,-1048.9056105152704,-1077.5439351203386,-968.4253888378153,-483.73371451778803,-918.640737743699,-921.8858590676682,-1122.0933030131273
2025-12-12 18:09:46.154412,Right,-315.19923310610466,-421.30615876836237,-435.8522362059448,-400.7438208736712,-409.5659958044416,-389.0447890161886,-369.5463605779223,-452.04604373150505
2025-12-12 18:09:46.158398,Right,-63.91935056715738,-105.90026025852421,-107.49290601431858,-103.03761502873385,-196.44493344816146,-113.87179121782538,-88.95449779479532,-110.56957307690755
2025-12-12 18:09:46.161412,Right,-236.69170236901846,-348.7631644811481,-352.23051634652074,-317.8822239167639,-44.515820745844394,-315.1102769493009,-302.35314072767505,-365.1733358016936
2025-12-12 18:09:46.165415,Right,-466.0785924816737,-638.412591570639,-652.8379981970065,-589.8201341628446,-197.14919732959243,-566.5740441505914,-559.6909866692149,-675.9753879301134
2025-12-12 18:09:46.170435,Right,-362.8801416999195,-489.9025605728384,-505.74347928736825,-461.6347537493566,-399.185832749994,-445.38048420776613,-429.67057935672347,-522.4632913154783
2025-12-12 18:09:46.174428,Right,-26.255023138422985,-57.98316984093981,-60.94100412161788,-62.46858503163094,-214.10388126139878,-73.92921456845943,-48.78020112059312,-63.020861920842435
2025-12-12 18:09:46.178447,Right,161.20658871615888,179.4526034395676,186.86623380333185,159.10526541277068,181.00104108752566,132.27252423821483,158.1668793237186,191.5607962583308
2025-12-12 18:09:46.182495,Right,67.76818116597133,71.96545855223667,74.11983732366934,53.695381381578045,200.52584850165294,35.536185084230965,59.587819411448436,74.87844314059475
2025-12-12 18:09:46.185483,Right,-72.20105100944056,-98.56689046716201,-106.70711683484842,-109.64230591550586,-149.45446693184203,-116.56260362378089,-91.47045844292734,-111.7809676247125
2025-12-12 18:09:46.189476,Right,-21.907166606310057,-45.53316901042126,-51.58569073319086,-55.99982632356114,-230.9986215891986,-69.99418504553614,-43.071964324539294,-56.23930058616679
2025-12-12 18:09:46.193485,Right,175.41415673334268,201.13269114430295,207.13341909062,176.56249584822217,146.90272444246511,143.26026096125133,173.1143502073537,210.33886705388431
2025-12-12 18:09:46.197508,Right,316.1819293265289,402.5992013509822,414.16697923769243,355.2663295529346,398.3399517053622,310.00256390107097,346.6194434367644,427.03387734633
2025-12-12 18:09:46.202512,Right,307.157984280253,409.9966088898509,416.6219389927064,353.5251729834854,176.09480230967165,310.322048866612,352.3854496335116,433.1993674284022
2025-12-12 18:09:46.206519,Right,237.47804115499457,305.77625194457323,308.9174260471127,262.9232770723338,-53.296303997309224,226.00512554151646,265.0038558668284,322.3918621653065
2025-12-12 18:09:46.210538,Right,237.24335975799477,283.84624579097,291.56535613015876,253.04377305994785,137.6758139574049,216.1876860641978,249.81954641710036,303.86970650561125
2025-12-12 18:09:46.213556,Right,335.0278688375547,422.3710817463143,435.61223525059177,377.3447955471929,414.58238910901855,333.676019532606,372.03910412329424,455.2602005725639
2025-12-12 18:09:46.217562,Right,451.58394724117534,600.8191065343999,614.8561038660118,530.5121647636261,342.7941402685101,478.99942032879335,528.8471248408314,644.003772598764
2025-12-12 18:09:46.221567,Right,498.92314604105195,659.584667810559,674.0925923846662,585.5285573875008,161.7059200499789,530.1836830254615,582.4151117794681,704.3239999919606
2025-12-12 18:09:46.225591,Right,472.27548309954,601.3229049755319,619.173398718005,543.0241893206548,278.37989571470825,488.3231379908684,531.6158870370709,643.3288727868057
2025-12-12 18:09:46.230535,Right,445.4298648817057,567.8931033667468,587.1374385355448,513.8955835400266,493.34516554469883,460.1773143708124,498.6970453414833,608.855403468071
2025-12-12 18:09:46.234597,Right,481.0930256501888,639.9017709539039,656.4691008855589,570.9397303068545,411.04621367622167,513.6871611595852,558.9020413306425,683.1173727661953
2025-12-12 18:09:46.238613,Right,563.1709442727151,752.3040812110994,768.6411382483784,672.6954562290339,219.6599988217058,607.5524893278489,659.223847448302,800.5194110666635
2025-12-12 18:09:46.241573,Right,626.6951521207229,815.6113501013024,837.3296534417314,739.8662633801578,340.48587321687955,668.2882647304214,717.4820996619528,870.0242383254226
2025-12-12 18:09:46.245632,Right,634.4378736453946,822.7034578859457,847.8278839574778,748.0078535460052,606.3997564285819,676.237293598766,722.4850687976577,880.5946030466002
2025-12-12 18:09:46.249638,Right,605.6276348376996,806.9887156249024,828.0491237026872,723.2712360111764,545.214614947472,655.4773481113953,706.168444842915,862.8456952247652
2025-12-12 18:09:46.253656,Right,587.9691853635013,790.6303695606184,807.369861842948,704.0502035378013,271.33795194048434,638.0268926803838,693.2498251044308,843.1199283977621
2025-12-12 18:09:46.257679,Right,620.6192293529166,813.2002906437847,833.5323632560903,733.7947994147544,310.7250140127726,663.9517950839363,716.7347112052958,868.7443775803549
2025-12-12 18:09:46.262712,Right,700.9307064923923,911.1389966622228,938.0496136971051,828.8145117084496,643.9121447958169,752.3983476474532,803.2018194293487,976.1177431797842
2025-12-12 18:09:46.266771,Right,767.5324711051653,1019.8964906815672,1046.6575072285486,920.5696581307566,722.9444800922647,840.6734099693713,896.6694688030984,1090.3843485346297
2025-12-12 18:09:46.269751,Right,751.8656593191554,1009.7003661937779,1030.9898878197419,905.8824517258909,447.56101121980464,828.6308117625886,887.8458635767456,1074.3285713888472
2025-12-12 18:09:46.273756,Right,678.0122774508782,890.7331962253666,910.2951084054075,805.1232995239552,331.3678955733194,732.9296174658812,784.9336228831671,945.2662297521019
2025-12-12 18:09:46.277762,Right,664.2579159424058,857.582151172217,880.9199093896896,781.8567878805334,576.5146311517456,709.2302212256473,754.499359557638,911.7757253732998
2025-12-12 18:09:46.281749,Right,767.9946728682844,1014.5616976181045,1040.9171936071943,918.5953010986559,746.2565220492543,837.4081067471998,889.4596908576787,1080.3049102543155
2025-12-12 18:09:46.285774,Right,875.951941316016,1177.1712446495658,1203.0807668402558,1059.675812228932,581.6980526203406,970.2492947537685,1032.9998276727274,1252.769748920342
2025-12-12 18:09:46.289772,Right,841.8722066605696,1117.299738188507,1142.3405039621284,1011.4014462168561,431.044390894298,924.5008844333934,983.9760804035468,1189.5442076044856
2025-12-12 18:09:46.294802,Right,709.558306264691,921.9588925797725,946.8422696051421,842.1224245219491,559.5309715420008,765.6217810902745,812.5699726882158,983.8294190042652
2025-12-12 18:09:46.297790,Right,675.4845827961108,890.1975556176621,914.4315054392209,808.4896324177971,686.6361648036982,735.2186257962603,780.6058883137302,950.3484821213642
2025-12-12 18:09:46.301804,Right,807.0115718304878,1088.4046107222093,1113.5311822497752,980.0522808636306,577.4634166054893,896.0220648898976,952.6033239600947,1159.3577159197303
2025-12-12 18:09:46.305826,Right,928.8127055115765,1242.164841192891,1271.706950457883,1124.2216755100526,494.63357005722355,1028.4716091469163,1089.9776432127692,1322.9435856527416
2025-12-12 18:09:46.309835,Right,869.6126157062827,1140.0771610104712,1172.5561242967378,1041.7738641817123,646.1326954448596,949.381690689479,1002.0144334963989,1217.031987167662
2025-12-12 18:09:46.313846,Right,715.1946835133713,938.913952713483,967.3181747298222,856.9503179464955,740.3607435647282,778.8360854149796,823.7515896095429,1004.2462637224235
2025-12-12 18:09:46.317865,Right,687.1879210285842,923.86362770712,946.5664988120552,833.1107791584218,553.8619106924161,761.0992255485617,810.1100377172697,986.9090133779682
2025-12-12 18:09:46.322873,Right,824.2094150882913,1104.4355153808137,1129.513176227454,997.481279311236,418.1856275800383,917.1996096738148,972.0277185969753,1179.8499978709733
2025-12-12 18:09:46.325896,Right,932.7632204069523,1228.0177893056534,1260.5081326893996,1119.0205021925503,620.8042938153958,1032.0928994304268,1082.9943439647323,1316.0427543029655
2025-12-12 18:09:46.329922,Right,866.1655619118828,1140.7172967290971,1172.7914064994548,1039.477449927479,812.8268052925123,961.8471323128324,1004.07232877356,1225.9042317786952
2025-12-12 18:09:46.333911,Right,720.3800665219314,969.4954934652196,991.9729378122138,873.4488505707122,608.6933643847005,812.1079184008995,850.2463835026138,1040.25074572023
2025-12-12 18:09:46.337929,Right,687.3017309902934,928.3579314114759,946.0075283647748,833.7538357017329,331.6075906738406,776.001554932096,813.6057684274856,991.5927640260197
2025-12-12 18:09:46.341953,Right,796.6982730369782,1052.897780155763,1077.364546364639,956.0381018321496,479.61991062841844,886.2260116499383,923.1955813631648,1123.804663256975
2025-12-12 18:09:46.345891,Right,893.9526330925291,1177.9030715273693,1209.0998389767483,1072.4106094522867,816.0528490840225,991.702931820997,1030.4836363542126,1258.6347872347105
2025-12-12 18:09:46.350963,Right,851.6284356600372,1141.792898776359,1168.5336888984311,1030.5071114327293,755.0621939473785,953.0356137829367,996.0795531005133,1218.7311766515486
2025-12-12 18:09:46.354006,Right,725.1332497458206,978.2841740332078,996.6867299326696,877.984126259922,396.38581289490685,811.0845068816561,853.4786759178387,1041.6829821497668
2025-12-12 18:09:46.357960,Right,671.6601266851649,884.7997455711011,903.8203436841723,801.9221499819541,354.36393093923107,737.955556791625,773.5047866307432,942.7425266669597
2025-12-12 18:09:46.361965,Right,750.9429523241706,981.3104543949012,1007.6713270719629,895.4284011330456,678.955980833387,823.7873491607606,856.8568341425853,1048.2298020373564
2025-12-12 18:09:46.366004,Right,851.866782957688,1137.297275732737,1165.8555641344283,1030.3791026251856,792.9842461548978,951.6627289003227,991.1607521544211,1213.7726652070414
2025-12-12 18:09:46.369961,Right,832.8539851296227,1124.6299119240139,1148.3275494927075,1014.0687104527606,524.0672488743439,938.8522377293557,981.622489077854,1197.0681293858215
2025-12-12 18:09:46.374026,Right,707.2337226774544,937.1286539670546,957.6081193606369,851.8458453735802,366.8106390014291,787.3841340425424,821.3835621108301,997.0435348586179
2025-12-12 18:09:46.379032,Right,633.0550387301482,821.9986281264573,844.6342450000811,754.6987457183423,563.7403609618777,696.2577701224945,721.2341768537881,877.3263418797869
2025-12-12 18:09:46.382050,Right,702.2466430990025,931.6934637762606,956.9465007751714,848.1384448322933,711.2529553835047,785.1962540108943,814.7576174744172,995.0212052611168
2025-12-12 18:09:46.386062,Right,807.2151653436013,1090.8544351716992,1116.2344273428898,984.6704431208782,544.9287562385434,914.6921094403369,953.4887646760326,1162.0627671356779
2025-12-12 18:09:46.390061,Right,785.526795052574,1048.3155702752993,1073.4704955311026,950.7328629193362,396.47381085227244,883.0417263737181,917.9698009134736,1115.5481663192622
2025-12-12 18:09:46.394027,Right,652.1540843179682,850.2809062653687,875.0593590079807,778.7444889633916,522.344788557617,722.251314357738,744.3180071149254,906.4704136622604
2025-12-12 18:09:46.398073,Right,580.5765227014199,765.5383020667359,787.8670204018708,697.6594852445414,630.1372097933199,648.259063728503,667.8376774948556,817.1697677206248
2025-12-12 18:09:46.402040,Right,651.5234128104057,881.0083166447002,901.2714274863247,794.660669241217,479.1140873931581,740.312017429038,769.4903175553773,938.577515777899
2025-12-12 18:09:46.405044,Right,739.4746060973266,990.2538528160658,1012.8285451617558,898.6829195463797,358.3180393782677,835.7777534595225,868.8447529154364,1054.8290795886423
2025-12-12 18:09:46.409112,Right,702.784203385585,920.6703796754591,946.6418065528851,846.3142559002154,512.2823124314891,784.1512135089142,809.0268440311775,983.8234832002781
2025-12-12 18:09:46.413116,Right,585.4955594800413,772.141819938086,796.005129020894,710.1028749319958,636.47615821613,657.1846158431144,675.8454738091677,827.585633344017
2025-12-12 18:09:46.418131,Right,536.6250108132372,731.8985721906647,750.6119290133938,663.8015697011724,448.6936447273474,616.1321813757531,639.1360538341105,783.1528544351459
2025-12-12 18:09:46.422142,Right,591.3742052004673,802.9994810426142,822.3233791065868,728.7976754321717,261.5285988243995,676.8313223652076,704.7810935257003,857.8719789641909
2025-12-12 18:09:46.426104,Right,642.686974177137,846.6229210458696,871.8526659118943,777.9880220789928,424.47891532769427,720.8241470908979,745.9617210285505,906.3792708327528
2025-12-12 18:09:46.430183,Right,611.8723085054662,800.7355681648478,826.7672318078112,736.5501016029157,646.4547090108972,682.2862084152875,703.9110974458745,858.2813456146978
2025-12-12 18:09:46.433173,Right,543.8090792254079,727.0958527801558,746.0240680484567,659.4329453264363,499.984677326167,613.0820000030799,636.8661862047156,776.4285470722243
2025-12-12 18:09:46.437132,Right,515.534876974998,688.2949928031303,702.5225673732348,622.1458253591554,215.26750914321747,580.3241038405104,604.8247991140233,732.5376076602843
2025-12-12 18:09:46.443210,Right,531.604481767281,686.4974001921946,704.7127676114906,630.5866951752687,280.6587659975048,588.7315656528808,606.8024497267324,733.7808867748827
2025-12-12 18:09:46.446218,Right,545.2641687394353,700.4964354769327,723.2311694954988,647.5623908763519,553.2322596817976,606.2436409706715,618.8922730971826,753.409535890678
2025-12-12 18:09:46.450243,Right,529.3494533293415,702.3106232747668,721.7238653097302,641.2088247356005,515.1442835535854,603.1707888128003,618.3058870908571,755.1314004294109
2025-12-12 18:09:46.454232,Right,491.7538380062906,660.241210536682,673.5630932111526,599.1661563565722,215.88232038845308,564.4239062295528,581.9207298788242,706.8742659133859
2025-12-12 18:09:46.458197,Right,454.26074625120964,588.1514156693593,601.1305811121128,541.933625708567,173.43005979503505,508.2873208656674,520.0909824351547,629.120339148445
2025-12-12 18:09:46.461291,Right,438.9525882655289,555.7270558341406,571.656111418386,517.2798473093426,425.72303503588773,483.22554303344805,489.3276006223168,595.5217851947527
2025-12-12 18:09:46.465304,Right,449.82056239794474,589.6612865913194,604.7329782821471,539.9922787939431,480.1213587212842,505.44329465331975,515.4135104471352,630.149633477442
2025-12-12 18:09:46.469284,Right,456.42478091455996,613.0582516144495,625.294987718109,555.199804515345,231.05959168227855,521.1424669777043,536.9820871045813,652.702931386535
2025-12-12 18:09:46.473288,Right,424.18184653809294,554.6112326427829,568.4341357896337,509.98966488824226,135.9938055544626,478.4974902801914,490.4725992932217,592.8467002061661
2025-12-12 18:09:46.477314,Right,367.26126853504684,466.57777449837886,484.46612356370315,438.26920414774213,346.6725750959595,411.00845160370227,415.02913758007344,505.2480564354919
2025-12-12 18:09:46.482313,Right,336.1921055143466,445.39162300911266,462.8837722640019,413.3265662562335,433.3683321100543,389.01984386437107,393.9353507220512,485.3993366739014
2025-12-12 18:09:46.486337,Right,344.7107888488099,478.428049670998,492.10528520087246,434.65636795863975,204.91798189654946,409.9526068381965,421.3176968876505,517.8102893879404
2025-12-12 18:09:46.489339,Right,350.1742654998088,473.86411361629143,487.084965866874,434.3213776227785,71.62214906857116,408.3664068238577,418.35935012449045,510.13645831204485
2025-12-12 18:09:46.493339,Right,322.0126620900119,415.8530099071795,431.34208089404274,389.3816894625779,268.85779225023,365.3553097031545,366.9424906352069,448.24078029592056
2025-12-12 18:09:46.497371,Right,285.6499008758692,376.262911202386,389.98888286191504,349.3843220958952,406.10578414116753,329.8457014086889,328.89359096612316,405.03978944569826
2025-12-12 18:09:46.501373,Right,273.15474224765785,379.1179738903884,387.7948351772502,343.3148237190908,197.78302857436938,326.45039050339255,330.11734599189367,405.03137265634723
2025-12-12 18:09:46.505384,Right,272.5094281153288,370.1192961158231,378.5091539196437,338.4541507043177,8.355881408089772,321.3170546689071,325.1322084895801,395.4141460499959
2025-12-12 18:09:46.510396,Right,259.196086074342,331.95285160967615,345.46426751383115,313.3561874392908,179.4690036054817,296.5324809339363,294.01741165679414,359.47571919846814
2025-12-12 18:09:46.514410,Right,240.02626537776086,314.00549901032355,329.137076053652,294.8064850686351,387.2421609320445,281.16800223768223,276.8265626420034,343.58100717456546
2025-12-12 18:09:46.517415,Right,228.15498995687813,322.5707805651473,332.4027141518891,291.68017656716984,234.61458610516274,282.60829671518877,282.8119906077627,350.10035667277407
2025-12-12 18:09:46.521439,Right,210.09887853672262,297.0090928407153,302.1393083714647,267.71237490000203,-16.436371535994112,263.02082572877407,262.01795658585615,318.9997650993755
2025-12-12 18:09:46.525429,Right,177.90134009643225,232.53624981758185,238.7073865123093,218.5226433465723,68.26773391081952,217.74159465683624,206.62214963289443,250.32336894003674
2025-12-12 18:09:46.529451,Right,159.23426537646446,210.32565877388697,218.44778413057793,199.64534506888594,297.1879053020384,200.76175368367694,184.12130424182396,227.93419295886997
2025-12-12 18:09:46.533466,Right,170.267719653144,252.36874705634546,259.12255149683915,228.820476892055,220.85247976356186,227.95283681328874,217.3404922185,271.0444311441388
2025-12-12 18:09:46.537491,Right,171.77494459040463,261.45972061913926,267.62124776782,235.20275188959204,-33.94140430865809,230.54056816687807,225.79141092137434,278.6322907137219
2025-12-12 18:09:46.542538,Right,126.0702383320313,179.6203572053928,189.2652431242168,169.98146563360933,-14.802886390942149,164.64959831291344,156.16107590007596,193.24029057798907
2025-12-12 18:09:46.545518,Right,70.40151978365611,99.29215327778365,111.58650529431179,99.75713603035547,208.63929809228284,97.8363091229694,84.76572123961523,111.0233688534936
2025-12-12 18:09:46.549510,Right,68.70275639981264,118.9941586110508,128.98492985148914,107.96294916642364,188.84729914489435,109.07655045535648,100.05402383807814,132.11947274475824
2025-12-12 18:09:46.553581,Right,105.50560666719684,177.82893343642354,185.19707437988836,156.2712500442285,-51.72328227176331,157.69146098045167,153.3657802233356,193.0571821690537
2025-12-12 18:09:46.557526,Right,101.89916721108602,152.7453910765471,161.6617369283922,141.60312395746587,-70.04217385023367,144.25451710697962,134.67919166665524,167.23300113435835
2025-12-12 18:09:46.561477,Right,39.562728765653446,57.513639722485095,67.54865226813126,60.847786444064695,153.08914430020377,68.19567780860234,50.423432824842166,67.9397315258393
2025-12-12 18:09:46.565549,Right,-7.720006582036149,13.343851734010968,19.07986365875695,13.50018260453362,174.90106856945204,24.654381232045125,7.9839590128394775,19.42923158418853
2025-12-12 18:09:46.570560,Right,10.601677314611152,52.473410557198804,53.513463486684486,43.13159108586842,-66.40148037817562,52.70955550268991,41.609468667418696,57.0932342177839
2025-12-12 18:09:46.573568,Right,45.22470570541918,82.10081293602707,84.75608394265873,77.73208748700563,-125.31731226129341,84.14174231886864,70.19051533972379,87.60384079191135
2025-12-12 18:09:46.577583,Right,27.48871000582585,42.72103314002743,49.16768209816655,50.16737412981456,107.11828163242899,58.8377210998442,36.19126282504294,47.64854462508811
2025-12-12 18:09:46.581587,Right,-29.030571610142943,-16.396348630543798,-11.918469436990563,-9.091146016551647,179.92982967803255,6.508773165289313,-17.837204361509066,-15.477784007554874
2025-12-12 18:09:46.585551,Right,-60.43329104434815,-38.355860951996874,-38.69005000113975,-37.12838250095956,-75.92324457786162,-17.558873414585833,-36.75088980910368,-41.512554482906125
2025-12-12 18:09:46.589607,Right,-49.18944230803754,-34.742383300035726,-33.83503662701696,-28.516690000134986,-210.25664621189935,-11.260551413870417,-29.727854258730076,-37.43929407687392
2025-12-12 18:09:46.593604,Right,-35.000673312548315,-34.87272153416416,-28.150708193774335,-18.86501058319118,22.572248933574883,-5.1371630624635145,-28.06365500460379,-33.818578105885535
2025-12-12 18:09:46.598645,Right,-49.02710616981494,-42.537464681023266,-35.389944671071135,-28.77109438192565,196.3705556006753,-14.255789401009679,-36.92319834808586,-40.638972112792544
2025-12-12 18:09:46.601642,Right,-82.94891681167064,-65.33145963662537,-64.32645826350199,-58.67716308351373,-14.72996264512767,-40.04806161840679,-57.22365262953099,-67.74834109121002
2025-12-12 18:09:46.605647,Right,-113.2453170909721,-111.74653458950343,-113.99870906420983,-98.65471937315306,-239.81817422702443,-77.06555825576652,-93.38945296106976,-118.27759441448143
2025-12-12 18:09:46.609671,Right,-123.35309691875591,-146.1065231085231,-145.2116923534195,-120.640237557207,-92.89553179871291,-98.872216789081,-119.70000850650831,-151.33224272262305
2025-12-12 18:09:46.613696,Right,-112.0722839582595,-125.83600116337766,-123.09373156158836,-104.1535838804848,124.93398037549923,-83.07643497126992,-103.56474451118265,-127.06051362282597
2025-12-12 18:09:46.617763,Right,-102.7281233665417,-91.42515942268074,-92.58429947463446,-83.93973481244757,-8.017253887053812,-62.3287018625706,-76.98607855444425,-92.90873158694012
2025-12-12 18:09:46.621742,Right,-125.6667469014792,-126.18224718869897,-130.7568921574566,-117.10923301879666,-258.14345603030233,-93.42859964890522,-108.72352305531967,-133.73220027555362
2025-12-12 18:09:46.626745,Right,-170.66156159008096,-212.20950387598714,-214.88193726577447,-186.5792306944786,-180.9246567588707,-161.02954846821376,-185.36235531559214,-226.08997195505071
2025-12-12 18:09:46.629750,Right,-185.68101415768615,-235.5367230537231,-235.92810098547488,-206.35953146446263,57.14935388187587,-182.05484210239956,-209.57187896866526,-251.2230769165617
2025-12-12 18:09:46.633738,Right,-152.17913981746824,-168.80797748209443,-171.19787224657193,-153.72843383127474,2.3626224285399076,-134.48117583442945,-153.32648592434998,-183.12016671878519
2025-12-12 18:09:46.637744,Right,-126.08504582873138,-130.50389683400863,-135.06515035577468,-118.71520671021426,-241.87437500117812,-104.19547295707162,-116.23941553683835,-144.07030589610804
2025-12-12 18:09:46.641767,Right,-159.65437989028942,-198.9712145994563,-201.78986937525042,-168.7916047188337,-226.1513339167941,-153.6521898341598,-170.831609548899,-213.1609341140429
2025-12-12 18:09:46.645753,Right,-215.92287731892975,-282.5588261185985,-283.9512569139697,-239.33372555401002,-4.091925763546897,-219.1816160321032,-243.06255593257083,-296.82411840802524
2025-12-12 18:09:46.649786,Right,-221.4290538175742,-269.19451281150396,-273.4800863222408,-236.1627324110741,-20.289357943303912,-212.68459410074138,-233.4063260676885,-282.1341527999757
2025-12-12 18:09:46.652817,Right,-182.16886869307564,-207.0402663840705,-213.6322093978306,-186.08871734156855,-262.5839756405039,-163.58015260405955,-178.62156079020315,-218.47041407089637
2025-12-12 18:09:46.656748,Right,-174.2166981268747,-216.2863609635133,-219.53007092677854,-188.0677421194314,-284.98893936779314,-166.51644018067964,-184.64470168287062,-227.60327466169707
2025-12-12 18:09:46.660831,Right,-221.6494591004448,-291.09285128669217,-290.18017893558135,-251.2492324552968,-56.16816104881127,-226.86919256599504,-251.15267901450352,-304.1199761963362
2025-12-12 18:09:46.665828,Right,-260.78849542373064,-323.55989282498194,-324.11698148710275,-288.50075869751527,-25.290962495968415,-260.6528189791079,-282.6809104023996,-338.84595424444706
2025-12-12 18:09:46.669908,Right,-244.90239036630373,-287.5112598553387,-291.3843768767838,-262.3538768802173,-271.54218969848444,-235.18684600335473,-250.70774194108526,-303.3532685268874
2025-12-12 18:09:46.673901,Right,-213.01946632159525,-263.62417039027787,-265.74645142207737,-233.5481283629997,-342.59881036372826,-209.4753652691652,-225.97385548283637,-277.6144154859503
2025-12-12 18:09:46.677841,Right,-218.6180660785176,-291.3234198887367,-289.73605266537925,-250.5472142414801,-102.23057661457278,-226.20297604231746,-249.0325154523307,-303.6036007265793
2025-12-12 18:09:46.680822,Right,-249.17026956717018,-320.8754537553468,-321.2148653043114,-282.99104926774453,2.220466415514238,-254.06052651052596,-277.68056147996685,-334.6130534209078
2025-12-12 18:09:46.684898,Right,-261.8459786065214,-321.4855888008897,-327.11412449917407,-292.64434224575234,-229.4317953067948,-259.6698498098558,-279.72443510140874,-339.0026339496835
2025-12-12 18:09:46.688882,Right,-254.3657840611413,-324.98872826065053,-330.72326294268714,-292.55889787156775,-368.5553241610032,-259.0500318463892,-281.40426768016187,-344.9482599274197
2025-12-12 18:09:46.692909,Right,-252.5373844190908,-343.0337085132196,-344.2992893590126,-301.44349916267674,-150.5460560037609,-268.6082267794118,-297.8199085369997,-363.1829771512421
2025-12-12 18:09:46.697911,Right,-259.1991509900254,-341.58806862239726,-342.51812923315447,-304.7143595076632,27.20268226697226,-271.54056773678167,-300.8879950038099,-362.79890039903694
2025-12-12 18:09:46.701912,Right,-261.13244897458935,-321.7236203515786,-327.44778344093356,-296.5559860021167,-163.82467717425607,-263.43238708455465,-286.348725929769,-346.82578109708265
2025-12-12 18:09:46.705959,Right,-263.43786842067493,-331.35285798841505,-338.66964025542256,-302.83605586210615,-375.2446716814884,-271.3222336797626,-293.54912041753414,-360.6641029519087
2025-12-12 18:09:46.708894,Right,-275.44079104217235,-369.98122960262117,-373.4239679672464,-327.6650510133768,-226.3600555586745,-297.41484815083095,-326.6616750645044,-400.50443394464673
2025-12-12 18:09:46.712967,Right,-282.6809487279097,-375.7898457591946,-377.60391034494387,-333.55154001695337,-4.40588599765033,-302.773284524621,-334.2874725521251,-404.93646734935464
2025-12-12 18:09:46.716982,Right,-272.17759750329424,-339.0047912825248,-344.6804122059839,-310.0019517346809,-123.7509333367343,-278.5125611703843,-303.32444169864175,-366.9668257929734
2025-12-12 18:09:46.721991,Right,-264.98852455307497,-331.1296133858268,-339.139807863452,-303.4510985641391,-358.56409561084,-272.3324945293425,-293.1743090506061,-358.8126473996672
2025-12-12 18:09:46.725994,Right,-283.3952469206997,-379.6776704681106,-384.3795060189441,-338.1375972830574,-274.35053935064934,-307.11079884532955,-332.4971060717362,-406.22165587206837
2025-12-12 18:09:46.730001,Right,-306.0039367095451,-411.92141052451916,-413.7962357017095,-366.20217221730854,-40.74730025761528,-334.3700860477402,-362.13159819180146,-436.07610438822303
2025-12-12 18:09:46.734000,Right,-299.7272681516479,-379.7868346607429,-384.0116930170334,-346.8549165119184,-106.72049772980972,-315.12903940680553,-336.6753176373895,-402.6365778662148
2025-12-12 18:09:46.737033,Right,-279.0527517378796,-346.25280337396543,-352.82473894796567,-319.3671276278328,-355.3150266116718,-289.1424302731175,-306.4026490645483,-370.4460124493926
2025-12-12 18:09:46.740971,Right,-283.84658831334673,-374.4843439249089,-378.6694174746517,-335.92542351433076,-323.8771683689265,-306.2918937865179,-328.8565698003513,-401.28291503473883
2025-12-12 18:09:46.745123,Right,-309.9148332581972,-417.06287556508323,-419.1205481988727,-370.8062971670879,-73.31919618390384,-340.06971908849664,-367.29686584090814,-445.91086570668267
2025-12-12 18:09:46.749073,Right,-315.79939242935507,-403.5791614757036,-409.0539587998064,-367.5463762553409,-74.77453719437472,-336.8059683277388,-358.1884238875937,-433.7535672066733
2025-12-12 18:09:46.753094,Right,-295.1033731109346,-365.30348901922116,-374.9400718086981,-338.1590895092231,-326.2340199421742,-310.07296916720225,-323.648953102238,-396.20766177849146
2025-12-12 18:09:46.758116,Right,-285.92363957414636,-373.0792431925074,-381.2568273479119,-337.41632856515935,-355.31162627899903,-311.4216096564778,-326.9890959604527,-403.79247587831924
2025-12-12 18:09:46.762048,Right,-302.36351106874645,-408.4121818164713,-413.3218846130767,-363.6897771275835,-104.78495879870025,-335.985073826334,-357.73688357608626,-438.6626530588255
2025-12-12 18:09:46.765051,Right,-312.71515233494574,-404.3077805134817,-411.06491432501934,-367.5102840611944,-42.35646592080593,-336.4683616467519,-356.9319204055937,-435.20716267829994
2025-12-12 18:09:46.770139,Right,-300.70817457610974,-373.20063272694824,-384.1324613603647,-346.21545146603603,-285.7471599680721,-314.32611329463543,-329.90979314787546,-405.52747540333075
2025-12-12 18:09:46.774135,Right,-293.6568117416464,-380.22304920031456,-390.4788443307625,-345.53036090830574,-380.16272143041715,-314.94856032181997,-333.2507816819707,-412.57443132903427
2025-12-12 18:09:46.777145,Right,-307.22376375994645,-415.30696124688257,-422.0019352749223,-368.31673390785,-148.18112342891982,-337.9933920202893,-363.0808894788497,-445.4581473458675
2025-12-12 18:09:46.781159,Right,-314.7439998280024,-410.0216639999999,-417.7873144170735,-367.3390291814576,-23.705528687336482,-336.1021152434987,-359.8558973247418,-437.7484568799846
2025-12-12 18:09:46.786170,Right,-300.14924128807615,-369.98484439664753,-382.4729403357487,-337.8522488012677,-243.80847097115475,-306.92425864667166,-323.40761466807453,-397.011326249165
2025-12-12 18:09:46.790184,Right,-291.9678556327708,-370.3117985641002,-383.46399216743885,-332.3429347356432,-407.764370576042,-302.61879999475786,-319.0128975001862,-397.60998235072475
2025-12-12 18:09:46.793164,Right,-310.4658590799663,-416.47600901086116,-426.0322695384384,-364.1037515834905,-224.1721355529735,-334.04514620645205,-357.58686541672796,-443.2812484927708
2025-12-12 18:09:46.797138,Right,-325.7854544278234,-429.0547495326027,-438.30606210953556,-378.33327850321075,-47.42377400677651,-347.18161029880866,-372.1018425950315,-454.84325178375
2025-12-12 18:09:46.801200,Right,-308.93122861377196,-385.51122955209576,-399.07361021614634,-348.8817298912327,-206.94032340944977,-319.1469294615672,-337.63368546392303,-411.3413509182865
2025-12-12 18:09:46.805206,Right,-285.84024358034367,-361.52253723109607,-376.9314461861504,-326.4932445526938,-391.73242199001834,-300.2484907366452,-316.90105560590746,-388.73698139190674
2025-12-12 18:09:46.809244,Right,-293.2131586180185,-394.7341450348031,-407.507833475247,-348.50977194774896,-241.25304327829508,-323.562431239523,-346.6937364122132,-423.7235851675505
2025-12-12 18:09:46.814246,Right,-312.30223543808097,-417.62688307254575,-430.0075971846236,-371.6159220219706,-29.395995597238652,-344.8072478718241,-371.01545852061827,-448.3910043176729
2025-12-12 18:09:46.818264,Right,-301.53977915795986,-380.9657812133664,-397.5115388154518,-349.64102027151966,-153.4837950746296,-322.242926199513,-342.53509673191,-413.0991954013007
2025-12-12 18:09:46.821251,Right,-271.2636546053691,-342.0722077356186,-360.32110186235514,-315.6920498480322,-384.3689965243684,-291.66107091272715,-307.2110433176276,-373.71746492770035
2025-12-12 18:09:46.825234,Right,-266.31950700387824,-359.9879119376419,-374.2295106255915,-321.8960102619603,-289.16731216042535,-301.8342015297967,-320.34355154872173,-388.9660937519511
2025-12-12 18:09:46.829270,Right,-288.3311724772793,-392.8543666943442,-404.46837543300353,-348.94661704672035,-41.219354541331995,-329.95762638992164,-350.2002300157328,-419.3558673019288
2025-12-12 18:09:46.833288,Right,-295.522029736836,-379.7321412509773,-394.78659165347926,-345.81528643285856,-98.47875106381252,-326.8816633251263,-340.7740257336991,-405.87670327397063
2025-12-12 18:09:46.837321,Right,-275.45335908822017,-347.31565876619425,-365.5712522286922,-319.38311918248655,-346.87114297942026,-302.50899939995725,-310.6173575990251,-373.69817598874215
2025-12-12 18:09:46.841331,Right,-260.21841875615064,-349.4574076255085,-364.9482013300294,-312.6720919308136,-312.49113595322706,-298.1986097363406,-309.0553354069125,-374.16177298827097
2025-12-12 18:09:46.845335,Right,-265.96991633682046,-366.31206660787575,-378.2638077402953,-324.2154895479907,-49.79093341768021,-308.96775270509534,-323.4913916179212,-388.02386426599696
2025-12-12 18:09:46.848348,Right,-271.18644708086504,-353.086929509067,-366.95139732409734,-320.7315092534409,-43.57555508892983,-302.1103167735855,-312.8742901873193,-373.2364106720779
2025-12-12 18:09:46.852366,Right,-263.81104622478597,-332.95321221498307,-349.97191897197627,-307.121711016458,-303.7528859755257,-285.7932218373171,-292.62035207398003,-353.4980039513903
2025-12-12 18:09:46.857311,Right,-260.5283456390607,-349.095081232721,-364.0352815708611,-313.0995912767248,-344.07581221329747,-290.1540497978567,-302.2869943450205,-369.7359244256513
2025-12-12 18:09:46.861428,Right,-267.0206681577256,-372.2857364442898,-383.5018655688036,-327.5047163287527,-86.87678910698742,-302.07747087604366,-322.0915715988376,-391.60320156323723
2025-12-12 18:09:46.865383,Right,-264.4091773547116,-351.5506323465379,-364.5493875085376,-316.0575434968923,-6.361763290769886,-287.68991445278516,-306.82877805648604,-369.8430627286434
2025-12-12 18:09:46.869421,Right,-250.11567042284878,-316.85731901298277,-334.62458508531563,-292.22489574708743,-244.99435562739382,-262.85805281740613,-276.71033479156904,-335.74180133547634
2025-12-12 18:09:46.873404,Right,-248.80228116444778,-330.78725165477954,-348.5930446552811,-298.6701183092664,-351.4798295724322,-270.25032499077497,-285.962573618046,-350.43136393255554
2025-12-12 18:09:46.876407,Right,-264.01820315187797,-368.10827351908665,-382.1358245697338,-323.94924996519694,-124.785928798432,-296.34351155062905,-318.24387822131393,-387.03159044869244
2025-12-12 18:09:46.880438,Right,-263.2103209088673,-352.22286440699827,-365.9309550151229,-314.0563392775948,12.809699738398194,-287.08401327359024,-307.5576647485723,-369.8222144572064
2025-12-12 18:09:46.885453,Right,-235.53035909071332,-295.26286235312,-312.007803011802,-270.95218035322614,-194.4922560043051,-245.894062679552,-258.68178739154246,-312.5680032458622
2025-12-12 18:09:46.889450,Right,-218.9120790142333,-285.07979935372714,-301.25255032023415,-258.2855907807243,-361.30785253469367,-235.31934393534902,-246.74973208282609,-302.7214002911933
2025-12-12 18:09:46.893472,Right,-236.8257967796526,-331.08678465662524,-342.7332351830555,-291.84691930835834,-183.80618530575885,-268.74715160485357,-285.6447306381888,-348.1275452512782
2025-12-12 18:09:46.897497,Right,-253.7095082096639,-344.8847563508898,-355.1417263771873,-308.20219944854034,-2.8763338678400032,-283.96572712261695,-300.50782156171044,-360.27946161758155
2025-12-12 18:09:46.901528,Right,-234.6442770738504,-295.39106542419177,-308.60130583902355,-273.64066030917456,-157.09072222182294,-250.56128236773657,-259.1504103014013,-309.55056824185885
2025-12-12 18:09:46.904500,Right,-206.40135532611748,-260.97052090382203,-274.6730518909171,-241.48549238295527,-346.3261222666479,-221.21791035635397,-227.32551853044424,-275.23745287943166
2025-12-12 18:09:46.908514,Right,-210.20841614861274,-287.55166672635823,-297.4509195185965,-256.4403520253836,-200.88108981284313,-237.02426076575648,-249.68899456970394,-302.73326379351784
2025-12-12 18:09:46.913520,Right,-230.12517915217904,-311.470506681595,-319.80728395003825,-278.7380172010744,18.030122122669127,-258.2947371935006,-273.39845058409264,-327.27764010149986
2025-12-12 18:09:46.917524,Right,-223.24466263502836,-279.88169118901715,-291.25132766133174,-259.56321910838597,-93.19727957551368,-240.32354657846736,-247.56832360249246,-295.1716440357268
2025-12-12 18:09:46.921538,Right,-195.04525564669166,-242.8428575596772,-255.3236179650994,-226.1179041148862,-319.3018303645076,-211.4235410662368,-212.1439647913794,-255.99625089298934
2025-12-12 18:09:46.925563,Right,-186.40997737221187,-255.24009312107228,-263.8424346356187,-226.77044675662182,-225.82167835877044,-215.59859142900677,-219.16583947924664,-265.15512147685513
2025-12-12 18:09:46.928600,Right,-200.50935473578284,-277.8787001289893,-284.27919368015137,-244.30128036963288,23.857549370557535,-232.32336877059424,-238.9871847491595,-285.44446743186563
2025-12-12 18:09:46.932585,Right,-201.27746631752234,-256.47466004791204,-266.65086808253545,-233.74306700128363,-31.836936752253678,-219.18030216678744,-221.33550190227106,-264.3850170333171
2025-12-12 18:09:46.936605,Right,-179.99027100205421,-222.3421650461387,-235.88619799050502,-206.13915419549448,-289.4206789585296,-190.91323376999935,-189.30799388611922,-232.48915882292204
2025-12-12 18:09:46.940611,Right,-166.98418522940483,-228.05930962471757,-238.83297157892957,-202.89441626740154,-268.1595005503041,-188.14473684714176,-191.7473194928025,-239.87864989135414
2025-12-12 18:09:46.945589,Right,-173.13433343515499,-246.9388035737211,-254.1783301603282,-216.50069779111072,-3.6423352169804275,-201.0550191552029,-210.4856641771039,-259.39602464286145
2025-12-12 18:09:46.949630,Right,-172.4374752594158,-227.19290181563701,-236.82887826103251,-208.43244454928208,19.77138955652481,-192.3453885197523,-198.02495624957373,-241.03181922447402
2025-12-12 18:09:46.953668,Right,-153.787249655521,-193.40903580619488,-207.30428071483038,-184.996673047659,-227.97439066623338,-170.50285565649392,-169.60107744159177,-209.62420308671426
2025-12-12 18:09:46.956638,Right,-141.09797717729816,-199.3765089212684,-212.2942362059839,-183.83738302451093,-269.89318369014654,-171.3548532028217,-172.59964491339633,-216.74524002883118
2025-12-12 18:09:46.960671,Right,-145.86447806854267,-222.46197859290987,-231.93778611673042,-198.4815855313209,-16.150165121769533,-185.2324477157672,-192.93124648270896,-238.75896818120964
2025-12-12 18:09:46.964743,Right,-145.7628248576657,-204.3512660920387,-214.83333601267077,-188.76228705380345,67.41045444534393,-173.2371127185179,-180.12959012633655,-219.29323670000304
2025-12-12 18:09:46.968738,Right,-130.33153887832304,-164.51364354311954,-178.35076253931038,-159.98956245434238,-168.91705605445895,-144.83767364150845,-146.2856627262663,-179.59041950269602
2025-12-12 18:09:46.973753,Right,-122.87209366733441,-167.74757682840573,-180.25808174948907,-156.9157214750885,-277.5538664732012,-145.46680064167595,-147.48545706499135,-183.5776691690553
2025-12-12 18:09:46.977727,Right,-132.83626269403612,-199.71241414896213,-207.64657664793776,-177.30217257002369,-49.521084068052005,-169.84686502686236,-175.96066069894005,-215.43115109822247
2025-12-12 18:09:46.981733,Right,-131.73464820272056,-186.82377059193095,-194.26603980408981,-169.81582882400835,95.54553302912973,-165.20667868293822,-167.93864652875345,-201.93098092614673
2025-12-12 18:09:46.984739,Right,-106.07291224831715,-132.98688004619908,-143.44758895994164,-129.22888946329476,-105.73857644153759,-127.25194910954451,-121.57304062211188,-147.81650676665595
2025-12-12 18:09:46.988753,Right,-89.54677219985751,-119.42636899405625,-128.88535695604514,-112.93642505496973,-269.2896730712964,-112.5251045122277,-106.47459360398352,-133.4485983348568
2025-12-12 18:09:46.992758,Right,-106.78961350157624,-160.15000669762958,-164.2925590837258,-140.65163674979704,-83.76923797256313,-138.54635048570344,-140.17933229613118,-171.6552770868293
2025-12-12 18:09:46.996711,Right,-126.82044415356359,-175.79611666686833,-178.07762922853,-157.6284578727209,107.41941445038537,-152.27324175211834,-155.90868264698656,-184.07411440229043
2025-12-12 18:09:47.000770,Right,-113.23852245922899,-134.46194427431328,-140.01291409641271,-129.88563476887066,-49.24403889250243,-124.66814007872017,-121.3760202730191,-140.97946214326657
2025-12-12 18:09:47.005809,Right,-84.33535091596423,-103.37944444455206,-110.16584199946374,-100.18933565658517,-254.95963298543938,-99.34329939947929,-92.28333452326478,-109.96548032283317
2025-12-12 18:09:47.009813,Right,-77.99154800485121,-122.39457227964886,-125.85558113228763,-107.2691504280665,-118.17055493270163,-110.26339403400198,-107.14470098889433,-129.40038694965187
2025-12-12 18:09:47.012820,Right,-86.293052144174,-134.8260514991125,-136.91949543339433,-118.48089724325109,112.19749696660438,-121.74158065376105,-119.4928048014408,-141.92533968674252
2025-12-12 18:09:47.016795,Right,-76.01277262391523,-98.44821207900532,-103.99903690489009,-95.63171086204238,12.311071504023857,-97.88654786907136,-88.60098078439478,-105.80889291333733
2025-12-12 18:09:47.020819,Right,-52.744164703879505,-65.45744269993156,-72.65711583464872,-67.35682788817212,-223.70336470060283,-69.56174956564792,-56.39850241871318,-72.89890689775348
2025-12-12 18:09:47.024834,Right,-48.896899108367506,-82.87841607467271,-86.01401345076738,-73.58516502886778,-148.35259680912714,-75.09831245278474,-67.84717581322184,-89.29903267766349
2025-12-12 18:09:47.029815,Right,-61.32696660369402,-103.60475938889431,-103.30556438385975,-89.67967285669874,100.07638643818791,-88.77450099523412,-86.78567854419816,-108.67757065268233
2025-12-12 18:09:47.033880,Right,-58.062738076318055,-76.72243116021855,-78.63822234107647,-74.5007744433824,57.27531312321662,-72.35134038195247,-66.32657542900415,-81.96807499596616
2025-12-12 18:09:47.037889,Right,-39.848040640645195,-45.12119195453124,-49.37982527195709,-49.811840265698265,-194.07175957030267,-49.993003501556814,-39.05423197534401,-51.889224858081434
2025-12-12 18:09:47.040893,Right,-38.22910895332461,-64.24215036834357,-65.39242666767677,-58.99587221414549,-174.94310735486215,-62.594119265151676,-54.86427834874485,-71.7782597252517
2025-12-12 18:09:47.045868,Right,-53.44761242409004,-94.37665375910001,-91.96938156540273,-82.4133437248529,94.98460722799064,-87.09997238958022,-83.27224527386716,-101.34341801446863
2025-12-12 18:09:47.048875,Right,-50.346954091626685,-70.65699466742808,-70.63686236995272,-70.06560199649539,131.5233024242334,-74.56931072106818,-65.79289901198354,-77.45075234235264
2025-12-12 18:09:47.052921,Right,-22.736834187497152,-22.78208393487148,-26.99606388329994,-33.377499157504644,-114.28826814534841,-39.266756909142714,-23.58490010537207,-30.803144450008404
2025-12-12 18:09:47.056932,Right,-7.195869540533749,-21.861222119478043,-25.099523190932814,-25.819874033448286,-170.96481186681194,-33.61846925818827,-20.123219672241248,-31.231550646421965
2025-12-12 18:09:47.061909,Right,-18.628975783241913,-51.746241903398186,-51.553828532167245,-46.57014811190311,69.27230352003244,-53.730037728266325,-46.31889077811502,-61.12909372278955
2025-12-12 18:09:47.065962,Right,-24.90856423115474,-42.070360422250815,-42.916302369732875,-44.26293775369413,152.7264182268409,-49.04064331279369,-39.79515090456698,-50.345744641381316
2025-12-12 18:09:47.068976,Right,-6.829034534370294,0.057929156871978194,-4.1973209772259,-12.993830852385145,-80.44787458906649,-16.985696457733866,-1.4892567519564182,-6.713865114492364
2025-12-12 18:09:47.072971,Right,7.2625441609707195,4.455798306444194,1.5654684486216865,-2.6123734390130267,-193.56937530820142,-7.189637675095582,6.709500260010827,-0.25245307671139017
2025-12-12 18:09:47.076931,Right,-4.784121552540455,-30.260500182572287,-28.433378750516567,-25.493354489677586,28.032847965077963,-29.09567103299196,-22.685847005806863,-32.49232000077609
2025-12-12 18:09:47.080988,Right,-17.15338788848021,-33.71886982914293,-31.424285608401988,-33.53914391587023,171.83394024684094,-35.0107265720726,-29.059066080866614,-34.325317706679925
2025-12-12 18:09:47.084998,Right,-3.3779818063485436,5.862128941633273,4.741333071899135,-6.927625829586759,-31.293411585356807,-8.245551342581166,4.53599973564269,5.853450010996312
2025-12-12 18:09:47.089039,Right,15.618914656428387,21.433304953563493,20.808977811946534,11.05036667684908,-201.39782977558207,8.401093850581674,22.388141966308467,22.966794131789356
2025-12-12 18:09:47.093013,Right,11.322885375207989,-6.979260649008211,-2.4403946792008355,-3.903788085997803,-17.057892801589333,-5.335812887497013,1.5022037152666599,-1.9365021890844218
2025-12-12 18:09:47.096055,Right,0.24369545534136705,-16.16226165398257,-9.61616698274156,-12.566841502935858,184.34207127252012,-9.739286563475616,-6.861433455866063,-7.89455485844519
2025-12-12 18:09:47.101066,Right,11.88234677966102,20.71633303031558,23.984933271625778,12.769782216579188,36.11073549624416,18.30538976957905,24.391538593074074,29.23107934172731
2025-12-12 18:09:47.105064,Right,33.412851941393455,44.38762136179139,46.19936796516413,36.059036830381956,-173.97539554178366,40.07855924620526,46.60708170212456,50.75929406360956
2025-12-12 18:09:47.109092,Right,34.32823344130884,21.978986396396067,26.985931032540975,25.74970248961472,-43.84522922520409,27.09621430732659,27.67907092353562,26.52770147373667
2025-12-12 18:09:47.113092,Right,22.526646563143004,7.720954969845479,14.05043034281698,12.920708386722254,189.40858130840934,13.919586529460503,12.47780431812862,11.853858921967912
2025-12-12 18:09:47.117094,Right,26.25163688804605,37.082350956537994,39.62517872735043,29.334810973436106,93.50860686507076,31.307577784114983,36.29326548302197,41.27544292990933
2025-12-12 18:09:47.121073,Right,39.263826715498,57.04334662074689,57.16034588046023,45.24554987071315,-148.06843398451747,47.23914130611229,56.25760513008572,61.29350793513004
2025-12-12 18:09:47.124125,Right,35.38354709459236,28.13432524332893,31.451588003255893,27.838028089987347,-77.19403434105334,29.424961393378908,33.361967929056846,32.75682853820035
2025-12-12 18:09:47.129081,Right,23.727186638410785,6.035914100590162,12.24138477811357,9.86961991386488,182.08385965150956,11.50055555315339,11.22400607803138,10.755494178156368
2025-12-12 18:09:47.133147,Right,35.922730267528095,43.283610133395996,46.84526749551878,33.97142200754024,153.34436702349922,34.46690923164715,39.18513487902237,46.71683119863155
2025-12-12 18:09:47.137164,Right,65.27615950007748,89.65635891913553,90.17476640714449,71.7624066938879,-104.7890263874433,68.96642965715728,79.20599782431964,90.91663141830941
2025-12-12 18:09:47.141228,Right,73.17359202870284,78.97093058918836,82.04305773819215,70.23329965496669,-110.64895834882918,64.66266842297046,71.56301668984815,79.06604403950041
2025-12-12 18:09:47.145214,Right,56.364680309488904,46.63148463869584,53.753697569598444,44.95707030486665,141.7136824006011,39.57687787216855,41.629819317517104,47.27273364746361
2025-12-12 18:09:47.148185,Right,52.89102847946924,62.676382674864726,68.878784527682,50.28681074958877,177.29116886272095,45.97908795946569,51.771277525869664,64.31412643927615
2025-12-12 18:09:47.152263,Right,73.47004389854555,103.36691195287858,106.5813185837469,80.41939167829696,-66.55368425376946,74.89284835799481,86.96237086546898,105.53307335628779
2025-12-12 18:09:47.158227,Right,82.8372798741475,97.15555282044807,101.5694218708959,82.18268576452101,-122.94681083348405,74.26760405067762,84.556833163384,100.14816213052836
2025-12-12 18:09:47.161173,Right,65.74195049070113,58.82506292227481,66.23436830007995,54.99245215050178,127.17614838470763,46.464950423833216,51.901008118351456,63.41645619866904
2025-12-12 18:09:47.165229,Right,56.233789420031826,63.21450839737372,69.20612322411034,52.90301170235034,229.0033088747441,44.46867587903398,53.53243062349793,68.90008858134388
2025-12-12 18:09:47.169242,Right,75.78537600324489,107.84735490425373,110.41510378937528,85.28417833590356,4.7411909707661835,74.32933353782573,92.08231494210486,113.12776341101562
2025-12-12 18:09:47.173274,Right,94.41836505958781,119.11478916747728,123.35036546720949,100.3065874058957,-113.1245970789605,85.09731623754487,104.04793280831655,123.56650187054765
2025-12-12 18:09:47.176273,Right,85.85578262875788,88.20935246652516,97.51223546802066,80.35142099586665,106.86689511647273,63.60430652486684,77.00078092917101,92.67073818053177
2025-12-12 18:09:47.180290,Right,73.76686246688769,83.28568383243692,92.95051026516012,71.44981450935302,258.8735714958748,56.92944707766583,69.63016209845955,88.07025173016882
2025-12-12 18:09:47.184312,Right,85.72303838576045,119.54111097948044,124.71333332979702,95.44750930489681,58.240798845705285,83.23530000576284,100.44810727717413,124.21210690232692
2025-12-12 18:09:47.189311,Right,102.9083267420283,132.79662584564358,136.2967418233893,111.21777213193127,-124.44085153862397,99.23985519788403,115.20210918571684,137.70752877018822
2025-12-12 18:09:47.193267,Right,97.04706384996462,102.35030274398014,108.21677998910309,94.09910828460852,45.507970193750225,82.20973704971402,90.74768740565196,108.60554215298907
2025-12-12 18:09:47.197330,Right,82.56347990319773,89.0299751658531,94.15860734827584,81.2712978004347,243.4553643518957,70.42925124269823,77.49129173276742,96.57066749161459
2025-12-12 18:09:47.201346,Right,87.55392516721258,118.68830734229414,118.25190080324683,99.53009794697573,95.61094770897034,88.604960566925,102.31227389701962,125.97279578002781
2025-12-12 18:09:47.204354,Right,101.05707158720907,133.49094981070812,129.98344408613775,114.41776350705914,-120.11795856882236,101.53035210436792,117.34762862741627,139.51348001997394
2025-12-12 18:09:47.209353,Right,96.08552546873761,103.23639761335653,102.14289382081915,96.94189156846551,5.912013244302216,83.18082599378249,91.65461060329108,108.36987430740555
2025-12-12 18:09:47.213373,Right,82.77872795392614,85.2061513268527,85.2682399944606,80.54731801564049,247.01814926170118,68.99337318033213,72.08083634308423,89.75478101982662
2025-12-12 18:09:47.216396,Right,89.2441346672137,116.95944510646223,113.27347786003156,98.73461303648219,160.76511936336829,90.28374245472514,96.57725500631568,120.74006231216481
2025-12-12 18:09:47.221380,Right,105.77000720245724,142.42613754114245,136.7083265895817,119.62084970407523,-87.14298013197913,113.03303155603135,121.41692912746112,146.5390409120555
2025-12-12 18:09:47.225421,Right,99.97181490502771,113.26014410256539,112.04346228680879,102.83706958834955,-34.480300055338375,98.42462302776948,100.82246831565863,120.59144866045972
2025-12-12 18:09:47.229418,Right,77.77240411010825,79.57456498487272,83.39376505155997,75.35057860192501,214.3190416805919,74.89735476681699,72.58465310784186,92.07648986988079
2025-12-12 18:09:47.232425,Right,75.54872134800462,99.53655589793834,102.82469851531084,83.59424861536809,187.6050760447206,86.6455818680156,88.82802700485581,115.80119157398167
2025-12-12 18:09:47.236389,Right,95.0965430439901,133.54546390344876,135.12508171727313,108.8886828914192,-66.6253561888002,112.71766173479227,119.42083397953502,150.46683528630092
2025-12-12 18:09:47.240460,Right,101.40237814051216,119.56809743855047,124.23346852525901,103.65176995707134,-69.23283420055486,107.23895324637124,108.67686192301517,135.6932164807513
2025-12-12 18:09:47.244501,Right,87.50478419741557,89.16334947280484,97.76801936119227,81.01292917764658,189.77302573213274,85.89234180380299,80.0734962892966,104.80553759224131
2025-12-12 18:09:47.249488,Right,85.86189508037933,107.55191462283983,114.60328063047928,90.17367809462667,227.03274381690244,96.57095022784415,92.8154799943477,122.51252802425734
2025-12-12 18:09:47.253489,Right,105.6135422392108,149.69433122320333,153.154607964967,123.10094374692562,-30.842786931038063,128.2318254724196,130.53077272622613,163.19135224758793
2025-12-12 18:09:47.257456,Right,113.64591207904596,144.32967506071145,149.0074904111243,127.01679426319606,-106.10834078571679,128.83072425065257,130.07070308111724,156.9200866099127
2025-12-12 18:09:47.260520,Right,95.51958191428275,104.74338774042553,112.67486583044956,100.40913707455184,140.16644105127853,100.3716081819075,97.23714939261845,117.96587116024602
2025-12-12 18:09:47.264547,Right,82.99134462318762,103.38041374808381,109.26692221081612,94.61901891625894,249.61009881815335,94.85989322423848,94.39011819572625,117.1382908663727
2025-12-12 18:09:47.268493,Right,97.1803008818606,139.0620626472737,139.4856141372802,119.35746018120699,22.709386795086175,119.69615314767725,124.88924984695768,151.31482024447178
2025-12-12 18:09:47.272558,Right,112.29817059455672,143.56321098596527,143.00922657262709,127.81706477395346,-111.94688318163753,127.86595902565023,129.76816664641956,152.906186342836
2025-12-12 18:09:47.276554,Right,105.20112291924306,111.55240705160395,114.2336127654271,106.29183548824949,97.3502682479666,107.90677535541181,100.01864264701726,118.29314076293667
2025-12-12 18:09:47.281576,Right,97.34761122937198,109.27357568815933,112.06933638568444,99.38604887008114,255.93708564405097,104.20898862618196,93.33777870329504,114.0499610780098
2025-12-12 18:09:47.285586,Right,111.8173040348338,147.28330013697268,146.8215741256572,124.68512867912068,65.52073565787578,131.31913760448515,124.924970281485,150.71924538517487
2025-12-12 18:09:47.288578,Right,127.7582280767383,158.2021009944583,158.59175852191402,138.41478418722545,-115.56208193437487,144.82277734292438,138.05290008799057,162.0184815695102
2025-12-12 18:09:47.292542,Right,118.93894640122016,122.69161287801398,129.17423212653375,117.30478172856965,55.28554162149521,124.24114984435437,110.06653910783643,129.12261159277114
2025-12-12 18:09:47.296627,Right,103.91230887576239,107.19496262317989,117.24983513177722,102.96210197945766,260.44473550095427,112.39439159748144,95.058234317592,116.67436816614645
2025-12-12 18:09:47.300631,Right,112.55345092562493,141.1597265139426,149.2858228337136,124.78780239776825,113.86344153100072,136.59512660937617,122.85595393538824,151.92623758244736
2025-12-12 18:09:47.304636,Right,130.38578072052042,162.08280745321827,169.10218869594974,144.8441279798135,-117.17878301736346,157.88647035715985,142.82635435677366,172.6737844106101
2025-12-12 18:09:47.309661,Right,125.09422901252401,131.5143927501922,141.22599295336113,128.17982135090278,-11.083263927990629,143.3028314808471,118.03006461334007,142.43785080446105
2025-12-12 18:09:47.312729,Right,106.69024374154105,106.30482391634723,116.35717136094172,107.90453291218728,220.82260120282444,126.71817151609866,94.25412288532243,118.46946620524977
2025-12-12 18:09:47.316721,Right,108.48537529470923,131.72574560184148,136.48087247656076,122.6568057990662,132.110176990951,143.9947450676991,114.01295330935682,144.48932711374073
2025-12-12 18:09:47.320723,Right,124.25002103109728,156.4602842809254,156.82923092335113,143.35874476769823,-119.69674294937431,164.32246327640314,136.41415758276707,168.4789812026429
2025-12-12 18:09:47.324666,Right,119.90225136085064,129.18296739668585,130.868458106459,127.46380445573595,-64.32048753202253,147.86758760607336,113.98431032858207,140.25419170573878
2025-12-12 18:09:47.328717,Right,97.86329976284469,95.61059902614215,98.73245935245359,99.49926886275352,202.8797805689319,121.8484867086081,82.70368076114391,106.44487824501994
2025-12-12 18:09:47.332740,Right,93.58298107466544,114.2955907745636,113.60884943215933,107.11787293096131,197.267960924597,131.93906632682774,96.44563638453837,125.27314975154877
2025-12-12 18:09:47.337737,Right,110.67763593207928,148.68512858400936,143.8619776534906,134.2472360481479,-54.713638729503145,158.80150870213402,127.75600835785735,159.91884421985014
2025-12-12 18:09:47.340740,Right,114.80182468880957,135.88847113958036,132.54326686165587,131.93028316128766,-72.69194333174528,154.26858628052287,119.05008513756911,147.8192684873211
2025-12-12 18:09:47.343768,Right,96.52790896342776,102.2368242754601,101.72756067587761,107.97399186529219,175.77579292678274,129.2574832305545,88.12394061096711,115.22010351408971
2025-12-12 18:09:47.348740,Right,86.40275281958748,110.62505846111162,107.7187778421503,108.87181423856237,219.11152110542025,130.52671606342483,92.06787848519161,124.31000566968578
2025-12-12 18:09:47.352909,Right,96.83649027181673,141.50598155718762,134.37462965832674,130.99079881941725,-27.93431916582631,152.28973124011827,119.62390953639988,155.30044571190956
2025-12-12 18:09:47.356766,Right,101.07483491214225,131.97491738852113,125.98459568704129,129.14742986657075,-101.5437492567653,149.21638512494974,114.69513196029584,145.88648289625417
2025-12-12 18:09:47.360802,Right,86.2888834529731,97.0734177987033,95.36525229897234,104.27484381641261,139.45813102894317,123.98153953350266,84.46729277202394,111.39916164678289
2025-12-12 18:09:47.364805,Right,78.05638755013933,102.2713240981684,100.62917337217368,102.36824925988913,243.57572671645903,122.19411705159291,86.23792515011155,116.72037783378619
2025-12-12 18:09:47.368983,Right,89.73717706714524,137.85226799020893,133.16014882028685,125.9397761226137,8.956708404017263,144.24243329915043,117.43649175541941,152.11624032846885
2025-12-12 18:09:47.371831,Right,94.09360454579291,133.22925605805358,129.37602304908796,126.19734680012334,-136.2461845462676,141.846749361197,117.30621034817887,148.12931725243106
2025-12-12 18:09:47.376828,Right,73.90885638304462,88.36818261136068,88.41009997666697,93.79513955357834,70.99963447995833,108.3678360979684,79.90408716510865,104.72921063323156
2025-12-12 18:09:47.380843,Right,57.745007971388986,77.45478447317146,76.838641617971,79.37641292034823,241.33682654310542,94.22900947413291,67.70452810931602,93.81885567828431
2025-12-12 18:09:47.384863,Right,70.60591309332813,114.51704759444692,108.4351404591871,102.77054669211793,62.23222489655018,116.02812205828377,97.8354402812256,127.6975991592335
2025-12-12 18:09:47.388875,Right,88.28696935111657,128.6709221083438,120.31311774242204,117.43917964823777,-120.00374613667373,126.67575156675593,111.10590916591173,137.00763631542213
2025-12-12 18:09:47.392889,Right,80.89622859441442,95.29266934777843,89.85388302817591,96.59262449058588,47.676947283995105,102.74699891652563,82.15289031158318,100.11005997579196
2025-12-12 18:09:47.396889,Right,66.32814488618169,79.8343027564697,75.38458856387297,81.58057862205897,261.0047387907398,87.28369196820131,66.15341321573942,83.31625653640367
2025-12-12 18:09:47.399903,Right,75.43025447121181,114.02693037266727,106.00695068607456,103.24162027725833,126.21304655668791,108.5897691630089,95.29156773837167,116.98155136534479
2025-12-12 18:09:47.403922,Right,94.0802852602792,136.14720748001128,126.68472195279901,123.44016434549121,-103.56617643790378,126.51723939692602,118.27613787047449,138.58200360744377
2025-12-12 18:09:47.408885,Right,89.11787978417124,105.87771597286337,100.22776127367979,105.48307215236127,-1.5414640422095545,106.17824955335527,95.19112400186714,108.38312352975481
2025-12-12 18:09:47.412942,Right,69.44987701870559,79.03028081572847,75.83432475067093,82.06415823110729,236.37669948273106,82.04676747342455,70.80158125777962,82.22700841422193
2025-12-12 18:09:47.416943,Right,69.40113110950915,103.64033088181168,97.44728800968733,94.7238417493354,161.06267217794084,94.08798263967037,90.87217099632835,107.2485096497112
2025-12-12 18:09:47.420986,Right,85.73978517558135,131.5890406218241,123.0977279866056,117.63342055527028,-88.44989595950756,115.02335474222491,117.94007086538477,135.3912239864294
2025-12-12 18:09:47.424980,Right,85.21544934205303,109.78642430418404,104.71998514415463,106.92182148079155,-46.98060381929099,102.6215735457954,102.35377214310574,114.43637276711524
2025-12-12 18:09:47.427982,Right,67.5589088734414,79.49225179225323,78.21417800479685,82.55950537224999,203.47873350146983,77.78215657285182,74.67681053857086,84.96428080793703
2025-12-12 18:09:47.431983,Right,65.54707971122116,97.99986597232055,95.13610928037087,89.79509998863796,186.51195351596107,83.19093117522425,87.03237329240073,102.29686576628592
2025-12-12 18:09:47.437010,Right,82.4524871075555,130.25297144672368,124.73582217175863,113.34700493089622,-74.9747386987583,101.90584794874303,114.3489215062582,131.16068625761545
2025-12-12 18:09:47.440966,Right,85.03366705145163,114.0808265597152,110.67722803080687,105.75569047607132,-99.0388155150722,89.37669907596137,101.28439515415812,111.65231413507718
2025-12-12 18:09:47.445035,Right,65.59926383085258,76.61050425749272,76.21447753469693,76.40485298840213,154.03259645440266,58.49688585093827,66.80060052682529,72.76595279597677
2025-12-12 18:09:47.449060,Right,56.33889754077245,83.1025192985253,80.3524269972113,73.67480297660222,206.31791486093425,56.783643145667156,69.34752620523795,79.32345931316377
2025-12-12 18:09:47.452089,Right,68.72750677494332,114.16223813602119,107.27564215721213,93.86404878259054,-44.952658181020524,77.5912644421478,97.39831246787799,110.99265426726197
2025-12-12 18:09:47.456053,Right,71.90524634977919,102.28130945170415,96.81411203389871,88.46349339414155,-136.67216411985282,72.43400600322639,91.07402734603966,100.63919904854265
2025-12-12 18:09:47.460085,Right,50.88413307553856,59.51174718659604,58.74443411975517,56.34759318878059,93.08220850603539,41.830772231391165,54.55039032813511,60.43821201423998
2025-12-12 18:09:47.465038,Right,36.05746112386987,56.82147125751362,56.38248834127444,47.89206935238326,204.0318246584793,34.62185780641448,48.80844495460042,59.62636134354398
2025-12-12 18:09:47.469093,Right,48.738393758118036,93.19577407152974,89.69871060363948,72.66924072359689,-19.24792638568033,57.27546821588476,78.58296932952362,95.60076140856836
2025-12-12 18:09:47.473057,Right,62.99163492184016,98.21787424394279,95.65664510425995,82.16308844846208,-162.12454786383023,62.513257997779874,84.50673471370828,98.92229063351988
2025-12-12 18:09:47.477126,Right,53.66095403880172,62.684536373766605,64.70179366492084,59.3222880049143,44.151220315892715,37.886757725224015,54.42207413970027,62.49230498250108
2025-12-12 18:09:47.480122,Right,41.019219263413106,53.59443198147346,56.215742765780305,48.087283353699604,217.73430966609158,28.2993257210328,45.32726551761152,53.46957057371037
2025-12-12 18:09:47.484083,Right,49.912466273774044,86.51936864698655,84.99896706751315,68.51763843400113,38.849340874687186,50.184876476283534,74.72063758371223,85.81265489727957
2025-12-12 18:09:47.488157,Right,61.63641227222979,95.42268554211478,92.45804388570832,77.65623201895505,-152.48619746202894,58.68204464705195,85.60187360068085,92.86339042667532
2025-12-12 18:09:47.492162,Right,49.5995027309109,57.13789120965521,57.30025558327907,50.53304107525037,7.325737232065876,30.729568544702488,52.49453314738639,52.58649834737298
2025-12-12 18:09:47.497122,Right,31.04293993738247,36.50443474311032,37.57945816463325,29.082579499998246,225.24146644234133,8.994157572815311,30.441710164493998,30.9902793521469
2025-12-12 18:09:47.501184,Right,36.39330424912623,66.34859562644851,63.915195653011324,45.96366356848739,99.66084684735688,23.957202049161424,54.22477935743518,61.32470840762835
2025-12-12 18:09:47.505200,Right,52.88095538620837,86.61499609943712,83.12606374087045,64.89368048355391,-130.29083606696804,39.2758338595886,75.29996343218954,83.82599452938302
2025-12-12 18:09:47.508209,Right,47.894854577083606,56.47066978047951,57.40752694325056,48.479790902973036,-35.988737887193565,21.260040871740784,53.146574368089205,57.370661597000435
2025-12-12 18:09:47.512219,Right,29.032693914108677,29.97285669692792,33.837987972889096,26.87556998929358,196.68979891414347,1.6147775382269174,29.741106935514836,34.08603952234262
2025-12-12 18:09:47.516230,Right,29.224710021400824,54.37819686441799,55.1179450720374,39.93240473649348,117.36849782904028,16.650231513835024,49.1207011827355,59.087839081912534
2025-12-12 18:09:47.520255,Right,44.636191255252925,81.26772754339618,78.85173872145242,61.64128748666553,-141.36449974929565,37.531159999998636,73.69602224649861,84.4411001225526
2025-12-12 18:09:47.525240,Right,41.35593974697986,56.52184388492606,56.30258444746141,48.12282537703868,-108.46677663279115,22.736891092092264,53.99776801151165,58.48223283936386
2025-12-12 18:09:47.529213,Right,19.038082284052507,21.41317329593585,23.63950088675483,19.69195304888126,144.82293195180682,-4.684986061940435,21.281795332135516,23.0986969381338
2025-12-12 18:09:47.533278,Right,12.814477552485187,36.12892730956082,35.136455610074336,23.75622176231991,137.6563837210051,0.3676986763603054,29.574610913929064,36.468302758643404
2025-12-12 18:09:47.536226,Right,28.962142749180202,68.0756358319195,62.586087243951624,47.27326910290867,-119.98660778057092,21.41533805821382,55.059646472582244,64.97987985430518
2025-12-12 18:09:47.540297,Right,33.95131853201019,53.585155650856905,48.91850100690499,42.152231851869146,-143.74768212928757,11.91611477243714,41.32013673509937,46.765512807440246
2025-12-12 18:09:47.544323,Right,17.483290352960466,17.856617574609118,16.095022070745472,16.233202727264143,119.8532315237826,-16.405281158702564,6.583824516172172,8.918874991650227
2025-12-12 18:09:47.548343,Right,11.282459005262353,27.99812668224331,24.700770492781885,18.91331203340087,190.73227046237298,-13.929773204945377,11.57152893175953,18.535390894307056
2025-12-12 18:09:47.552345,Right,28.205181241050013,66.21248699615535,59.81579173769569,47.48972351629345,-52.061953932687175,14.552000789888552,46.34023260383401,57.53558274914394
2025-12-12 18:09:47.557334,Right,36.46881066233618,61.181391953257844,57.07583850965602,50.08076623782108,-149.25843574717874,17.69710101113742,47.392739956238074,55.00275727655389
2025-12-12 18:09:47.561316,Right,18.53878678313049,20.47554636815039,21.579121789021883,21.31577744684182,77.81586437270016,-8.102180075766228,14.357006349935546,17.713354742634692
2025-12-12 18:09:47.564372,Right,4.765545993344858,16.830353883400676,17.99225582650979,12.623121258147876,196.15518603105738,-13.402453662929474,9.29287699732231,15.888635441340739
2025-12-12 18:09:47.568325,Right,18.217149508491275,53.70856471465959,50.420597843971336,37.58853613490646,-23.58503930043662,11.352840671461308,40.68552100888337,51.75368835015979
2025-12-12 18:09:47.572379,Right,33.25387222482823,60.98706379081705,56.439450260280864,48.667485328696785,-175.3427803845334,19.10934937877755,49.244541814157856,57.161830575656495
2025-12-12 18:09:47.576388,Right,24.314452042846824,27.128827938009636,25.05711240916571,27.20588972349651,21.533616490254644,-3.934052633601823,20.47595065800124,22.912277005627402
2025-12-12 18:09:47.580417,Right,12.64170680877578,19.171717878285563,16.501723107896396,17.020865193306236,195.14066827259376,-12.024333018773177,11.40276572885341,15.500014974444639
2025-12-12 18:09:47.585412,Right,23.83864345299662,54.065917171144974,47.29615601878322,39.5454988382844,16.17983042819833,13.032334194431314,41.517981192984735,50.18426959558565
2025-12-12 18:09:47.588425,Right,37.243106541413,64.351536112561,57.44509116880363,51.35725215850107,-185.2736646988269,25.40615895890369,53.768818874959834,59.837595324832364
2025-12-12 18:09:47.592381,Right,23.061676144221565,23.506008275187924,22.004070934824995,24.466403348153108,-36.1819929784906,-1.2672987092882977,19.846986419695895,19.24308858520817
2025-12-12 18:09:47.596464,Right,-1.8932393235445488,-3.6050634073180845,-1.7834434828255326,-0.9281281032745028,182.73524082997756,-25.51791686850629,-6.692175953197875,-7.175550367261167
2025-12-12 18:09:47.600456,Right,-3.925280822746572,20.207368002753356,20.057107411092147,10.138984747580253,62.74877704426035,-14.137244828925759,11.484865042439196,16.546715301839868
2025-12-12 18:09:47.604490,Right,7.587065712257754,37.754734025205835,36.95850891682494,24.733184401586186,-169.32086866354803,-0.9621163110714406,29.07838828662352,34.12759237935825
2025-12-12 18:09:47.608487,Right,0.8643308888131287,6.856149813364027,10.402991678172839,6.346927419959684,-78.36944629662321,-20.233792407612782,5.933839280565735,5.373839173451415
2025-12-12 18:09:47.613446,Right,-17.070217283573584,-19.773511938008596,-13.260750751345768,-15.407310989598045,162.37904834660003,-41.04163741358934,-17.06789732314064,-17.86980560750817
2025-12-12 18:09:47.616504,Right,-13.666535860844306,6.066488626122009,9.673381765722297,-0.8664170019619633,96.19333427705715,-26.173490864668565,3.602798219610122,9.202341166281258
2025-12-12 18:09:47.619514,Right,6.850666651778738,36.25281271190033,36.953226915415144,23.416650990984635,-159.041569459092,-3.965293472734629,29.644876392980223,37.17292435526906
2025-12-12 18:09:47.624530,Right,9.542734419104818,14.823032043175772,18.01412760997482,12.176381674144068,-128.21771009802615,-16.941612418475415,10.466531195968855,12.396697893782402
2025-12-12 18:09:47.628532,Right,-7.251052299136063,-18.12899291413487,-11.928588726805174,-14.790183218414313,132.42065560563788,-42.32336206836408,-21.885328316886444,-22.61295174108818
2025-12-12 18:09:47.632557,Right,-9.535873164830264,-1.6168502297077794,2.4863297151750885,-9.218828827739344,137.95104479668953,-33.797323963826784,-10.803829427124583,-6.889338691340527
2025-12-12 18:09:47.636576,Right,7.9639729393675225,31.744323267033906,33.11726769883535,15.718581462540897,-121.14479821281566,-8.263239863539638,19.898681964885327,26.099315729588852
2025-12-12 18:09:47.640582,Right,11.526036979325,16.571125300761196,20.76390420482494,10.170136010252463,-162.65220763774778,-15.26459567936763,9.972385300978203,10.844961725844769
2025-12-12 18:09:47.644555,Right,-7.655341292265803,-22.116253500047605,-13.638688798862859,-18.703082226806146,86.04838181212108,-44.591548713728116,-25.19926571987162,-28.187500151412678
2025-12-12 18:09:47.647605,Right,-15.375180174167326,-14.42859751425567,-7.333618566291989,-19.591511096186878,154.87098096559203,-44.264772893917325,-23.318545264592103,-22.39630648770253
2025-12-12 18:09:47.652665,Right,2.9967390940364567,24.592436118327896,27.774337671304238,7.506630652002059,-87.10015228477641,-15.938164008495733,9.3089400674653,13.609638418754912
2025-12-12 18:09:47.656573,Right,15.453270488964336,23.18588928268582,27.866382232212345,11.616230827836262,-187.50903914102673,-10.624441275893332,11.0583241727727,10.973937060378375
2025-12-12 18:09:47.660627,Right,1.6323921012954088,-14.599824142977013,-4.632592906156788,-14.899304958882567,40.27461808934822,-34.53133070412878,-19.905888922563463,-24.622235760703916
2025-12-12 18:09:47.664711,Right,-12.014798637712374,-19.465520739708154,-8.524761011402006,-24.505288028754876,168.03605970734498,-41.05387470847927,-24.811505064011726,-26.191872047311335
2025-12-12 18:09:47.668798,Right,-3.555074476476875,11.864924984096433,19.463068879471393,-4.95309393129719,-42.93698860967925,-20.710538395359436,3.386163115952513,6.576772704269388
2025-12-12 18:09:47.671694,Right,4.120501449848234,11.615015196133754,18.886157686181832,-1.3415820953887305,-192.93743008730235,-18.465316472802442,6.803673972048273,6.224235465582751
2025-12-12 18:09:47.675702,Right,-11.240778497180145,-29.332745935265848,-18.69333817936422,-29.1162822149563,7.393502984959923,-46.757200393600215,-27.066247338196263,-34.39703769791231
2025-12-12 18:09:47.679728,Right,-26.56715583287587,-41.16643954778556,-30.22365612720023,-42.019427302140684,192.14892675913507,-58.69684871252457,-39.0564926244042,-45.3110737005627
2025-12-12 18:09:47.684692,Right,-15.09493942787958,-4.3134177018509945,3.1332097156409873,-17.05520144984621,20.786813692982832,-33.74102213136132,-7.506354247438139,-8.03330735200143
2025-12-12 18:09:47.688710,Right,2.5174930649227463,12.448079270776361,19.749877106420172,1.086093141741003,-186.52643985817485,-16.90835696080103,9.794727201835485,8.806495910394005
2025-12-12 18:09:47.692714,Right,-5.449798224013648,-22.212319248828862,-10.190428906855232,-19.296350409036677,-46.99734230471586,-36.930582516728464,-18.908164339060022,-25.08674695561058
2025-12-12 18:09:47.696755,Right,-24.165614947272843,-45.614379193488276,-31.499469943613803,-39.7491844430333,170.8030842762746,-54.44139402710152,-41.353111236436234,-47.13862281254114
2025-12-12 18:09:47.700745,Right,-20.647640986593615,-18.673348161035392,-8.005557409167523,-24.00798720442981,51.70323041140364,-36.34364534334509,-18.68603629181598,-19.062218145838415
2025-12-12 18:09:47.703760,Right,-4.96915915649879,2.394596541460487,11.189367836333986,-4.61633745384097,-187.91229816216946,-17.35358938655736,3.409939341010613,3.2915358733735047
2025-12-12 18:09:47.707772,Right,-10.209061952315096,-26.60432720647077,-14.009890614113829,-20.302991525884863,-104.64568666259402,-34.376137139336606,-18.454252062761952,-23.71876494774915
2025-12-12 18:09:47.712777,Right,-29.66393175297344,-53.94383576119435,-38.37275692787807,-42.71845541569928,143.00173923469083,-57.142893632691994,-44.247700517873454,-49.81799722013966
2025-12-12 18:09:47.716783,Right,-29.0381802101183,-28.909735465196718,-16.36715627112426,-29.801082672041957,92.29641579842246,-44.624765600747196,-26.308671127259004,-26.22616053072852
2025-12-12 18:09:47.720800,Right,-10.810304561156954,2.1612911658885423,11.201459729956696,-5.4733035851531895,-158.56088998218002,-21.495214345772183,0.7622546229576983,1.6655457267770544
2025-12-12 18:09:47.724813,Right,-10.690399276292737,-19.400124410782155,-8.457084240741096,-16.31933068517901,-136.94213104373557,-31.842170196623556,-15.547984953092964,-21.6719284499668
2025-12-12 18:09:47.727846,Right,-32.13787378716734,-56.61139369610828,-42.8225498080501,-45.50269914452292,117.46406755885982,-56.78219343709861,-47.361240385031124,-57.95436214863366
2025-12-12 18:09:47.731852,Right,-40.08951740273551,-46.12500002423985,-34.57769648604881,-43.981936473894166,127.36336014332483,-49.96003013106747,-38.118132701714785,-45.66260935590981
2025-12-12 18:09:47.735874,Right,-25.030327815495184,-14.750636424647382,-6.613653216154489,-20.424335312709445,-125.92184966634886,-24.143298938808584,-7.643592166890812,-13.522613554028794
2025-12-12 18:09:47.739884,Right,-18.11916602700512,-26.075967989163473,-16.13318017868005,-22.236337173573702,-164.620089495098,-26.6450612623903,-13.778153251048934,-24.826562580379687
2025-12-12 18:09:47.744939,Right,-30.789254271752725,-58.91593448749336,-45.403745266536134,-44.800638023709325,91.49854685853097,-50.13087860724772,-43.101703799966344,-57.7140703562618
2025-12-12 18:09:47.748885,Right,-33.51925274777568,-46.78337324747736,-34.92127848893142,-40.3508371617163,172.04420982673128,-46.52264384501905,-36.31955802998709,-46.48698241118291
2025-12-12 18:09:47.752953,Right,-13.760823624146724,-4.8642672037658485,2.830622053148545,-10.055234288633983,-67.99000943510146,-18.180308232884272,-0.9122276687503472,-6.554846526218171
2025-12-12 18:09:47.755930,Right,-3.261615010287642,-5.604590907118109,2.991139695921447,-5.637021953614749,-179.7026003056808,-15.210281282739743,0.3055658356042841,-8.360309202187636
2025-12-12 18:09:47.759910,Right,-21.184410261274024,-46.12043882797116,-33.0649727367927,-35.09417527334381,40.35963480546661,-42.79544796837581,-35.15575490717856,-47.47493764583669
2025-12-12 18:09:47.763924,Right,-37.71974481758025,-53.64504967355333,-40.302458745743934,-47.225333851660935,173.06574322883034,-51.09344892236186,-44.38114044546546,-52.54489044152251
2025-12-12 18:09:47.767951,Right,-27.117809886193754,-19.288478509705328,-9.51927623298252,-24.744722587775044,-35.20693403322389,-27.127161710868677,-14.522188208867192,-16.90309320728693
2025-12-12 18:09:47.772954,Right,-13.143405908296245,-11.667528561020617,-1.8981888597772922,-13.882870810856048,-196.82980644061257,-17.72732696913954,-4.5570831869627,-9.232095441911838
2025-12-12 18:09:47.776967,Right,-23.306286810491883,-46.48731917500069,-32.81859814944255,-36.47911384705412,-10.640829332231533,-40.99207408352595,-33.8886572475044,-44.239357800859125
2025-12-12 18:09:47.780976,Right,-37.85167345325638,-57.127891444178886,-43.24820670133158,-49.56660203933734,171.5151592006639,-52.42493941523571,-46.76135801177816,-55.83050099164029
2025-12-12 18:09:47.784001,Right,-28.3769243587883,-21.023523739947905,-11.814943973340633,-27.407949753243884,2.978283023945096,-29.266279158793623,-18.466354075015715,-22.370647217325313
2025-12-12 18:09:47.788003,Right,-12.655210190678645,-4.14894204500888,3.430009111007166,-11.177199051419848,-206.84647752555657,-14.475144079391612,-3.178602156675879,-8.191124229096204
2025-12-12 18:09:47.792019,Right,-22.01460198535051,-39.08710628194967,-27.3915459838081,-32.58697262077476,-69.3414259941519,-37.227889383473666,-32.88335392152567,-43.07949855852894
2025-12-12 18:09:47.796025,Right,-41.82170625634353,-63.7396522954441,-49.70298694365738,-54.09291936312911,156.2548972808372,-57.98167616302817,-56.30983792558982,-65.38626875316186
2025-12-12 18:09:47.800036,Right,-37.36903159384474,-35.75070036218494,-25.186356711015833,-38.12025719344638,45.92990189725515,-41.06406116638027,-33.263259501303764,-36.05294708961992
2025-12-12 18:09:47.805047,Right,-17.956726519094445,-9.782882146773773,-2.008006938951894,-16.531167229364655,-197.84125473192398,-19.9890561509892,-9.064820212754057,-11.079962921128754
2025-12-12 18:09:47.808053,Right,-19.434967305945065,-33.8255895591974,-23.549602512576485,-30.30425565601763,-125.50876970211539,-33.848243240649026,-29.68187659472096,-36.715417529352635
2025-12-12 18:09:47.812066,Right,-37.984633182290054,-59.71315055189916,-47.33262695573393,-52.697751998655804,119.72404017491317,-54.30547155874592,-56.1964634938613,-63.48030190762438
2025-12-12 18:09:47.816092,Right,-38.803665486248065,-35.626569187843415,-26.457156365777564,-40.226602034332245,72.4221477734236,-40.12656138364764,-38.56746998582821,-39.89950842824328
2025-12-12 18:09:47.820111,Right,-22.204949891849537,-5.703858556749765,0.16290405527070106,-15.454735440875083,-182.30773815700013,-16.246284421282326,-9.998159177837806,-9.825144069047383
2025-12-12 18:09:47.824109,Right,-22.70200955637665,-28.55795706146091,-20.694317681407483,-25.804311144074745,-168.13148589182492,-28.134506915226666,-25.182645599252282,-30.83143415521772
2025-12-12 18:09:47.828062,Right,-43.2163595336533,-66.6922505738512,-56.4631606767789,-54.90394124319937,90.57851772451795,-56.33935009933339,-58.10497226881125,-66.29267980446457
2025-12-12 18:09:47.833130,Right,-48.1703402140447,-54.191333600279904,-47.57139648155862,-51.988545320193225,114.83180847647418,-51.19724315132771,-50.24785440290725,-52.935762005261495
2025-12-12 18:09:47.836109,Right,-28.93288731015491,-17.32489503229226,-16.16230198190715,-24.697624902961252,-132.13889199189907,-23.374596103676595,-18.71274953847751,-17.737775468423933
2025-12-12 18:09:47.840146,Right,-19.72833618077493,-24.0602655008297,-22.94542815627392,-22.938882683436532,-177.80010136398414,-22.137509931420936,-22.377134365022357,-26.1894173100045
2025-12-12 18:09:47.844156,Right,-34.49714618629878,-57.97001129402997,-54.07985355971323,-45.617082857424975,71.70852978296716,-43.64175086225441,-51.00498980933844,-59.82004979285557
2025-12-12 18:09:47.848179,Right,-42.53825881746161,-52.093565508534084,-49.603793449075965,-45.32865729765035,153.39213466605725,-41.23606196367109,-46.27653731874307,-52.78141431541371
2025-12-12 18:09:47.852194,Right,-27.630219677823334,-17.404715870485234,-18.47600356799194,-20.709097619921522,-85.23228543994082,-16.506140342324215,-14.361087303379463,-17.893950295932882
2025-12-12 18:09:47.856191,Right,-18.697636946359125,-22.938571898412192,-22.590006411803188,-20.734962048827583,-197.63656226806415,-17.7426728025348,-16.423540483061515,-23.811924292869662
2025-12-12 18:09:47.861264,Right,-34.268155137076974,-64.2050779381425,-59.02492635672024,-51.46790075884928,28.798389704386864,-47.72181310367887,-53.23644672572118,-64.88338114237195
2025-12-12 18:09:47.864215,Right,-45.95582255801128,-68.24577620814671,-62.66331942368561,-61.11409631116112,176.183520652914,-54.84231387249747,-60.75999208613939,-68.64589739517032
2025-12-12 18:09:47.867284,Right,-30.42436312638165,-27.87818776572385,-26.13236731294819,-33.53121504593946,-22.44001887320337,-26.146346609584725,-26.698587520219007,-28.775338469829876
2025-12-12 18:09:47.872272,Right,-12.965869977484545,-14.76344111932849,-13.444615299329598,-16.99349441929735,-186.41795732584978,-10.144560384575016,-11.885975236255035,-16.01008136454766
2025-12-12 18:09:47.876239,Right,-21.472722682341555,-47.12927739809675,-42.02011684466197,-35.39369724106655,-3.535820185130433,-27.780173221333825,-37.799466875676444,-47.44844393956737
2025-12-12 18:09:47.880259,Right,-36.276861322752666,-58.55277004882373,-52.85354344239386,-46.93840163467394,183.2937094566587,-36.63808677308407,-49.63411760407689,-57.854723966578604
2025-12-12 18:09:47.884277,Right,-28.232641355421947,-24.36228178165038,-22.957166710570164,-25.317321733396966,17.440444358557215,-13.155222034332837,-21.637624396080355,-24.426788711643894
2025-12-12 18:09:47.889289,Right,-13.192050636615022,-8.460266545771447,-8.962605612818152,-10.216313652905228,-202.12430575201688,1.9034824560731067,-6.227145737655519,-10.304297842114465
2025-12-12 18:09:47.892283,Right,-21.643329852253373,-43.59029544411169,-40.85486290973131,-32.99284998453004,-76.15744848904433,-20.560787286318373,-35.59646124210849,-45.99768363361363
2025-12-12 18:09:47.895318,Right,-40.89365989639191,-69.4182504345008,-64.96289508237533,-56.97174411418746,152.99091884170775,-43.004829452213016,-60.463754033437,-70.99184569909994
2025-12-12 18:09:47.900314,Right,-37.86824587013325,-43.94159265169583,-42.59582413041062,-43.97814504606504,58.09988729770521,-29.701063530945248,-40.16996562607528,-44.468707295454806
2025-12-12 18:09:47.904326,Right,-20.123712276104925,-20.186421845523,-20.411710191234306,-23.399819350488542,-175.13584307464043,-10.892726768019202,-16.54472051373159,-19.244297404227837
2025-12-12 18:09:47.908354,Right,-21.046318336815602,-45.22761099697527,-41.515616766431776,-35.350443015326164,-101.47701968400179,-23.59493944298447,-34.29254199297429,-41.76461652250873
2025-12-12 18:09:47.912368,Right,-36.84875226009535,-70.88475743044546,-63.94079339411837,-54.67317581354291,144.55212834831946,-40.84089723913348,-56.85438026407792,-65.28393661646987
2025-12-12 18:09:47.916362,Right,-33.94680717407755,-44.32656512086396,-40.02040500674775,-38.99565176323813,98.85143507761495,-23.210267669604946,-36.134831659474,-39.3802662929229
2025-12-12 18:09:47.920316,Right,-12.719142632624425,-8.720219727270887,-7.667747219013108,-10.374390506527561,-159.76035802953993,4.4043390543993155,-5.098866537657159,-7.345704878920515
2025-12-12 18:09:47.923362,Right,-7.372055326435657,-24.175849368446507,-21.217910524203035,-15.859799007477704,-151.88183470513286,-3.073304825764353,-17.726000719107105,-26.607448752503842
2025-12-12 18:09:47.927392,Right,-22.61219295070987,-56.96038305043476,-51.19235655770899,-40.54633615349303,107.855204943653,-27.568824257607048,-48.31321784431202,-60.81083287396905
2025-12-12 18:09:47.932410,Right,-25.82783341915274,-43.83292651831289,-40.19184617057908,-35.87605262417492,137.37261438808127,-21.15107106688447,-38.95928267764248,-46.51506736542797
2025-12-12 18:09:47.936420,Right,-8.625151162999828,-10.034697404742474,-9.51125036097801,-9.901137633045437,-114.3336625653883,6.1081105438679515,-6.6686796294670785,-10.506622813023569
2025-12-12 18:09:47.940432,Right,-2.533404750513,-20.731507756063365,-17.797209142299835,-11.395647451128752,-175.4963943693383,6.377547841293563,-10.956297228229232,-19.31795960989257
2025-12-12 18:09:47.944485,Right,-19.43928813351158,-57.58115613965492,-50.04445865882735,-37.9773671000512,64.85155492280865,-16.45672159958849,-42.97884956092457,-55.328931545496744
2025-12-12 18:09:47.948442,Right,-28.20942924877454,-51.94026541648054,-45.04708432492771,-39.98660828968423,151.76981203011746,-15.139335360203404,-42.887786704108294,-50.351541460135195
2025-12-12 18:09:47.951485,Right,-12.261896191710548,-13.540431598878058,-10.57267344052525,-13.338556067581521,-80.2397560733516,10.982743647349707,-12.47625912183139,-13.536236594576621
2025-12-12 18:09:47.955496,Right,-0.7826264894210908,-13.582811894913903,-10.283286396872427,-7.618932456913171,-195.05945552918638,13.921804080040602,-11.764650330136647,-14.118216446651786
2025-12-12 18:09:47.960467,Right,-14.611971829741378,-52.661535182618536,-45.6313202644742,-33.78337875883881,27.897433282432758,-12.664150954395154,-45.841479869581235,-51.5808946169127
2025-12-12 18:09:47.964502,Right,-27.739543350009626,-60.03930785020202,-53.27070900803665,-43.986407496835454,178.03224306172888,-20.5340588692452,-54.45823988550546,-56.65569281671196
2025-12-12 18:09:47.968546,Right,-15.945909706486418,-25.01794800908101,-22.538860830754857,-20.59933415488922,-20.208001229244474,4.205648179282434,-23.85743655411352,-20.64741308253724
2025-12-12 18:09:47.972513,Right,-1.1776127872872166,-14.599344613874564,-13.274325485006557,-7.3882868215223425,-192.71288066087254,16.608089593766636,-11.290228768921224,-10.495938492349524
2025-12-12 18:09:47.976546,Right,-9.468043588982255,-46.0989868185643,-42.09038644605607,-25.59398354744917,-15.937159537275875,-2.2181294505462574,-37.08614214058616,-42.27791363870347
2025-12-12 18:09:47.979537,Right,-22.012147198322054,-54.49813147671375,-51.08331108661514,-33.33559227712249,178.50451528162012,-10.246468179506337,-46.93492926034378,-50.87759455205378
2025-12-12 18:09:47.983537,Right,-10.963756015480612,-15.522450763928646,-17.317750633024843,-4.959923776536016,25.304573408930082,15.389840340965748,-14.76368882929819,-12.654227464590804
2025-12-12 18:09:47.987502,Right,7.2621206320036435,6.638735384134634,2.4424570533592487,18.322273994876014,-191.18667365148212,33.87509842256259,6.805808214703575,8.822876207101217
2025-12-12 18:09:47.992565,Right,1.4245116795536887,-22.847545819924562,-23.984532095768373,2.2918437121334136,-69.68368103651846,15.69721861697326,-16.76105586090125,-20.083690272229433
2025-12-12 18:09:47.996575,Right,-16.70511102376622,-45.65165773586341,-45.323368553377804,-18.66152342395071,158.24907953252114,-2.644541363193639,-38.42692478637764,-41.58203395694727
2025-12-12 18:09:48.000538,Right,-13.908097200626798,-19.066242036118638,-22.65514409913885,-6.059632808926835,64.39185562565763,13.748022674082677,-17.336225046827167,-14.595314714431879
2025-12-12 18:09:48.003604,Right,3.3190997334895656,5.838431366631994,-0.8253249407352996,12.702198110731842,-173.009141197821,34.303092333542736,6.332472927977506,9.741640257481777
2025-12-12 18:09:48.007560,Right,1.7392124090874859,-18.20873717003269,-22.761826640744403,-1.4928352047791122,-104.52331585530192,21.469000582788794,-11.459706223991816,-14.422530649637338
2025-12-12 18:09:48.011567,Right,-15.906452007853659,-44.85749104019487,-47.6954975851113,-23.954853352435748,144.6683850623849,1.5634566684238962,-34.86467391316546,-40.349452887050575
2025-12-12 18:09:48.015705,Right,-16.17199652324416,-21.14781990870688,-27.313590945559554,-12.002386987001955,105.31001710580131,14.980628387409524,-15.709684449000633,-16.16393103475275
2025-12-12 18:09:48.020643,Right,1.4944699608859082,11.444367794007121,2.3528289589376072,13.408439693852415,-156.28296597711596,38.98666278458586,14.226999438687926,16.280787414332735
2025-12-12 18:09:48.024700,Right,2.893288360479346,-7.0028786475158995,-13.160663604881847,4.899965284919745,-156.50778263954453,28.785954132907136,0.8635417588520795,-2.1748533439385938
2025-12-12 18:09:48.028711,Right,-16.480458905349224,-42.18791095740744,-44.720252976956544,-22.826887370665645,105.49846706658354,1.4351350940032717,-30.819041167982505,-37.564841981526115
2025-12-12 18:09:48.031645,Right,-21.82269083189749,-27.830003164584923,-32.7733661355669,-18.93001650123915,146.46515766695848,5.328782864902678,-21.82360042489745,-25.083306042084587
2025-12-12 18:09:48.035707,Right,-3.598949636958423,11.431772910007567,2.0982712253389764,9.837058047385653,-101.01886811074837,30.838737470987326,11.709903244242014,11.105819281081494
2025-12-12 18:09:48.039704,Right,3.6938144906016532,5.136804143177869,-2.999534690854489,11.359188524693309,-168.02080982122243,28.444063828592334,8.25569875146175,3.4809005329734646
2025-12-12 18:09:48.043730,Right,-16.061478584535507,-33.91219678854395,-37.72978141569911,-16.630540863920032,70.7077074427034,0.5593196283771249,-25.611832226299157,-33.618871880964434
2025-12-12 18:09:48.048730,Right,-32.13652303710114,-35.92127275432722,-39.76494493489008,-24.774015100050747,165.0336361465288,-3.9112649231265095,-28.733758405345725,-32.51030700028787
2025-12-12 18:09:48.052770,Right,-24.041572204314434,-4.350108722421282,-11.177848985986202,-4.850962303953565,-63.640880599625234,18.83153305682208,0.6880655917120748,0.7341122403886402
2025-12-12 18:09:48.055700,Right,-17.61744602456747,-6.758045531474636,-12.410209367706557,-3.1676458409274346,-186.5246869655184,20.976935508335373,3.403315971369011,-1.1246254139914527
2025-12-12 18:09:48.059757,Right,-34.314236448844895,-45.78305606938375,-47.073615801142296,-31.304266888175334,28.7656461667666,-7.077583129041159,-28.933749442436238,-39.12479075239389
2025-12-12 18:09:48.063761,Right,-49.7246443279837,-53.22104416837101,-54.424022503371816,-42.79680422985621,182.03079269924092,-18.76246862685548,-38.35875306983871,-45.44487873169419
2025-12-12 18:09:48.067816,Right,-38.70847213557499,-17.704740035376744,-23.056671141843253,-19.372264497324068,-10.764171531718603,1.9776609041255142,-9.474673023232754,-10.198561809062085
2025-12-12 18:09:48.071808,Right,-22.05277009593192,-5.871338808145083,-12.064308200671803,-4.8218977287979214,-185.72163870400254,11.858199321350185,2.261898902077519,0.22125021248939447
2025-12-12 18:09:48.075804,Right,-27.36331391526619,-36.99697963763174,-39.85468712548027,-22.87142582386514,-11.941431130437195,-9.446995114441052,-24.30340960738249,-32.187874076851585
2025-12-12 18:09:48.080769,Right,-37.88089440991462,-46.43116138570622,-49.40887229217333,-33.08728133803379,188.63269616786056,-20.89120745344735,-35.4499568955398,-43.049730618920876
2025-12-12 18:09:48.083821,Right,-25.735388124663586,-7.947338002719334,-16.403431831982743,-8.39459470852671,43.10671707168149,1.791126146425995,-4.289726981696731,-7.202075755783881
2025-12-12 18:09:48.087771,Right,-6.944565045327181,13.80854049949994,2.2114147319589392,11.068810183573078,-173.43070437420647,18.116168312587433,15.685721367197402,11.530770878693147
2025-12-12 18:09:48.091841,Right,-12.906843775897869,-18.309628741240886,-27.215696319952258,-8.978241360684478,-50.48038818131499,-2.8835363019325086,-11.542489419491176,-21.884876064046694
2025-12-12 18:09:48.095858,Right,-30.574438113053475,-44.181408685370116,-51.170528168426245,-32.112553698436386,190.34793298736895,-23.741351753858908,-36.28527201961697,-46.96967054898414
2025-12-12 18:09:48.099869,Right,-24.62381802175514,-16.461750699287222,-26.322750187486236,-16.818824348953058,107.91241622265443,-6.520773571525751,-13.312110143786413,-18.1326539069305
2025-12-12 18:09:48.103887,Right,-2.1078435696836095,13.463258424751984,1.875650293986837,8.287481104507606,-136.82593141718462,17.449256686494664,15.846149056560535,12.191114423418185
2025-12-12 18:09:48.108839,Right,0.22457800475967815,-7.613154253995162,-15.459139075202984,-1.4017609834263567,-85.22881336054888,5.630675589353814,0.5076030325981264,-8.431328923255933
2025-12-12 18:09:48.111847,Right,-17.097261200477078,-36.58681319173775,-41.0726049279765,-24.515153511816607,160.81452732549587,-17.952054062516254,-26.689568469253572,-36.62244114316127
2025-12-12 18:09:48.114914,Right,-18.69136986488229,-16.809889542473684,-23.67778391156753,-15.898816202326998,133.69074031755736,-9.431930248197204,-13.450681091875595,-16.997359762219276
2025-12-12 18:09:48.119865,Right,-0.34441035132476827,15.306168974082539,5.46203642810724,8.021833896087628,-119.54395883465622,12.769677649665937,13.880379293925216,13.651921927728836
2025-12-12 18:09:48.123912,Right,5.309786369281937,0.5727594725249219,-6.627013685581915,1.754976155465556,-123.73185876433854,4.839774647713057,2.2857573658184265,-2.276600393921399
2025-12-12 18:09:48.127951,Right,-8.045318237218453,-29.534077200976753,-32.57533373820479,-21.489571280846576,131.43171680515024,-17.76395137458894,-25.3993200621735,-32.22616887375625
2025-12-12 18:09:48.131958,Right,-9.20914683898809,-11.746730162121821,-15.72596304860781,-13.957561892802914,167.11175770160662,-9.152377648779293,-12.51800160453422,-13.849852295610617
2025-12-12 18:09:48.136975,Right,9.412986657651345,28.04663280148816,21.173396570018667,15.548816121437994,-90.91893412667469,18.86992788678708,23.349538321195723,25.981607543588325
2025-12-12 18:09:48.139983,Right,14.957351420624036,20.0990993600426,15.001914242981002,15.577224614033184,-172.16861053704906,16.236383842670875,20.12862539274647,17.939866271382925
2025-12-12 18:09:48.143021,Right,-5.28754385171851,-20.53136192619786,-21.92920851951203,-13.592825309347973,62.288333566410074,-13.215701588633692,-15.110345469616732,-22.6222327103751
2025-12-12 18:09:48.147998,Right,-18.68771327360446,-21.61706973334367,-24.62775901587156,-20.539951474078407,164.82705062179593,-18.445158528500997,-19.692333350081753,-24.29163229068945
2025-12-12 18:09:48.152007,Right,-5.988829296267795,13.144533234579285,5.041330886007927,2.4159056595235597,-58.17824027194183,5.098884712750987,8.942941223464004,9.086181310201937
2025-12-12 18:09:48.156023,Right,4.677850188440061,13.483602703970973,4.499954916900606,6.843309447955107,-184.844369875761,9.005601418920378,10.919144114068331,8.759608181531803
2025-12-12 18:09:48.160045,Right,-7.770444416979444,-23.431626431643963,-29.575614308283548,-18.505276327305182,28.50486245500997,-15.57308638099039,-20.972871437366848,-27.064875382900937
2025-12-12 18:09:48.164046,Right,-16.743338534193754,-26.09256485773949,-33.07066046599357,-24.351234837495213,186.74066340573881,-20.208708495966903,-25.583952966320794,-28.168799351813504
2025-12-12 18:09:48.168060,Right,2.298008501826189,17.557931515490054,5.86756610134762,7.60578416176395,-6.494502026228474,10.00320441413146,12.310474644076749,15.726319180539576
2025-12-12 18:09:48.171067,Right,24.58420447045137,36.05087194328735,23.250187837871636,29.132487750943255,-193.5243364258822,27.11648765150221,31.827507849891845,33.59986761582695
2025-12-12 18:09:48.176070,Right,19.2020871974255,4.829634942849225,-4.316255434427148,12.113003226635556,-30.19828011088157,7.4366083101725735,6.664054992092133,2.6521406503634353
2025-12-12 18:09:48.180079,Right,2.8689461912254046,-11.711465928037796,-19.778860052025266,-3.322746090569126,172.27443196892636,-7.000025939124555,-9.208155389354943,-12.460036170788953
2025-12-12 18:09:48.184101,Right,6.2538135067097755,17.282903920950048,5.669163700542413,13.490091843426853,31.44791496840844,11.485585810850477,15.620197585321876,17.899034444653807
2025-12-12 18:09:48.188119,Right,17.48789759182,32.569966496896086,19.881864735401905,27.025197794782798,-189.92734644388293,25.12778991002432,31.73542912415178,33.86243741250655
2025-12-12 18:09:48.192126,Right,8.013689730360056,-0.8020967213342374,-9.29366850250517,5.400203608491211,-75.60789628654675,3.711737236523959,3.659924651006804,0.6176503228889487
2025-12-12 18:09:48.196126,Right,-9.680749315002686,-24.315045034949435,-30.394945652547904,-15.949592724271497,164.82684103697193,-16.147256548952782,-20.959255046060207,-23.799697086080414
2025-12-12 18:09:48.199151,Right,-2.6923748988720035,6.615627603561734,-2.812958755905129,1.9531626136904379,87.20182702254851,2.2727444438289695,1.5395314537126978,4.620844171491626
2025-12-12 18:09:48.203148,Right,20.58792056281345,38.76448337111651,26.79364161121339,28.688261160554248,-158.37507919340624,26.96022134123882,29.664125491553932,33.91113517657868
2025-12-12 18:09:48.207159,Right,23.156095663889573,17.851378377066794,9.271308185561793,18.840873475372064,-110.98243133707228,14.819507031625562,12.933154816906608,12.122913491151849
2025-12-12 18:09:48.212164,Right,4.929463342641611,-12.999024666363766,-17.913454930050648,-6.059443871150506,138.5443761791512,-10.42339792772782,-15.98299260834574,-17.41256484184305
2025-12-12 18:09:48.216191,Right,1.2476083589699556,5.01776229160896,-1.9494750354569987,0.9909827779447369,120.47691191139302,-3.6314198515688076,-3.529518079103582,1.7467774500983069
2025-12-12 18:09:48.220213,Right,17.24003307343264,36.944963014961104,26.666343998946104,24.934128795484867,-130.86670488726804,18.15144326412519,24.641689336525815,33.1863069453193
2025-12-12 18:09:48.224209,Right,20.009211866556143,20.97593451724424,12.39168600323319,18.267120150339906,-139.1343202470557,10.05396768708033,13.168811802017444,16.492564470237994
2025-12-12 18:09:48.227233,Right,2.695176032013478,-13.645250415085684,-19.067131579940906,-7.70632239902443,120.32779209147975,-13.322446113533715,-16.516019045024223,-17.362043485476534
2025-12-12 18:09:48.231232,Right,-1.551301211844475,-0.5018964047703776,-7.522201741729077,-2.905042972989577,169.14881248948655,-4.0307047645546845,-5.0076891366588825,-2.564485364511711
2025-12-12 18:09:48.236187,Right,17.250810980094684,38.356492862976665,28.153746892705385,26.59843437649033,-82.13812916846246,27.26700587662026,32.00764777466247,37.145241867046934
2025-12-12 18:09:48.240252,Right,25.787935716567517,32.27817527975458,23.91429645043536,28.28835498227818,-166.66897189356655,27.908223196244307,30.381622596216403,30.850307190265994
2025-12-12 18:09:48.244270,Right,8.981756692073759,-6.561315782450038,-10.806670426660276,0.2726107149228483,67.47654561380432,-0.8971233849065356,-4.6012526436406915,-8.52597498537125
2025-12-12 18:09:48.248273,Right,-2.11124972998914,-6.309655535826096,-11.468186983875057,-5.761700362599186,177.06007696584788,-7.090422431184834,-8.871495738945669,-9.012511874113443
2025-12-12 18:09:48.251278,Right,12.48318035381999,31.193677877265145,21.92362597747706,19.995447460136347,-44.15726092286059,17.293659308216775,22.68725019041085,27.815712913570678
2025-12-12 18:09:48.255278,Right,25.75013575928915,35.65918615357805,26.993900941808533,29.40484305638438,-180.98423252574344,25.00510538629078,30.104255047533115,33.11580886576485
2025-12-12 18:09:48.259309,Right,14.552423504585931,0.22663463744265755,-3.6209580754039052,7.124374477688434,22.616546994150553,3.4577022954244967,1.738907349918918,0.5600078196348477
2025-12-12 18:09:48.264307,Right,1.8972911721366472,-7.013499379845598,-9.904701866966207,-2.215013420176547,182.87048547127347,-3.391870665324859,-5.627531884981181,-3.990250329650735
2025-12-12 18:09:48.268317,Right,12.289443337588636,27.749162989856814,20.955962364856532,20.09931203791257,-3.758393296417694,19.648211359847664,24.034240231680997,30.805958619681405
2025-12-12 18:09:48.272362,Right,24.71992569897793,37.13776467565185,29.039089665713618,30.155514617321387,-189.25380180966138,28.454711249269167,33.770951624767804,37.97705625359322
2025-12-12 18:09:48.275359,Right,12.344168228877606,-0.5875593524187934,-5.614726346775569,3.8343117694485045,-23.450299861077525,2.593073968580029,0.3317901843583968,-2.195267097356009
2025-12-12 18:09:48.279368,Right,-5.52688883954761,-18.66105481120576,-23.18750063202242,-15.915790465185637,189.81429485549984,-13.931018629115897,-19.866859988683245,-22.147227412140182
2025-12-12 18:09:48.283372,Right,2.36809908783016,15.317673131185074,6.5986748233353865,3.098789323037181,58.3703063248272,7.534775274353706,6.700939363293401,10.423301856731996
2025-12-12 18:09:48.287387,Right,21.54372741811494,39.233828831298524,28.812176736471883,23.323385940098888,-167.57333323106172,27.575374326153906,29.454127281388537,34.15240639861622
2025-12-12 18:09:48.291401,Right,17.710161962881557,10.926401122702373,4.599110404997191,6.785497503410625,-64.91711792727392,11.121600712130203,7.20897400584181,7.510945210935802
2025-12-12 18:09:48.295410,Right,-1.3601779920036279,-15.683854889875875,-18.9637801154513,-16.048125206063787,171.9671198244747,-9.387124772724746,-17.537408431178847,-17.030304667774544
2025-12-12 18:09:48.300424,Right,-1.7720055455924921,7.025315423482425,1.1496343471862929,-4.646981899918956,97.49398536066315,3.812379218830756,0.03947321355690292,6.136402776433492
2025-12-12 18:09:48.303424,Right,13.519689856915647,31.929678437350503,23.53856126151004,16.09916916063048,-149.63574216590473,23.329869202344526,23.53718774220806,30.304784799546496
2025-12-12 18:09:48.307435,Right,12.134664025444636,7.6886840832398775,1.7886848916496092,4.181912619258014,-106.17656911161203,9.248488358499344,5.420494844304812,6.02679129675937
2025-12-12 18:09:48.311434,Right,-4.698829299257795,-22.167652344461885,-25.730838593395674,-18.528719339515078,146.75492779421825,-14.073130107136421,-21.38055672293467,-23.047066787712993
2025-12-12 18:09:48.315475,Right,-3.2794773091031857,0.7516969756356957,-5.845640078116048,-6.00726036672728,133.12177760401005,-2.110338051707913,-3.8974133298754623,0.07541271740819866
2025-12-12 18:09:48.319489,Right,17.968954043471513,38.77649557726659,28.856844107896904,24.323716264282623,-127.94449654160576,25.990188423985273,29.97238898049045,37.669318285587906
2025-12-12 18:09:48.324476,Right,22.444542562792776,25.261704027091696,18.019809162566162,21.098592937184776,-156.80634782990887,21.248487706601736,20.493795434168987,24.530605878891492
2025-12-12 18:09:48.328510,Right,1.3654053349150672,-13.628912149541861,-16.36483652062816,-7.729918236091862,91.73202677183917,-5.777247241324403,-14.415840966153837,-12.81858574733269
2025-12-12 18:09:48.331505,Right,-10.12870013366205,-8.51778556056674,-11.845173322630217,-10.736128187411282,147.3461634554542,-6.092900193722016,-12.84292788534708,-6.33795577059027
2025-12-12 18:09:48.335537,Right,3.599926865779935,25.990725257989766,20.050878735368315,12.89706175348806,-93.66502355113471,16.908298152424322,17.856583746487388,28.735084075870418
2025-12-12 18:09:48.339512,Right,12.663498514983075,22.448028857434224,18.88619048923374,15.573805290365044,-175.49931872873412,16.17014357075368,18.22174446756759,26.05735502029347
2025-12-12 18:09:48.343642,Right,-0.8606424232254994,-11.585665010207777,-10.365378597830386,-7.3891274867319225,61.664962164813915,-9.144563734688745,-10.813657627002868,-6.307910492364499
2025-12-12 18:09:48.347563,Right,-10.000712819846285,-8.818050020323426,-8.268336511260713,-9.25876862217774,181.15668333945086,-11.650703104218337,-11.04775643972431,-2.604672742581897
2025-12-12 18:09:48.351512,Right,4.752265158361297,29.245338690849394,24.78808323202975,18.356527083843503,-33.176706858787384,14.777429995161583,21.480490938495223,34.44745319088997
2025-12-12 18:09:48.356571,Right,17.09611504508564,32.93485543298584,27.14562148548248,27.042222392753047,-172.19217686470938,22.457507000239275,27.172887727232478,36.44593219196122
2025-12-12 18:09:48.359591,Right,4.069669024247446,-4.872360121002657,-7.822080308390468,1.4516081958508948,32.163364923198515,-0.7941906642381582,-5.141725027504435,-1.9723022330754247
2025-12-12 18:09:48.363600,Right,-9.703214483184638,-13.544079374375087,-16.730098137640653,-10.800213245192026,203.04248595609624,-8.418608176384623,-15.659895844230732,-10.710440796913645
2025-12-12 18:09:48.368631,Right,2.299592491621752,23.683809263603962,16.170729222903446,12.54863101802539,22.390192370556633,16.75519685580275,14.959210561462669,25.666132897394164
2025-12-12 18:09:48.372637,Right,18.001681326922096,37.279436930250995,28.520212546764924,26.634340361228624,-173.47444536571356,28.332156837705952,28.9045108302048,38.69034415477836
2025-12-12 18:09:48.375636,Right,7.043126378512341,0.22932506135975927,-4.931257503580582,3.059872264452224,-21.743903780002256,1.7336780479245135,-1.069216729749769,3.4119334269489627
2025-12-12 18:09:48.378685,Right,-12.83399795445439,-22.026034590533072,-25.792128656123396,-17.230631536992405,190.2154210907429,-19.578609385920572,-20.857624100809062,-15.549604183902375
2025-12-12 18:09:48.383627,Right,-8.435550991293887,6.710995097540945,-0.4292410564517013,-0.20285693775031177,65.24096919312797,-3.416052174795368,4.165953487605293,15.159053715673508
2025-12-12 18:09:48.387679,Right,8.504008988348986,27.925413982110967,19.384339999524173,18.98161017244547,-159.40034986590672,13.86728603526899,25.399336684515674,36.19212509350291
2025-12-12 18:09:48.391696,Right,5.187486267005198,0.19125832369309137,-4.646639169210971,3.375951587401687,-57.68797365053797,-2.4068746553448364,2.8438745302109965,7.463345006932286
2025-12-12 18:09:48.395688,Right,-10.405350732601448,-22.81031344078019,-25.596539368611843,-16.115737624149006,185.30245100156935,-20.246853820839533,-19.947983812549865,-16.76237435060466
2025-12-12 18:09:48.400707,Right,-5.432539353307732,6.208596601051795,-0.3641489041083048,0.8596794972490898,118.12958149828319,-2.2832036345735105,2.3123743844344062,10.477842331045395
2025-12-12 18:09:48.403709,Right,15.046142317581939,38.298644832710124,28.495027568146043,27.640047558928927,-133.1255078158565,22.57564531362368,31.598209942006633,41.215902723959516
2025-12-12 18:09:48.407671,Right,16.35800128619792,18.365693099410237,11.294313186677527,19.01375762769385,-101.74895518255653,11.543612524855234,16.878341157158957,21.992225962680095
2025-12-12 18:09:48.411724,Right,-2.022280096800955,-13.521891667754971,-17.288663637557647,-6.095807606053313,146.50883342092675,-13.613750909727969,-12.222009720397637,-7.881591989094886
2025-12-12 18:09:48.415783,Right,-6.144608282479112,1.569227429116836,-4.403789622315344,-1.4297517678214717,139.16366849436145,-8.202615086423975,-2.606877496476045,7.719722557611021
2025-12-12 18:09:48.419707,Right,9.384289461918343,31.484281702659246,22.229430833921015,20.444524749664197,-115.09709318478053,12.455999420766602,22.969390484330688,35.59232096345113
2025-12-12 18:09:48.423777,Right,12.849944102944391,15.42467805391243,8.311850252899603,13.924311067952658,-140.59221279204758,3.9002048143620414,10.822426176492627,16.80597325985218
2025-12-12 18:09:48.427781,Right,-3.46074139320649,-19.14550166180561,-22.31066073109423,-11.430163954546515,113.6426083824199,-21.568672154249725,-19.65932590819193,-19.46491524083649
2025-12-12 18:09:48.430767,Right,-7.989083750854206,-6.135460228368174,-10.3959116677961,-7.422878139373097,174.1421829986375,-16.40265742722204,-9.985019561816443,-7.520022592694659
2025-12-12 18:09:48.434787,Right,9.934589912543515,34.040128649994585,26.489055288445343,20.995788994388022,-74.63993868996931,12.099049373121488,26.83707746244545,31.725866714228687
2025-12-12 18:09:48.439742,Right,17.533197931410314,28.815516367478267,22.9928809614521,21.4676121434959,-174.15402836365683,12.460136317782599,26.55819432649878,26.541900226064172
2025-12-12 18:09:48.443798,Right,-2.067410340051538,-13.876023311006975,-14.891366375953112,-10.294542894929691,54.19553508470244,-16.780981203706688,-9.88226052848404,-15.068577362388169
2025-12-12 18:09:48.447832,Right,-17.448677419839214,-19.951707776815056,-20.52009519227522,-21.44894849258344,180.3132782862058,-23.52129701686954,-18.436988285342522,-20.890453819978575
2025-12-12 18:09:48.451840,Right,-4.22367657448649,16.248024579635967,12.720492291096889,3.2050560077277623,-27.05349126034207,3.3655136258712446,11.540337700292184,13.801610901615277
2025-12-12 18:09:48.454885,Right,12.410427762626796,25.37664271981157,22.84722307276752,16.481281961527202,-169.74990380301142,15.229525181776808,21.30417109663722,21.74222445365922
2025-12-12 18:09:48.458850,Right,4.9220407339644225,-6.43082179330122,-4.392761429892744,-2.4794790078867663,29.05672069056709,-6.315422750682956,-5.869686743627426,-8.743901275563985
2025-12-12 18:09:48.462887,Right,-7.82864210158823,-14.398389996163132,-12.028660636938184,-12.09045404702465,201.77923511345898,-18.127805823811286,-15.071546950718584,-13.906271619369363
2025-12-12 18:09:48.467874,Right,0.411689044533432,19.504501719486143,17.298486746586605,9.767275633335885,23.424592126954394,1.1182951138371209,14.157694831063964,21.99506776803355
2025-12-12 18:09:48.471832,Right,12.163408711748616,30.35575223100477,26.81141575555921,22.009141814660325,-176.90664155714967,10.983850286035704,27.147059322283894,34.03403249129042
2025-12-12 18:09:48.475899,Right,0.16793159991539142,-7.243069279099473,-6.570576919717496,-1.9288166553869814,-27.018419905415158,-12.605491264861485,-3.443005854323019,-2.0359194171687705
2025-12-12 18:09:48.479942,Right,-18.077205102829794,-28.176152163511688,-25.179137163746418,-21.337994797234387,194.8194125489872,-29.237727014324264,-24.13636311888058,-21.765108211322513
2025-12-12 18:09:48.482944,Right,-10.171341957097411,4.485788374769982,4.732666927357059,-1.6265549398822259,79.57531088987389,-8.248317468095593,1.7442077752984915,10.359665061670967
2025-12-12 18:09:48.486953,Right,10.647496119105654,31.034543326691164,30.36431999175511,21.530903595368727,-150.8965561175246,12.980270669039783,26.169780452732994,35.358997279252435
2025-12-12 18:09:48.490956,Right,8.19676585575462,5.2155362673183845,9.352305444213926,7.531623860448235,-62.65010053661035,-2.7794772554029805,5.416606042724197,9.030045029718167
2025-12-12 18:09:48.494972,Right,-11.122976472212486,-21.483572094008196,-13.377656256558112,-15.041305540101348,176.9872178588421,-24.13335782939339,-19.367240577846133,-16.957305270438155
2025-12-12 18:09:48.499918,Right,-11.130823455074733,2.4763117393613356,8.71759762704096,-2.9274592977344582,113.69049316174915,-10.132284494573469,0.07371571037492686,7.266798552149339
2025-12-12 18:09:48.504001,Right,7.386163267998654,32.580572775676046,36.64843339794788,21.208335231373894,-142.1324995059449,13.629091505940778,28.957206153559127,36.7344148568809
2025-12-12 18:09:48.508028,Right,10.066506847590972,13.017701610077893,20.045109894033885,12.457169824844641,-121.98953967194075,3.8588292623780944,15.262942080189532,16.98445941357386
2025-12-12 18:09:48.511031,Right,-5.808068381769772,-18.174368147136192,-7.740967429406737,-11.640039399660054,123.47040751009195,-19.164888955936476,-13.035568450137362,-13.640493930002776
2025-12-12 18:09:48.515025,Right,-7.165350621033667,-1.1429421696921054,7.610826104275475,-4.576023459188946,121.08245641511166,-10.222407169372673,-1.6162050741622807,3.034877339063314
2025-12-12 18:09:48.519038,Right,11.666003464454661,32.90129908274503,39.39682093061674,21.430992728983256,-135.43983692293943,15.797108605070207,27.726542409659487,35.04701611312885
2025-12-12 18:09:48.523053,Right,17.76640827186293,20.083038487697195,29.98145175307036,18.349096423433366,-170.83885598950923,11.747218423634877,18.338964645328815,20.240595693128853
2025-12-12 18:09:48.528041,Right,1.0755838075947395,-16.27022252164261,-1.4483336895027605,-7.571549065194631,82.41674884830834,-13.81467181453263,-14.21320440150157,-16.591339196405897
2025-12-12 18:09:48.531995,Right,-6.60918700983666,-8.820398922057393,4.976644957518147,-7.314026429199657,155.3288395844098,-12.897416591451474,-10.158686619844048,-9.013421545651
2025-12-12 18:09:48.536094,Right,9.279068424380966,28.05124069321755,37.689815395136975,19.132098426878656,-83.21249434782993,12.157233286587143,23.136468506138044,27.40890274821504
2025-12-12 18:09:48.539083,Right,19.29738171105646,25.11876583351477,35.548774985149066,22.47250796362823,-182.901509617297,13.387358082368337,24.52830942637138,23.998605500768463
2025-12-12 18:09:48.543113,Right,5.332464486802564,-12.422671748621724,2.5652217185306654,-3.948687651527507,45.59406880562767,-12.551581730030193,-7.548575243751657,-13.402623680989564
2025-12-12 18:09:48.547109,Right,-6.311643330186143,-15.68570169351733,-0.15179093482038297,-12.395431650767932,178.28300541687133,-18.325589312608827,-13.784040747257677,-16.818180429560016
2025-12-12 18:09:48.551121,Right,4.372831494884849,17.857505508890426,30.042035695472805,9.28092006143197,-26.954961798375848,4.647086414401201,13.788538967249224,15.549433779511673
2025-12-12 18:09:48.555159,Right,13.147583497035612,19.923393331919215,32.11726306017772,15.511599077764913,-178.6901886449299,10.096942678979758,17.62769499789283,16.793302156796926
2025-12-12 18:09:48.560137,Right,-1.9424764126488299,-19.061814770847377,-3.0639871105304337,-9.970025132111914,11.394010919777884,-15.114465042890515,-15.12250414490336,-20.878736004013263
2025-12-12 18:09:48.564091,Right,-17.172516915183223,-29.99814857603633,-13.41685589536064,-21.82044823837532,186.0543526258307,-24.404944856073598,-25.927400910381948,-28.892706628905216
2025-12-12 18:09:48.567105,Right,-5.545811488153049,6.576530444009222,19.715084015217144,2.8080670598283177,11.966496985722415,2.4558956301389117,6.628438139612626,10.22269946479173
