timestamp,label,FC3,C3,CP3,Cz,FCz,FC4,C4,CP4
2025-12-12 20:49:43.391251,Right,2382.1319290419674,2583.6712819403665,2620.9504297617173,2487.278534283756,2082.771503969586,2141.216250495263,2432.551644962364,2746.8939048259604
2025-12-12 20:49:43.407306,Right,12828.551034190754,13918.070731688333,14118.959316576533,13399.370443169264,11218.37269590373,11535.262597769626,13104.387548218827,14797.500335779478
2025-12-12 20:49:43.411324,Right,29386.75012534219,31899.625590391344,32360.29820065872,30712.94061580938,25709.44806298561,26440.358616976584,30035.798721693132,33916.38343596824
2025-12-12 20:49:43.414321,Right,36717.35221038402,39902.27232375449,40479.36994852423,38423.28238492299,32157.36961874346,33077.334773179864,37573.044279777154,42429.45898410258
2025-12-12 20:49:43.418347,Right,24796.49783734647,27039.180358691417,27433.05429408599,26047.690321424176,21786.561368063572,22421.17746406526,25465.62582960155,28763.290376999095
2025-12-12 20:49:43.423362,Right,2700.96935886587,3122.0450516970886,3175.152895097097,3028.5271739864547,2489.3990385557263,2603.555889191921,2952.958753106155,3345.382103548938
2025-12-12 20:49:43.426379,Right,-13887.129139261146,-14860.537199697865,-15062.445913626289,-14280.929257982585,-12045.30449965832,-12294.510242611985,-13970.1776941001,-15769.683983227063
2025-12-12 20:49:43.430372,Right,-18011.71956280101,-19358.21794899553,-19623.977311815892,-18612.04115774203,-15695.495546230755,-16019.285496731463,-18201.049159503833,-20556.161826052936
2025-12-12 20:49:43.434337,Right,-12877.397545840126,-13824.551433754852,-14013.40197463776,-13288.641637892346,-11214.11711746949,-11437.503320324002,-12995.15725468722,-14678.881682334933
2025-12-12 20:49:43.437347,Right,-5609.282522993861,-5966.384763022419,-6045.109875252354,-5727.524605771992,-4843.151369224885,-4931.733422811842,-5602.358443393372,-6325.6794585577445
2025-12-12 20:49:43.441403,Right,-1664.8095879383618,-1696.542027259129,-1714.6125768502243,-1618.0891670422861,-1395.981284699752,-1393.6827443043003,-1581.8604714720277,-1785.419571127044
2025-12-12 20:49:43.445425,Right,-2473.3055622815154,-2573.9170906632207,-2605.164896797971,-2461.274002661463,-2119.728638715227,-2116.3468373023206,-2404.1813958291896,-2720.163984254701
2025-12-12 20:49:43.449442,Right,-5745.461308381171,-6126.743080806569,-6211.638818339561,-5880.663568874355,-4980.764665772906,-5059.609262600425,-5749.750096577336,-6500.912937542307
2025-12-12 20:49:43.453457,Right,-7853.979753955267,-8424.075732398429,-8544.894333352218,-8093.715336063993,-6813.383626074763,-6966.713164970977,-7916.735726015293,-8945.134428008343
2025-12-12 20:49:43.458422,Right,-7005.464347855421,-7517.289088070858,-7625.883847276797,-7222.939682335709,-6082.1450446220115,-6216.101466791821,-7064.285028485232,-7982.227110870532
2025-12-12 20:49:43.462490,Right,-4603.455017073429,-4924.879599739681,-4995.999197100871,-4728.476352197467,-4007.1531517410185,-4065.739853697247,-4623.009554188815,-5228.95045310189
2025-12-12 20:49:43.465492,Right,-3342.0195163168246,-3566.871169983875,-3619.190758156241,-3422.0292391330004,-2905.8483137289295,-2942.468935340061,-3348.120719069033,-3787.4596028643427
2025-12-12 20:49:43.469446,Right,-4099.819865688798,-4395.443900775164,-4460.080609908095,-4221.267506975681,-3549.117844660883,-3635.903347592335,-4134.615150158759,-4666.899881643709
2025-12-12 20:49:43.473517,Right,-5239.601044480572,-5636.286953546922,-5716.9444925303105,-5417.485108452267,-4547.84188636404,-4667.204531237716,-5304.416078372276,-5983.756942484528
2025-12-12 20:49:43.477538,Right,-4974.3409789882135,-5354.744283800479,-5429.025526135229,-5147.602083041449,-4344.616763808648,-4430.027937954175,-5035.978038242785,-5686.2242061696015
2025-12-12 20:49:43.481553,Right,-3621.1741171509493,-3895.963897373993,-3949.215526568005,-3744.8410373163642,-3172.8790169114945,-3218.169599045883,-3662.2153296174947,-4139.6168762424495
2025-12-12 20:49:43.486499,Right,-2906.2046688732225,-3128.728181127226,-3172.110174499452,-3008.7928484419826,-2527.782588829403,-2585.3629805267556,-2944.4375724594574,-3324.9299218826927
2025-12-12 20:49:43.489507,Right,-3507.3085648858687,-3785.727000150364,-3838.0159746708814,-3643.0707840395626,-3043.658085144474,-3132.862218149123,-3565.059291261132,-4021.007653917186
2025-12-12 20:49:43.492590,Right,-4237.757716670167,-4582.829083191464,-4644.919110581977,-4409.79855013662,-3704.878701742855,-3791.2067498939577,-4311.93147856486,-4867.7100484811235
2025-12-12 20:49:43.497576,Right,-3814.0229986413615,-4131.717428682139,-4187.692522620317,-3973.7908978578635,-3352.4591717135627,-3414.8844149452634,-3884.547407112317,-4389.926079971483
2025-12-12 20:49:43.501629,Right,-2617.8247352569597,-2844.154488984961,-2884.262958528707,-2733.915346556576,-2292.4870604743483,-2350.4017896510195,-2674.680527643999,-3021.202014245093
2025-12-12 20:49:43.505607,Right,-2075.6550047359196,-2262.1578304250725,-2295.8684126620647,-2174.5632751290686,-1803.012231678702,-1870.8303630916635,-2128.6441317404388,-2400.318497872213
2025-12-12 20:49:43.509629,Right,-2663.931384818512,-2902.8954405288678,-2946.196908449754,-2791.714036297053,-2331.7563822822412,-2398.8982097067637,-2729.14254427189,-3081.8791327814106
2025-12-12 20:49:43.513632,Right,-3319.1365908095613,-3618.1793650987092,-3672.897907328792,-3479.8969127309974,-2923.7045013936004,-2987.7204247118207,-3400.552009014762,-3846.706328031374
2025-12-12 20:49:43.517590,Right,-2949.974228181527,-3225.4681310011074,-3277.2214059059042,-3102.2788268493023,-2591.4032011553645,-2664.561697829282,-3034.619888041634,-3432.6482003051788
2025-12-12 20:49:43.520601,Right,-1894.455661492655,-2086.5008712769486,-2123.5984462851193,-2007.235357815167,-1650.5216005715774,-1726.077453119331,-1967.0659458597656,-2221.3037202856503
2025-12-12 20:49:43.524676,Right,-1389.1572871697135,-1540.2710896285716,-1568.9594029667787,-1482.3457820661133,-1217.2186529871542,-1274.2819141231012,-1452.445530894911,-1639.984675761778
2025-12-12 20:49:43.529686,Right,-1880.4387716528727,-2075.18174226908,-2110.8670489471406,-1997.730401396053,-1667.021027323557,-1715.5154907534597,-1954.1943853587145,-2211.19176544575
2025-12-12 20:49:43.533696,Right,-2479.71703897696,-2730.842833352741,-2776.669159898651,-2630.322268942604,-2188.1165294873063,-2260.913297923631,-2574.3388412194327,-2911.0631647126283
2025-12-12 20:49:43.537653,Right,-2212.6277299437206,-2447.447679325589,-2489.621397271985,-2359.860520275426,-1939.4661052228184,-2031.0468738543568,-2312.334960078704,-2610.0146232820116
2025-12-12 20:49:43.541690,Right,-1309.4760143647436,-1470.8327662313823,-1497.8108326655347,-1421.2362692528404,-1157.3044287418015,-1222.619767251541,-1393.3767206447665,-1572.3032022964908
2025-12-12 20:49:43.545731,Right,-830.0551811500918,-951.7559373492841,-970.6163108809851,-921.9034911965718,-760.0477748053381,-789.9163695430616,-902.944433946046,-1024.3782473205356
2025-12-12 20:49:43.548760,Right,-1212.0326937580248,-1368.195448622806,-1394.6600828026421,-1323.7974322779337,-1094.096660459647,-1136.4158649067394,-1297.3333843376022,-1471.0431404637638
2025-12-12 20:49:43.552748,Right,-1728.2006896598032,-1931.0191611978225,-1967.379048769595,-1868.005540242768,-1528.230399776483,-1608.5310424341587,-1832.0007742824964,-2068.9031512490474
2025-12-12 20:49:43.557776,Right,-1526.3465576852905,-1713.7937528730836,-1746.631567474804,-1660.9350670749554,-1354.6774899208685,-1431.0702732304344,-1628.0606375946663,-1835.2868895324646
2025-12-12 20:49:43.561721,Right,-773.829316276242,-898.7747185224434,-918.9367662869627,-876.5299467484001,-718.705021379632,-753.3334662126144,-857.6983530253638,-968.6381924530724
2025-12-12 20:49:43.565793,Right,-363.6078528534854,-456.2471770956181,-471.2178132769186,-449.6491478916723,-362.00173675233964,-385.98070590011775,-440.82402123487554,-499.11495148658287
2025-12-12 20:49:43.569787,Right,-666.8550982382149,-787.6749291823944,-809.5476181465201,-767.9853090964025,-605.1557358654682,-663.8497710052179,-755.2705779956887,-849.1372112681856
2025-12-12 20:49:43.572798,Right,-1080.0665656528436,-1236.7373617482372,-1265.3842067618389,-1199.376796190394,-960.7328720575315,-1036.9243533302797,-1176.6825109024066,-1322.3101277007954
2025-12-12 20:49:43.576861,Right,-917.1350061116391,-1060.8808726468123,-1086.2519557799678,-1028.5721578868106,-839.8224626785959,-887.6992481283378,-1005.8433664737968,-1134.3048353026388
2025-12-12 20:49:43.580862,Right,-329.4998400765471,-426.71817544696387,-443.88867588492576,-417.2269144807942,-336.7113599209697,-361.0190901766182,-407.07852574193384,-462.0971172102727
2025-12-12 20:49:43.584858,Right,-14.084487566142343,-88.60705258033704,-102.95036629016977,-92.81213085073978,-44.679703343019355,-85.50354764173971,-92.53892246884061,-103.08881753566675
2025-12-12 20:49:43.589851,Right,-229.5728527419269,-324.17544834769797,-342.24091024999507,-321.73641922790557,-225.90009858069243,-284.69389354391024,-316.60702226992,-352.3680066445377
2025-12-12 20:49:43.593862,Right,-515.5292959453072,-635.0736832811381,-656.4714836343192,-622.7281045786804,-498.3461633408442,-540.8263097694144,-606.9953033683705,-684.5919465275947
2025-12-12 20:49:43.597867,Right,-393.09836959670065,-504.9296975187026,-524.7007999359048,-498.84309300460154,-408.89909381378675,-431.5114146518172,-483.6568113734247,-550.7071920129238
2025-12-12 20:49:43.600803,Right,17.347331246885005,-63.143648111319635,-78.35990935773589,-75.3868771691341,-35.992391881067306,-69.12155909620924,-71.78078874037601,-82.82030858990038
2025-12-12 20:49:43.604889,Right,250.26175423373934,189.35540835175198,177.25186399981612,166.29651698260568,183.7044376944541,136.39223787205992,162.94369461847236,187.6444498822093
2025-12-12 20:49:43.608878,Right,140.5843757293187,73.41301453026244,61.086821593984496,55.120513422065414,75.0773410560505,42.544869624165585,56.005158992513316,64.67856052686693
2025-12-12 20:49:43.612845,Right,-29.927591196785215,-109.89140178318485,-123.99466831298196,-119.83726435311837,-91.3177422361623,-105.62508976375102,-114.50567916771979,-134.00297917140415
2025-12-12 20:49:43.617890,Right,35.19265455416462,-40.61334260503645,-54.31193799737957,-52.71284108245163,-23.497091875295155,-49.97623505603406,-52.260300701949745,-63.14054002359626
2025-12-12 20:49:43.621925,Right,290.7329279855476,235.78720817773137,226.60442161621177,212.40510400701896,219.16721606931242,174.87395692491555,204.68855071338476,232.58561280815047
2025-12-12 20:49:43.625935,Right,476.4119979518491,439.3241864783049,436.0056253551302,407.6342764250003,374.43102320696926,344.26746074523544,398.48268057292444,451.67312612888054
2025-12-12 20:49:43.628949,Right,460.67153713004154,424.7680094559546,424.0042016459556,393.8336419485713,342.84869937114854,336.2505014221679,388.665294891769,435.8040919330815
2025-12-12 20:49:43.632919,Right,359.40263060272264,315.46004238111937,313.73104084902434,288.6407344859026,261.9820123244899,245.99204571841983,285.17835046644905,318.86398586139967
2025-12-12 20:49:43.636965,Right,357.20762845840363,313.40978691750934,311.8912281102239,286.0941271042175,281.71574565612536,241.66066180793132,280.86289122300514,319.01977173228806
2025-12-12 20:49:43.640938,Right,493.35858846027986,463.19645754565136,465.52400996605866,430.2089173110726,398.6531656987936,366.902276224806,423.6825736820756,481.0314288850641
2025-12-12 20:49:43.645000,Right,645.5420252945914,630.5108035873855,636.7922813115874,591.9986864690145,512.9617246545095,509.97970941367385,584.7904749427689,658.7280223940907
2025-12-12 20:49:43.650016,Right,691.5597068062634,680.9874299359799,687.6146496954898,640.651261994557,556.4492019257159,552.5837536491163,631.1976378868858,711.72399897789
2025-12-12 20:49:43.653970,Right,644.8811209644773,630.8831431844446,636.1023346046277,591.1282666059269,537.8801694528374,508.0239151221176,580.0845456254028,660.624620400893
2025-12-12 20:49:43.657045,Right,616.7905251068296,602.5530815535167,608.5169590689475,562.8768181297055,514.330775031849,485.26116869723774,554.1429256846895,632.804603792436
2025-12-12 20:49:43.660999,Right,675.083759445115,667.4321647016914,676.0824909842922,626.1223239531391,542.6553592970595,544.9860456850729,620.4496298437007,700.3424035737407
2025-12-12 20:49:43.665139,Right,780.1104325254564,780.520130118879,791.0149252565461,736.4666275323252,629.5489494692301,642.1302585743833,729.2070184745244,818.3906049723737
2025-12-12 20:49:43.669085,Right,851.9252569400123,857.8124021066469,869.3497953926562,811.496756861161,715.0785846166546,703.5921489195898,799.9744501125533,903.3671955508762
2025-12-12 20:49:43.675145,Right,855.2821440435946,864.5973215517588,878.3523613497382,818.4022275243187,729.3687938755611,707.0182629884221,806.5465577883879,917.0029875544133
2025-12-12 20:49:43.678117,Right,813.0959483095212,824.0417765558814,840.4195287586772,780.6321853968548,676.3367604650557,675.6990729548852,772.3671355595579,877.2098656791495
2025-12-12 20:49:43.682212,Right,781.1180399656296,792.3748923801468,809.4753440615023,751.4505715246778,639.2968999270815,650.8788354891003,743.9951919479645,842.1700638936018
2025-12-12 20:49:43.685075,Right,818.9333410916151,834.0620955136837,851.0184402851155,791.5977395494701,688.9599100189516,682.1825766619877,779.9698167867027,885.0875373291783
2025-12-12 20:49:43.689129,Right,932.8214537332533,958.9222643043613,977.698001281824,911.5574573172489,798.6667704682332,783.635117339436,896.1211346393684,1018.2054908433929
2025-12-12 20:49:43.694167,Right,1031.219540725113,1067.8396540393587,1089.0696511929855,1017.8451064620167,867.8022317176801,878.1164944866323,1002.474695194629,1132.953021713649
2025-12-12 20:49:43.698178,Right,1007.0872351054568,1042.2408978977473,1062.3747758156387,995.8545534098521,834.9556707472075,861.8389122275403,981.3723826679634,1102.9950069455663
2025-12-12 20:49:43.701174,Right,898.4448540384183,923.623978608055,939.758972879732,883.496835405007,759.210846742033,762.8190378859872,867.7705162060447,976.7939339102013
2025-12-12 20:49:43.706147,Right,879.2343589460943,903.6371302595362,918.5907021934399,864.9130440476583,762.9106573853642,743.729036841658,847.1959088783478,958.6458492936799
2025-12-12 20:49:43.709198,Right,1022.3582199432421,1061.6140856064158,1080.0220168451779,1017.5587873851182,878.0110402577557,876.1930990073597,998.1643193614436,1127.297123300028
2025-12-12 20:49:43.712208,Right,1162.2903304049978,1215.1090774198528,1236.308605283266,1165.5056771570817,983.3994515581289,1005.3196551441215,1143.392374303774,1286.050775714917
2025-12-12 20:49:43.717225,Right,1108.8929959516972,1157.3031116045313,1176.656754294294,1108.361081337207,946.9490742081543,953.5912658937741,1083.50804027915,1219.723463458824
2025-12-12 20:49:43.721246,Right,936.0206275212113,971.151327676489,987.751525752712,926.723637956311,814.7581654196838,793.667777868337,902.6113772410899,1021.041112645762
2025-12-12 20:49:43.725260,Right,899.641998354462,935.1201247362187,953.4177880710922,891.2162534625968,775.4804828459164,764.3132411724655,870.2548147396883,984.412726490642
2025-12-12 20:49:43.729271,Right,1069.5553456622874,1121.8971780691063,1144.8209075876512,1072.5328221187228,905.4019855229417,923.8765964634949,1051.4166369698942,1184.4817000108305
2025-12-12 20:49:43.734222,Right,1215.2351351793623,1279.9153897757642,1304.5952252240386,1226.553011287353,1040.6745191307273,1055.6707959428895,1201.6485390331363,1355.4480334339896
2025-12-12 20:49:43.737236,Right,1133.2387642193353,1191.0577754147816,1213.306824049796,1141.966163195786,992.3159349759808,979.0161342982901,1117.0126434026752,1266.5587776427856
2025-12-12 20:49:43.740308,Right,941.5370618236484,984.9384794820799,1004.6605086558266,944.2804380817106,822.8789678157773,808.6177392238751,925.6815793308197,1051.358356768149
2025-12-12 20:49:43.744321,Right,909.4422132414766,951.3452106718905,971.194578898605,912.7758950663265,772.6870380273322,784.7239540651208,898.3643980050692,1014.1981547645992
2025-12-12 20:49:43.749321,Right,1077.6891314609675,1132.941624874482,1154.1030868623639,1087.1998768355697,918.7320129054133,935.0234572690679,1068.0647060538176,1203.911518139299
2025-12-12 20:49:43.753350,Right,1213.3210827254225,1280.0600218003383,1301.5975848966045,1226.8710750709288,1059.048721086001,1051.835634533898,1201.2529500912642,1360.3392567920964
2025-12-12 20:49:43.757385,Right,1139.0764399346663,1203.1701309779892,1223.8361187226838,1151.385469472385,998.8029240992619,986.5823044632562,1128.0547837822232,1280.5886110863648
2025-12-12 20:49:43.761367,Right,962.3498654125724,1016.142873093253,1035.2140758759342,971.8030128004029,825.2103519074153,836.4977140732808,956.7444552691886,1081.2623475487344
2025-12-12 20:49:43.765324,Right,913.2263382236706,964.5758550646715,982.3713818739634,923.2011886459077,777.572368226829,797.5326017489424,911.0658386396244,1024.761559548322
2025-12-12 20:49:43.768408,Right,1040.5060112726642,1102.4316930340137,1120.8343048202805,1055.9684350576717,909.4142574722646,910.1251951698214,1039.3420532104792,1173.1104438812472
2025-12-12 20:49:43.772415,Right,1162.9526951583102,1236.8124422810506,1257.322657205863,1185.160542724072,1025.2348936172202,1020.0656242275145,1165.452033492038,1319.9920893660747
2025-12-12 20:49:43.777443,Right,1112.326887288713,1184.9926125498023,1205.630613205256,1135.9573768222472,962.0882018506527,979.618257684866,1118.9682505185483,1265.0709362132475
2025-12-12 20:49:43.781445,Right,946.2101588327205,1006.2620806877967,1023.0227779366542,964.2791853105882,805.4190815439215,832.1153258796548,949.806866993662,1070.3972679006401
2025-12-12 20:49:43.785460,Right,870.120071359328,923.7196359995287,936.2334442576393,883.1623062943108,755.7972216958879,757.822033115197,865.8012632797472,978.4620650841389
2025-12-12 20:49:43.789416,Right,972.520875107497,1036.5532187826466,1049.355486200191,988.767973449314,858.7221290183952,844.5843671675539,966.7014670649078,1097.1004250568803
2025-12-12 20:49:43.792468,Right,1105.3978810391854,1184.4643503003754,1200.7496460978873,1128.746310736984,960.3408000484342,966.2150951984804,1106.1050138906576,1252.9345347031485
2025-12-12 20:49:43.796492,Right,1072.413154232083,1151.492133897962,1168.6929764647502,1095.2912430046126,917.962545266375,940.4702877851669,1076.3463117417414,1215.838693773374
2025-12-12 20:49:43.800503,Right,894.8054943894967,960.068541317014,974.6549493237399,908.8949439581484,778.0334878772264,779.923056704225,893.7419734364375,1013.2245100897271
2025-12-12 20:49:43.805498,Right,793.7049224583898,852.408497114433,866.2004532990977,803.4551665461622,707.934012298705,688.3548967086244,789.7929595173337,902.2883005591575
2025-12-12 20:49:43.809526,Right,888.9704823691864,958.5514453120995,975.9061104368884,906.0387067000847,780.809811939951,779.6788061849074,891.7718791724183,1015.5702172282618
2025-12-12 20:49:43.813548,Right,1025.9317939921748,1107.8825543574058,1128.475091160275,1052.08971575927,883.3149621005869,909.1932060235413,1035.0868036183529,1170.2721269610338
2025-12-12 20:49:43.817552,Right,990.2486793168355,1067.8204486651812,1087.2042829443235,1015.3375690211542,862.7103228574852,876.7935825063614,994.7272737550084,1125.88540272112
2025-12-12 20:49:43.821572,Right,813.5903205142822,876.5493559183087,893.3281826698221,831.5245421903674,729.0557978209108,716.0324716112809,810.4080545983743,927.2125320844352
2025-12-12 20:49:43.824589,Right,723.712903378997,782.9136776714586,800.5106933785137,741.5974198847543,644.2367149032652,640.3891998243053,724.517107622698,833.419610703364
2025-12-12 20:49:43.829611,Right,813.6549227465875,884.9320004072506,905.5958161854651,841.0844917155337,702.5841994903749,730.5289393918356,828.722699275706,943.1235826346092
2025-12-12 20:49:43.832611,Right,920.5539406854659,1003.5298567505088,1024.8907854445279,956.6821246519685,801.011545548914,831.1176124889171,946.7624719874002,1068.4705361989327
2025-12-12 20:49:43.836623,Right,876.9548285824712,958.6107089282013,977.8373429644853,914.0314037967473,785.4111162548652,791.8712921371916,906.3860740561504,1021.956261067884
2025-12-12 20:49:43.840642,Right,743.1733294400619,816.6782016311772,834.5191132226028,778.2117546827067,668.0267744795419,673.7905895782169,773.7512206598185,872.2694722516462
2025-12-12 20:49:43.844652,Right,692.2078911714489,762.622979849577,781.2418878083117,728.376575744478,602.1739467399893,631.9488170562545,723.8396861527581,813.3687791624106
2025-12-12 20:49:43.848673,Right,755.3589365480002,828.6692646164447,848.4086202639155,794.4926324181724,655.9510114206932,688.3295918643707,784.9341076461133,883.1559665065724
2025-12-12 20:49:43.853675,Right,805.2453688192181,880.0392707926221,900.3761524274014,845.2061314114835,721.5425416796934,729.6976999660255,832.1540162652964,942.4436063347384
2025-12-12 20:49:43.857690,Right,755.3412682162598,826.3894636889454,847.4652664870955,793.9287817995064,683.1843538089888,685.7479924177751,784.4620153801516,891.4128677991685
2025-12-12 20:49:43.860701,Right,661.0832358010812,726.0100293776486,747.1388084476348,698.1440011949744,580.152372626937,605.9616337151965,694.3912604666548,785.3313926474657
2025-12-12 20:49:43.864734,Right,616.2659733566688,677.1708920947276,696.084961461369,652.2732828328153,532.4917451351648,566.1808485613437,647.969765365473,729.2642023293301
2025-12-12 20:49:43.868752,Right,635.1427698374027,696.3464740875643,711.9297483556438,670.9146059511695,566.3087944599101,577.8326551098144,660.6027880670736,746.6448911495972
2025-12-12 20:49:43.872748,Right,663.7829145061551,728.3363292927388,742.1246689218096,701.0618208943633,598.6783097896259,601.3515234163497,687.4610784449615,779.9638834896032
2025-12-12 20:49:43.876755,Right,654.1225688274717,720.5254044840112,733.7709587260615,693.2573288388085,570.4474389411043,596.9748000357067,682.6804266077233,769.4772032019682
2025-12-12 20:49:43.881789,Right,601.3848411502549,664.6808015846182,676.2473705147859,639.2177594373934,512.0398955034325,551.909186727833,633.2772662659409,706.3373930205125
2025-12-12 20:49:43.885802,Right,541.2071212219307,599.6822948355693,608.9651009826921,575.0556847448461,476.6448348661652,493.26808199333027,570.5057615112746,635.8538466766477
2025-12-12 20:49:43.888868,Right,520.5089827557094,579.160673397826,588.7175103847403,553.323215416749,473.5183585858904,471.1872825032333,547.8251027530059,614.8896036131773
2025-12-12 20:49:43.892803,Right,544.7890300346771,608.4814942086814,621.059497970622,581.8259128483478,481.17397314484697,497.23552401771303,575.0301075128373,644.8815192300826
2025-12-12 20:49:43.896850,Right,560.1629516381072,625.7818941815058,640.6555660475278,601.4860523610841,480.63871755381115,516.7382191073848,591.804835940362,660.61147110397
2025-12-12 20:49:43.900795,Right,519.2430604039691,579.7827066809405,594.8161032669013,560.6694764136337,460.19765708677005,479.93801795342006,546.8370051158126,613.544363379362
2025-12-12 20:49:43.904852,Right,450.53082936489955,505.2931972719962,520.9596833183896,491.28233729477506,420.05278257327154,417.0379647266818,476.7267080118181,541.9578931988217
2025-12-12 20:49:43.909858,Right,419.542519914452,474.2551597926067,492.62457858840935,463.07772383478004,383.84741703257896,393.1955926922383,452.9254489047453,515.7930319447769
2025-12-12 20:49:43.914819,Right,432.2026993219042,489.40890082891565,510.4079364454374,479.11930986109655,376.6558927791193,408.5796775849303,473.04791754554026,533.4684238609625
2025-12-12 20:49:43.917885,Right,431.4359319633804,487.1608739057556,509.1470835575601,477.5485910088755,384.88123009260744,404.61722926434595,471.2124528209679,530.8640172583982
2025-12-12 20:49:43.921835,Right,390.0450286491541,441.2347425814951,464.611787109985,433.21952214778867,370.02557507215533,361.88657880434766,425.98508085799403,483.8837992976187
2025-12-12 20:49:43.924853,Right,345.40701231057756,394.6384233337594,421.30713304842357,388.91287355765235,327.1798566429643,323.2020059331553,383.93349808244966,435.6927062922623
2025-12-12 20:49:43.928904,Right,329.0219398154877,379.42458289442584,408.6134027405642,375.74129725806415,293.9904798245989,313.99637279228773,372.6498208694393,417.30341320158914
2025-12-12 20:49:43.932933,Right,322.4047347494634,373.40494051727,401.6072219708003,370.9526107162237,293.0847573367646,308.4633564336691,365.26189277891535,408.30033855861984
2025-12-12 20:49:43.936936,Right,304.30189558758866,355.38676962815225,380.89415547496174,353.82323494029697,300.85697366052773,289.44923919904977,344.80885193601716,390.38072201493196
2025-12-12 20:49:43.941899,Right,285.3535033190856,338.70662913518026,362.75878093531355,338.78554064873606,287.22626045218203,276.1796357514104,331.5643791332841,375.5739810494706
2025-12-12 20:49:43.944908,Right,268.9508387140231,324.52807955094613,347.4400692238705,327.574649265036,254.8202269913163,270.9216564296512,325.162346251891,360.8045567739755
2025-12-12 20:49:43.948962,Right,232.63295581797138,285.5214112381218,305.50032197055407,292.0683580453042,222.61862617905717,243.00304807012435,291.15201878536027,318.3726946559036
2025-12-12 20:49:43.952976,Right,182.18729266838636,229.29192008334212,246.32039665221237,238.10874221031554,199.6439246503869,195.69899365783203,235.1903833951801,259.91327853756957
2025-12-12 20:49:43.956996,Right,167.39117019018158,212.23973526374903,229.4071167872753,221.0931775502395,190.0072442572564,182.60312178102322,217.17165866261348,243.149963421165
2025-12-12 20:49:43.961005,Right,199.6761310705915,245.57420186151285,264.6355154142948,253.32419437880162,194.56156048865523,216.2875863147201,249.19177893933374,275.2404397317441
2025-12-12 20:49:43.965014,Right,211.23266413400415,254.00317547575105,272.8528864465188,261.6716292698402,193.62489143642597,227.46863427071366,253.97832994931377,277.93447425193153
2025-12-12 20:49:43.969012,Right,153.1689699535491,187.09975437633693,203.84495783702005,196.5415425186511,160.8406381495297,169.73761616961565,182.9336584736593,204.13368132070173
2025-12-12 20:49:43.972036,Right,82.86461924668401,110.78176741115749,127.35752230673097,122.57062501867767,110.36108515108936,103.47236479487037,106.10442895570304,125.0432780534029
2025-12-12 20:49:43.976066,Right,81.91428702097619,111.97410187474452,131.01761626405641,125.24652150645852,92.43300410592929,106.20622643415118,109.11319869721774,127.92585109069478
2025-12-12 20:49:43.981073,Right,124.93412387854187,158.5724301955197,179.05580407346133,173.04181350732688,117.23431871680077,147.3735492870328,155.28103001613636,176.7052238091128
2025-12-12 20:49:43.985064,Right,116.92760546022328,147.4054421193432,166.36300558876246,164.46007880347315,125.96619039133657,136.55173918261426,142.66054601792712,165.28073251293972
2025-12-12 20:49:43.989087,Right,44.78089653124334,68.18249164405279,85.00649701291695,89.08986402023584,77.29910067876335,69.03875118185533,66.25502350425813,83.30057562468573
2025-12-12 20:49:43.993114,Right,-3.9669150104164146,16.786819370172452,32.674531474593095,40.343778620183,19.843013142351992,29.29151549487142,20.55527726316359,28.08575256401673
2025-12-12 20:49:43.996119,Right,18.1244552967255,41.78664666338591,56.27815602364717,64.82251968694618,22.036364531202707,53.245512501336634,46.27457642566878,50.17738690646365
2025-12-12 20:49:44.000127,Right,49.35448810266098,75.64184298599139,87.07383598963497,96.14518662617775,61.98979544232134,78.80910324386787,74.73912886530161,83.06016218900913
2025-12-12 20:49:44.004155,Right,21.419823566568084,46.8384068760206,55.581727512704674,65.90212205075659,57.35632229136536,50.75364879949484,43.32693105051294,53.556411512661725
2025-12-12 20:49:44.009155,Right,-41.904935595113784,-18.891441174899228,-10.822045976354275,1.163956328178756,-6.613292525347788,-2.0103926057345234,-17.381798154499847,-14.95577422180213
2025-12-12 20:49:44.013182,Right,-73.02627952425973,-51.92391842190409,-44.21800659998553,-30.297133862273768,-53.87957676843507,-24.325119194341823,-44.87965098163113,-51.43283820542274
2025-12-12 20:49:44.017211,Right,-57.25458771572448,-37.42107674316503,-31.4658892013249,-15.957010678655934,-34.85444104700582,-12.2376268148073,-31.363522979896516,-36.76625008077826
2025-12-12 20:49:44.021220,Right,-36.18287252142909,-16.873434560140595,-12.617529151670169,3.12874084134819,1.6209890298196115,0.3858839766471647,-13.804212353483308,-12.317386506125331
2025-12-12 20:49:44.024246,Right,-45.707431073416956,-26.9200931781088,-22.821259164775256,-7.049161436385475,-13.584458250028547,-9.046141718630679,-21.192703751905356,-20.709254330664407
2025-12-12 20:49:44.028255,Right,-86.70651254497352,-70.88995459623402,-67.02475640043849,-48.60843824764015,-72.36235089536058,-42.81971999251982,-59.297483145899605,-69.14094473602017
2025-12-12 20:49:44.032258,Right,-134.77847682088031,-124.11897067388054,-122.15104994602734,-98.92788694333285,-113.21953263718751,-87.82759451310267,-111.53537376655731,-128.37030752713326
2025-12-12 20:49:44.036211,Right,-155.35065152292373,-146.5897835183714,-146.22133867826778,-120.4809774797468,-109.13428659943747,-111.80603167411755,-138.21673721712432,-151.8508422357263
2025-12-12 20:49:44.041271,Right,-135.8079642674711,-122.78616880701156,-121.54394399697776,-96.91085396808921,-90.01377719957964,-94.29352473243489,-116.97225261171116,-125.49504524219083
2025-12-12 20:49:44.045293,Right,-116.66077702197072,-99.74948093347484,-97.19717273017159,-72.21298471989576,-94.1895621662261,-72.51652248715982,-92.50406167565961,-103.31346980578382
2025-12-12 20:49:44.049301,Right,-150.5797193479375,-137.66828021331457,-136.45565716183046,-106.08775503115612,-128.07018296066963,-104.16372270791908,-129.23532517862623,-146.88164584341575
2025-12-12 20:49:44.052334,Right,-217.9819046678458,-212.85350438932073,-214.20108798562433,-178.2363894410082,-166.97571218805388,-172.57419870057493,-206.0130851593276,-226.31878499532468
2025-12-12 20:49:44.056346,Right,-239.0462965429906,-234.72868678349187,-236.2194262749108,-201.1645224048989,-179.4954287968867,-194.88704370685446,-230.1316303295025,-247.19563568278681
2025-12-12 20:49:44.060287,Right,-193.27237012557453,-181.89583431773644,-181.57782433427928,-152.20010222382552,-159.39557557619992,-148.5055963657651,-177.5538243639021,-191.89848416474706
2025-12-12 20:49:44.064365,Right,-162.66039635215566,-146.77536642910854,-146.2715641357645,-119.76624688923766,-140.79234619723138,-116.59598074563837,-140.08994394658657,-157.61587944177154
2025-12-12 20:49:44.069356,Right,-210.92839248979465,-198.42939533745812,-199.6291012626607,-171.30219287106593,-162.89913092265488,-162.38463221653365,-187.1477789779019,-212.59957468236098
2025-12-12 20:49:44.073371,Right,-281.31643293032903,-272.7938632025616,-274.17207657712424,-244.90605442386732,-212.30985791151215,-227.6944813176524,-255.64653397232905,-288.8777169874011
2025-12-12 20:49:44.077439,Right,-283.1642484574186,-272.2509949594387,-271.25116412727584,-245.23068706191407,-231.86305083157868,-225.29716927993286,-251.18816691819302,-287.29099510960805
2025-12-12 20:49:44.080358,Right,-233.6940505383609,-218.58549161913015,-215.60450505585965,-193.38437479168715,-203.65003994453582,-177.01190710217998,-198.39540507782476,-231.0579013669776
2025-12-12 20:49:44.084399,Right,-227.16026488014904,-213.62041196827704,-210.64690975398116,-188.93965248375252,-183.14331743769435,-173.35107496462342,-195.71570837417403,-223.66369134060733
2025-12-12 20:49:44.088431,Right,-284.7837965989893,-276.7674186515578,-273.6886619648358,-250.84359625766228,-217.41906552177534,-227.6839753366421,-256.2548073190592,-285.40713609706654
2025-12-12 20:49:44.092425,Right,-329.13046590826707,-323.5310694940126,-319.10942153268115,-296.65452690958773,-269.0151609042223,-264.72909322685155,-296.81086321311886,-332.3189733213876
2025-12-12 20:49:44.096448,Right,-313.88531870083534,-306.88215949248115,-302.26697995798895,-281.26608521132584,-273.00129721240955,-248.7989385227629,-278.6321956930042,-316.9028613342234
2025-12-12 20:49:44.101445,Right,-289.68175667047035,-282.4254794586159,-280.1292344406247,-259.74800316451,-240.6535906441859,-232.20244294794247,-259.57631057852996,-293.5373994867987
2025-12-12 20:49:44.105479,Right,-310.64399107161444,-305.7039826121909,-305.57093452184927,-285.42123488463403,-239.99919413901807,-257.6324218264199,-287.12948751283693,-317.92989097301324
2025-12-12 20:49:44.108491,Right,-352.0518362711882,-349.02188465971267,-348.60649643602665,-329.2264928517543,-285.2065762867278,-293.2003087199555,-327.33182925109577,-363.7224789679458
2025-12-12 20:49:44.112502,Right,-365.22783156635705,-362.86740127406665,-361.6077096950321,-342.4502141952398,-317.1336557600589,-298.09621618222445,-335.3694592002721,-380.590023936762
2025-12-12 20:49:44.116524,Right,-353.46050161405583,-352.00325416671694,-351.63202414504485,-331.5669921282679,-300.13863803312415,-285.11237877169333,-323.40884233871475,-370.2103187017492
2025-12-12 20:49:44.120541,Right,-346.9557423379156,-345.45287995346007,-346.2256800699979,-326.13637599596404,-271.8125354964286,-280.7948785441986,-319.17895592330024,-361.07552163730725
2025-12-12 20:49:44.124498,Right,-349.8761434441549,-345.25065753026865,-345.2756303768256,-327.40826276750886,-275.7298953172285,-280.6842854238057,-319.06112008256605,-359.45908837451134
2025-12-12 20:49:44.129574,Right,-354.4143981093657,-345.9791277217737,-344.81033527615364,-329.52783769380767,-299.53481471462874,-278.6560175907798,-318.4798120574851,-363.58913790251245
2025-12-12 20:49:44.133589,Right,-368.16506108577596,-359.2846774722857,-358.73218711902155,-344.7347366035392,-309.86409612512216,-289.9428927290137,-333.8129891292192,-382.46229892689735
2025-12-12 20:49:44.136578,Right,-389.5393574786722,-382.1572860624874,-382.5950208652648,-370.53423103969544,-306.27804707951145,-312.73015554319136,-360.8829373170156,-407.6664448707015
2025-12-12 20:49:44.140615,Right,-392.3109626904479,-383.89274598122574,-383.2316730863531,-375.7979648257897,-306.51254515576875,-314.94007929071086,-364.11700906892656,-408.33044249907834
2025-12-12 20:49:44.144614,Right,-370.386700335308,-359.32098207675153,-357.08904411498224,-354.4857124213013,-309.9389944972354,-290.933842040482,-339.01014338468667,-384.00469024205813
2025-12-12 20:49:44.148629,Right,-361.18402765103383,-350.9524390353472,-350.02954636124196,-348.48217640578514,-309.0747698210762,-283.2112999399833,-332.41234048159095,-378.995556019363
2025-12-12 20:49:44.152643,Right,-387.5212009468232,-381.3439500553068,-383.77389243867947,-380.05591440421995,-313.0582640193752,-313.50330506061437,-366.1012500602519,-412.5632040754426
2025-12-12 20:49:44.156652,Right,-414.09694392594974,-409.03731533460086,-413.23930470232153,-407.7116653001867,-328.5977541701868,-340.89207422797335,-394.3184362021857,-441.05775713105686
2025-12-12 20:49:44.161681,Right,-405.1442251217668,-396.60193639737554,-400.87623682327103,-394.1005427130731,-339.2227739827358,-330.0344747401541,-380.3633724882966,-429.00879305799026
2025-12-12 20:49:44.164682,Right,-387.971500073676,-377.2419061725959,-383.04824224783806,-372.66295275464654,-333.0813765625353,-313.52996913861716,-361.98061074427096,-411.1233027331764
2025-12-12 20:49:44.168687,Right,-405.3800848740502,-397.0143436874496,-406.0766296968213,-390.2774792953278,-328.9406499696197,-333.5526848444715,-384.7897510675248,-431.7787411879399
2025-12-12 20:49:44.172719,Right,-437.58286926627625,-431.3964112707181,-442.0321575811831,-423.71042587881675,-343.80446038616356,-364.2568599911174,-419.03920787444804,-465.40615716023603
2025-12-12 20:49:44.176659,Right,-433.7978987780516,-425.894121886231,-435.383135349839,-419.2268216878874,-357.0773182423436,-355.2800238680793,-409.5804472300806,-459.4336963824462
2025-12-12 20:49:44.182738,Right,-398.589514443127,-389.08985016157385,-398.0027512361994,-384.99467464810004,-341.8078859161469,-319.04112355812686,-370.4527875080239,-423.68458178598667
2025-12-12 20:49:44.185749,Right,-381.8478638873203,-375.1248435131856,-386.0842813933268,-373.87553796183784,-313.4939453326515,-307.49053467588965,-357.7568662214326,-410.3591119151679
2025-12-12 20:49:44.188740,Right,-395.0813418534235,-392.621687900275,-405.970345137408,-393.2234427810763,-308.868941633089,-324.8010607358883,-375.438338392938,-426.5585478101275
2025-12-12 20:49:44.191765,Right,-402.96464815048967,-402.0695629916736,-416.04943216382526,-403.09972513874527,-328.1525000992697,-331.8527538833441,-381.99049919558456,-434.67792893445585
2025-12-12 20:49:44.195777,Right,-395.29230984614696,-395.0614944031695,-409.3945953581133,-395.5830442860606,-339.65576554083964,-324.22716234327527,-373.9642188542639,-428.21773228864186
2025-12-12 20:49:44.200836,Right,-400.63605643907795,-403.17821859166725,-418.9774102444062,-402.9967138961656,-334.52208815782797,-334.1982846845058,-385.71381079021376,-437.04610262665665
2025-12-12 20:49:44.204787,Right,-421.37661396194017,-426.0278041966958,-442.61308224732056,-425.2722937503713,-333.4840291404398,-357.89077181118773,-411.4048812870169,-458.4556698278175
2025-12-12 20:49:44.208849,Right,-421.68430053349584,-424.0415794008877,-439.40930519707035,-422.61011094832793,-341.5245621695067,-354.01936448249035,-406.4969105005148,-454.3126653134823
2025-12-12 20:49:44.212841,Right,-397.224472504342,-396.0473599523539,-410.55424001894426,-393.53196242271224,-340.7094526346773,-323.5400758535252,-373.63985355448676,-426.3283875002526
2025-12-12 20:49:44.216845,Right,-392.55695311375894,-392.1032583814231,-408.33106423786376,-388.3052702412824,-331.5829362764489,-317.77993853308726,-368.4815739162732,-423.8764839825453
2025-12-12 20:49:44.219848,Right,-423.2412451186683,-426.0283920412767,-444.6878795871744,-421.4740866920911,-337.0149497577222,-349.63030808395706,-403.12340473610675,-457.81639714946505
2025-12-12 20:49:44.223856,Right,-442.5517676420277,-445.06507592706475,-464.32607468776405,-440.7927429806441,-356.39662194420816,-367.6963472016505,-420.99103699519765,-475.3605885040015
2025-12-12 20:49:44.228805,Right,-420.0243142262334,-419.08061257528607,-438.4821772716241,-415.80189782293746,-359.80876974534476,-344.9406270298059,-394.1456514785532,-449.0298473763978
2025-12-12 20:49:44.232877,Right,-394.06036583764944,-392.56942085456103,-414.1293783948058,-390.12027227977524,-340.5012714168988,-324.1138770360849,-370.3935441006324,-423.7422287632944
2025-12-12 20:49:44.236891,Right,-403.46404034958687,-405.5321527912747,-429.9267541291192,-403.1742980456911,-330.04101601667935,-339.0895044418867,-386.2792805811623,-437.1283966443734
2025-12-12 20:49:44.240917,Right,-420.21141227998305,-424.5607150075957,-449.551942484919,-421.8198044000892,-343.0063138976111,-355.16490062657977,-403.4258571618702,-455.0213298695162
2025-12-12 20:49:44.243926,Right,-402.68044829240534,-405.8570050363196,-430.0169620674569,-402.9831590624526,-349.6621248870506,-334.5276060430915,-380.8022080323426,-435.25867203902453
2025-12-12 20:49:44.247945,Right,-372.30040245025884,-375.2955826425459,-400.2488281726837,-372.65917147276923,-330.4583591208793,-306.42528914805735,-350.2041098100599,-403.73437518882565
2025-12-12 20:49:44.251940,Right,-376.3942801745143,-382.7262402608758,-409.8825047798455,-379.94170608150307,-315.79419836372836,-315.7927197247627,-359.9773703098763,-408.60059815307613
2025-12-12 20:49:44.256902,Right,-405.5752217596164,-415.0135052377591,-442.83585456525907,-411.2754326078575,-335.1126234004041,-345.06052380008623,-391.20413052942604,-437.85763896699063
2025-12-12 20:49:44.260966,Right,-412.61050585180055,-422.21200809336733,-448.96093480160926,-417.58084644179326,-363.2293729054509,-348.3745492824819,-395.2261304364074,-445.1880606543273
2025-12-12 20:49:44.265031,Right,-392.4303046936402,-402.09179058112204,-428.8609145003138,-397.8757368932711,-359.82852370041655,-329.708949258551,-376.52050437103026,-428.56528720946517
2025-12-12 20:49:44.270993,Right,-379.9980327918893,-391.69157889531925,-420.0995267176768,-389.21617334289476,-334.1335226998781,-324.733967877808,-371.98695775447413,-420.9077710531419
2025-12-12 20:49:44.274016,Right,-383.4370632197242,-396.3846901700599,-425.41331183712464,-395.6141341251787,-325.7223095235531,-332.49941391823813,-379.48239785793703,-425.5363489878364
2025-12-12 20:49:44.277015,Right,-379.0462598631857,-390.83188013278414,-418.8591152043082,-390.40771685924847,-339.01837958884425,-325.95621473976644,-371.27631174842827,-419.7028305683052
2025-12-12 20:49:44.280055,Right,-363.51311629416887,-374.952093596803,-402.9805445885286,-373.35179140395485,-341.7726085524773,-308.9517319232109,-353.25675113277975,-404.8019072855823
2025-12-12 20:49:44.284057,Right,-356.4575939530041,-370.426306848065,-400.14122021151707,-366.8546449835412,-322.03627188445535,-305.2647420145222,-350.4238117376808,-399.6875319327228
2025-12-12 20:49:44.289028,Right,-355.6031710408861,-371.7355281141354,-401.93828422541264,-366.1001260075718,-303.3298592438223,-307.23327109450474,-352.9940765344072,-397.2975934369024
2025-12-12 20:49:44.293000,Right,-340.04544569493737,-355.638570736628,-383.9618708619382,-348.11742446711287,-300.2065822255099,-290.4612434382434,-334.94873716833536,-378.2882787588751
2025-12-12 20:49:44.298062,Right,-317.4275328293443,-333.41411057615187,-360.3760667623719,-324.31389504426625,-298.96007378108334,-267.98961906071054,-311.7035354736727,-357.77846221334767
2025-12-12 20:49:44.302009,Right,-316.71071122784633,-337.138800355955,-364.89782139647286,-327.05736226099543,-290.2605326239718,-272.6427913802909,-318.3641733885743,-365.2689864431741
2025-12-12 20:49:44.305056,Right,-330.306303715799,-355.00508750393055,-382.94840732670855,-344.82481757050846,-283.68045359198004,-291.45581966318423,-339.19521593872923,-383.75755499501247
2025-12-12 20:49:44.308081,Right,-318.8953643562272,-342.45761961268727,-367.9171124425484,-332.83302054472733,-281.1527440622449,-280.03856130264467,-326.0001693480881,-368.63979109411594
2025-12-12 20:49:44.312098,Right,-283.2234483913053,-303.2718032959383,-326.3678785074735,-293.9933277963428,-271.00347260176204,-243.07463156286394,-285.5716759059578,-327.83904909703415
2025-12-12 20:49:44.317101,Right,-271.70935273659416,-292.6579933834728,-316.6178933643969,-282.88390021258965,-257.2287756226724,-233.978708033741,-276.66210022207815,-318.03597941761836
2025-12-12 20:49:44.321104,Right,-298.1898815088207,-324.00553304550704,-350.341766171623,-313.4105295111658,-259.7512681076769,-263.9884211860481,-310.30978602415416,-350.466413595248
2025-12-12 20:49:44.325101,Right,-311.37181353534106,-339.77650006650947,-366.72293326153886,-329.1779173128307,-274.32591803371906,-278.5193843508023,-326.1367016189033,-366.7206468131626
2025-12-12 20:49:44.328120,Right,-277.45427256124094,-305.03628066461533,-331.5071429287782,-295.5267731436761,-269.7950898548588,-247.61164740263484,-292.1276598004624,-333.2793561841827
2025-12-12 20:49:44.332138,Right,-238.20644303015433,-266.6571123348549,-294.23652177711483,-258.24986717582215,-241.33451326470822,-216.25511446845485,-258.0962065332569,-296.79134941881057
2025-12-12 20:49:44.336145,Right,-242.40521030465607,-274.8350789186079,-304.48688592470717,-266.3931806636974,-226.02318294893485,-227.05095057957806,-270.05962989409454,-305.0673140429426
2025-12-12 20:49:44.340135,Right,-267.2226941275876,-301.7118094227044,-331.66939819429535,-292.3630284180399,-242.77363875915762,-250.32644196751062,-295.0366422861116,-329.91985602502245
2025-12-12 20:49:44.344164,Right,-262.4843550317455,-294.5876900614239,-323.28850623744074,-284.90046630066354,-257.81907108583255,-240.63173935440136,-283.8728373821359,-321.3226258463692
2025-12-12 20:49:44.349178,Right,-234.9531980267493,-264.3267795210704,-292.76461338379886,-255.781057936023,-240.4936623511603,-213.9653580476297,-254.66504189441912,-291.5237087815767
2025-12-12 20:49:44.353201,Right,-226.95056026766542,-256.3732871396933,-285.5363778558094,-249.77977796422783,-214.62281873752363,-211.03299383923877,-251.45731885090936,-284.1973517051665
2025-12-12 20:49:44.356226,Right,-237.78560474247206,-267.44250155612826,-295.78829358832445,-262.1534935104428,-215.61652931029676,-222.13263703667326,-262.8824599647196,-294.5017746379599
2025-12-12 20:49:44.360215,Right,-231.26369506015908,-259.24521695892327,-285.08626277395524,-253.88969621341676,-229.52609915658832,-210.98017886519665,-249.41522565833293,-284.8180855658138
2025-12-12 20:49:44.364169,Right,-206.6587145285448,-233.84295543201733,-258.2977443713462,-227.53940690879244,-220.8623480104725,-185.56241920404136,-220.27474799985066,-257.6089929244481
2025-12-12 20:49:44.368245,Right,-197.56980381684843,-226.6008656580234,-251.55335207330063,-219.32499879028182,-195.96012385340873,-181.13777157262666,-213.85671357775573,-247.18495981709566
2025-12-12 20:49:44.372267,Right,-205.73033712245524,-235.7036093645729,-260.42898511583917,-227.79945652233437,-188.37434615642997,-191.52503157692263,-223.43216666940134,-252.22896527778357
2025-12-12 20:49:44.377285,Right,-199.58081489498727,-227.06942365202121,-249.74543688609265,-218.8046405215282,-198.26862354687182,-182.33921372296754,-212.47962985467166,-241.49715583014768
2025-12-12 20:49:44.381250,Right,-177.7152096935315,-202.97634129156359,-224.22621740645263,-194.52002429764252,-196.31542232085485,-159.15124418126652,-187.7181061967276,-218.17620848829392
2025-12-12 20:49:44.384329,Right,-171.00856999971438,-197.79855825938284,-219.6134822999593,-189.27349281182978,-178.00751533149742,-156.66870620055124,-185.70635577157373,-213.78743857727386
2025-12-12 20:49:44.388318,Right,-180.17921333306003,-209.11909598403145,-231.2937485355651,-200.51655986142578,-167.41553172038402,-169.90904765261803,-199.2245634238352,-223.87363147782162
2025-12-12 20:49:44.392276,Right,-173.17988385184435,-200.88739733037073,-221.84517951507587,-192.0630861846148,-170.63834535249043,-162.670767116535,-189.10379700455815,-214.4628361373907
2025-12-12 20:49:44.396344,Right,-148.89140025695087,-174.577931860229,-194.92892464902252,-165.41199695586693,-168.22358729247935,-138.6361834780546,-161.0524799725972,-189.32653678010684
2025-12-12 20:49:44.400345,Right,-141.46218601427972,-168.64594442024827,-190.29400477698073,-159.1834181554732,-154.82611684902804,-136.03044846717967,-157.21292578050634,-185.11755201220512
2025-12-12 20:49:44.405316,Right,-153.53533733903896,-183.4865954045672,-205.4911031073425,-173.97246490907855,-147.47367822990054,-152.58101871568942,-174.45356949279085,-199.20443745621014
2025-12-12 20:49:44.408383,Right,-147.25395835668314,-176.24822936567944,-195.28096042049583,-167.00490966334473,-149.66417631600052,-145.26748354593292,-165.97058547794586,-189.46297083736863
2025-12-12 20:49:44.411391,Right,-115.44677640555892,-140.9135720313643,-156.16645101364702,-132.08380684023723,-143.6900747003383,-110.91519285872346,-128.7107570017106,-152.8685235385783
2025-12-12 20:49:44.416393,Right,-101.4646217423142,-125.66299454303226,-139.8308731976431,-117.08432384260232,-127.81926581513835,-98.32187081762822,-114.86167104571359,-137.73111316550057
2025-12-12 20:49:44.420403,Right,-125.26626922545256,-149.83029064675793,-164.55957544525154,-141.21229848294752,-125.10789127316093,-124.03940220427467,-140.99915249174228,-160.88555735256523
2025-12-12 20:49:44.424435,Right,-145.6625826708041,-167.49619920528494,-181.29491872462677,-158.6983795420383,-140.5746106930892,-141.44524931313936,-156.90987998398487,-176.0510438850033
2025-12-12 20:49:44.428437,Right,-128.3531594023225,-144.93639547983184,-156.70448402297916,-136.0653274600627,-145.41806190926582,-119.90298831014661,-131.40355020505376,-151.67421644640854
2025-12-12 20:49:44.433455,Right,-100.85856289119693,-115.37700004462386,-126.61478460114449,-106.70563701580977,-123.95155866799178,-93.7081160346861,-102.65862524457043,-121.48910199286183
2025-12-12 20:49:44.436482,Right,-100.02191611914895,-116.78344833030133,-128.5508616658044,-108.58927662356291,-102.08533124485984,-97.23948744195513,-106.89409172185697,-121.76935948029859
2025-12-12 20:49:44.439496,Right,-110.19647028722102,-128.4552148208022,-139.22596853860887,-120.82634757680353,-104.2691812440753,-107.53275879076682,-118.11865471373312,-131.72878317179857
2025-12-12 20:49:44.444471,Right,-100.55783436220372,-117.41420832648873,-126.13335437502246,-110.23308618407464,-113.92857605958125,-94.79887508333195,-104.35196018544957,-120.43941296782577
2025-12-12 20:49:44.448541,Right,-85.72866769338725,-102.02684933348792,-110.50320227927295,-95.18415346328402,-106.76442959526321,-80.67942096694605,-89.56759493576828,-106.46879911253927
2025-12-12 20:49:44.452516,Right,-94.70046421006555,-112.86758026276948,-122.59819001227152,-106.28936605411582,-93.69894457655028,-93.91124386293814,-104.17260266066296,-117.70864264393458
2025-12-12 20:49:44.456513,Right,-108.98993539018556,-127.32345465425169,-136.43557103577768,-120.6014146405505,-95.0676717174938,-109.04230649251258,-119.56015260989079,-130.13589569251053
2025-12-12 20:49:44.460517,Right,-92.01167133147828,-106.79753644490847,-113.01077870361041,-99.03580408281414,-98.42207836551825,-88.91567681438755,-95.81922748091165,-107.22637688938994
2025-12-12 20:49:44.464548,Right,-57.99824169347994,-70.01342683663825,-74.5260707216803,-60.436072627664544,-81.41687698365422,-54.89539463701658,-56.963026187208015,-69.75039082567673
2025-12-12 20:49:44.467565,Right,-49.75507513998309,-63.04187804489629,-68.37601529434323,-51.780417003144976,-56.32323419355089,-51.680974791466724,-51.18570279335836,-62.71315153228352
2025-12-12 20:49:44.471568,Right,-63.16245844727382,-77.99989906139672,-83.79024458979256,-66.18762982339831,-50.71810034714872,-68.52931638585869,-66.60290204064222,-76.80554443504661
2025-12-12 20:49:44.476525,Right,-55.86572598392377,-68.63295985513832,-72.95057045278372,-57.81516341550741,-57.76324217201909,-60.391088312200736,-55.70351197849959,-67.24985989788547
2025-12-12 20:49:44.480589,Right,-24.97784470283659,-35.04531515162671,-38.444977763225324,-26.416057231952436,-49.16170632909052,-30.412312349071726,-23.115980579925235,-35.65468718210468
2025-12-12 20:49:44.484615,Right,-13.11162042565411,-24.039363713178318,-28.531779417360667,-17.810414837382268,-28.996633609756827,-24.014319637150038,-16.910554963105824,-26.583252668264322
2025-12-12 20:49:44.488647,Right,-31.164620471477974,-44.206395185843576,-49.14127091941191,-39.46211523155216,-27.27142531913705,-45.79936580377398,-39.93152149859816,-45.635166762862355
2025-12-12 20:49:44.491652,Right,-38.56050543417223,-50.75435976713197,-53.58371943037491,-46.16440585674718,-42.93113001593156,-51.4829612239846,-44.1846610904322,-49.04012304573553
2025-12-12 20:49:44.495668,Right,-16.98634963139193,-27.266591270570643,-27.93707661802182,-22.1129053424811,-42.97191045008367,-28.736413116799667,-18.305379969009664,-23.48016715090489
2025-12-12 20:49:44.499691,Right,-1.488691171107348,-13.179888944898266,-14.142212509701494,-7.67556406930089,-21.515249360527378,-17.13542950974079,-6.155880135076586,-8.728584871918429
2025-12-12 20:49:44.503711,Right,-13.05202235665638,-27.87743249599589,-29.9857890731073,-22.707879068446346,-10.335222200781573,-32.079920845339075,-23.311417302757036,-22.38879235141212
2025-12-12 20:49:44.508642,Right,-19.502823205431923,-34.046486247272696,-35.86150464223465,-29.794535746856127,-20.734842149016913,-35.608006035443395,-27.713731579424348,-27.09204823721666
2025-12-12 20:49:44.512725,Right,2.897700460627675,-8.32819243753329,-9.528849258436821,-5.206868251785636,-23.802982878289185,-8.317587187018944,0.9271501197945327,-0.6940465781954117
2025-12-12 20:49:44.516737,Right,23.51058135589119,13.55171861127019,11.352985100005753,15.670482043584343,-5.137708124326309,12.519779078749707,21.772306403610855,21.777954344521277
2025-12-12 20:49:44.519753,Right,14.206707344652386,2.664025981503073,-0.9200704857357778,4.09202173788799,8.44250320282299,1.2739035086124204,8.169309204764431,12.973138363508042
2025-12-12 20:49:44.523769,Right,2.027211990673095,-9.911608284222893,-13.214880629850086,-8.89464666103595,-0.9859116142906714,-8.970786064310232,-3.556164867244661,2.880470241769217
2025-12-12 20:49:44.527771,Right,18.081645284808474,7.357408780255355,4.52509861625731,8.026167676929617,-10.078243291965919,10.670544795808382,16.43413969449466,20.442880147718824
2025-12-12 20:49:44.531782,Right,39.546056073799264,27.519495910557453,22.394926287408452,27.6928489698912,1.6368140484846663,30.971810582414037,35.58488287063665,38.91247875057161
2025-12-12 20:49:44.536836,Right,33.28796749186586,17.406886177224806,7.976581274997443,16.90410567354411,14.678224644594593,20.55030481281574,21.41995425944333,27.68211902794428
2025-12-12 20:49:44.540849,Right,17.810725595452823,0.9433592224668246,-11.506082307780161,-0.2916662362986244,7.439308775472455,4.955271278653527,3.332236048474442,10.98864997329656
2025-12-12 20:49:44.544840,Right,28.149962573545054,14.579284782346804,0.6816004820284434,12.7254835627391,-2.624617462483002,18.403014289942803,17.867501044238452,22.89365458089742
2025-12-12 20:49:44.547858,Right,51.41005496031721,39.930585437774425,23.57511234388221,37.611895072244806,9.301548882445786,40.37232961220434,41.5130952760519,44.53628240196849
2025-12-12 20:49:44.551865,Right,53.863602620811434,40.39883042059955,20.622569989791373,37.56817601018702,30.57800825466984,36.46453840230242,37.21796592528699,42.03763535714825
2025-12-12 20:49:44.555862,Right,46.2007797168626,31.103488703840412,10.163144123187521,27.624337109620683,35.66031542967539,24.99874549813103,25.386751932266634,32.05299452674808
2025-12-12 20:49:44.559880,Right,61.738897616945906,48.49418044381309,29.471882709040074,44.647755745681934,32.161298132676166,41.87449324011686,43.89026873072726,49.25281486194581
2025-12-12 20:49:44.564897,Right,88.91266570641892,77.11411679221783,60.07783837799798,73.70615870045731,42.71342897019349,69.80115030086017,72.64951708880835,76.90431658353191
2025-12-12 20:49:44.568912,Right,88.42344375199173,74.35246452750289,57.931663356750505,72.20263389198226,59.48485257377615,67.53489074137178,67.7098977334681,74.344559503661
2025-12-12 20:49:44.573876,Right,66.44481165139587,50.053394532587845,35.26768314218498,49.57721812961972,58.68847966543399,46.752582702363725,43.82890827028314,53.185728676617146
2025-12-12 20:49:44.577944,Right,66.25837714766385,51.384528629045235,40.48988160380395,52.58410492679104,47.023436741976184,51.94452155564795,49.8299650651752,58.749492058122996
2025-12-12 20:49:44.580910,Right,90.65000028407667,78.11715065225144,70.82160351294442,80.64317125573871,50.78253384264826,78.75219772112905,79.82829428065452,88.0836587769445
2025-12-12 20:49:44.583963,Right,97.26754733049893,83.67929641748196,78.12859227639274,86.91242202182184,66.48310344971833,81.57100646785693,83.81974118093785,94.97134670533706
2025-12-12 20:49:44.587971,Right,75.48260955316073,59.680444233323215,56.52782348700566,63.09971878651413,65.83937085485377,56.275942633656086,57.77405529837415,72.6984100981208
2025-12-12 20:49:44.591982,Right,64.8320823735121,49.967337788504665,51.80932528914127,53.49705620443274,48.654760624223854,47.053423943027155,49.2371764480049,64.4240032331436
2025-12-12 20:49:44.597008,Right,83.08982284870581,70.76247879239963,77.69389764220978,74.57581460423535,46.03559797088383,66.80533535699942,71.01905467963661,84.81691185358795
2025-12-12 20:49:44.600000,Right,96.78766216470103,84.43227172495972,93.66455110519018,88.53779235684488,65.67215531028342,77.92002546833828,82.48271060193656,97.41500308070681
2025-12-12 20:49:44.604011,Right,86.45629677026591,72.81555184230092,82.80270948723773,77.04121593968011,79.02549457686837,66.14178835898929,69.98885695115314,86.38529171208211
2025-12-12 20:49:44.608027,Right,82.39924308509217,70.57759971005726,81.95372481130471,74.73060541435552,73.49772597845003,66.72160150267882,72.57712488566176,85.7508509181207
2025-12-12 20:49:44.611992,Right,104.7359423064263,96.85211325738055,108.77660094457678,100.53924474523228,73.27864267681434,94.43797195329535,104.56612424389459,112.04102793705533
2025-12-12 20:49:44.616054,Right,122.85449265868374,116.10065797997231,125.41275154902542,118.61378596445138,92.01638442815602,111.77894379893405,123.50113945892372,129.70353480702033
2025-12-12 20:49:44.620076,Right,111.15948761481559,102.58254248717276,108.05732043523312,103.52805637822166,105.9716999754819,96.69356534965482,105.9646983555649,115.63079146148812
2025-12-12 20:49:44.625028,Right,95.95960208192264,87.29330657200626,91.56250835630635,87.24574113990093,96.92731873941375,83.09772884712584,89.75696977821644,101.56365744735376
2025-12-12 20:49:44.628109,Right,106.56477250172247,100.43297748173791,105.88144481358177,100.41858681399754,85.54013713129825,98.66924553418357,104.37249739072286,115.5386267525464
2025-12-12 20:49:44.633140,Right,123.16114974101583,117.80887933099439,123.53680686654843,118.25157013301214,94.29338037330672,116.15438598104811,119.86360206591053,132.5762926600073
2025-12-12 20:49:44.636129,Right,117.52520856473711,109.82353339583642,114.61299060380406,110.38686127044275,108.54764221618825,107.49437547903653,107.10469584633756,124.89547774215316
2025-12-12 20:49:44.640122,Right,108.25918215057209,99.1884910789995,104.32558775027428,99.49710260044958,106.3567859424802,97.78427618732167,94.34173476009528,115.27356809459161
2025-12-12 20:49:44.646155,Right,125.45027221852433,117.55779051826539,124.23752526631506,117.75146865627721,99.39982960718862,116.78728399610554,113.20164656221277,132.74994293656346
2025-12-12 20:49:44.649153,Right,150.6753746303507,142.40340093966552,149.03876700311866,142.9522925356723,108.44632769420309,139.33517776204826,135.8242255311925,154.45000225708372
2025-12-12 20:49:44.653116,Right,147.947485170851,135.9434837431936,140.6418592498021,137.23912683707704,122.17681784470551,130.0327490380787,124.50812216300392,145.92162470690565
2025-12-12 20:49:44.656131,Right,130.23341503172924,115.60247089103609,119.08512968485411,117.92609577697931,118.44954165439412,110.2353928318148,102.98305791624534,126.43332260671741
2025-12-12 20:49:44.659193,Right,135.0921451710783,121.92373254353788,125.33255085601195,125.41034876651065,106.35279821247968,118.94895526352684,112.92860530136204,134.0545579266418
2025-12-12 20:49:44.664205,Right,153.379174367019,142.1678284608479,143.8671557546404,146.42918341196128,108.54740435509302,138.90383886736527,134.71159511394944,153.27821171430332
2025-12-12 20:49:44.671224,Right,146.4333775201012,134.3964767580619,132.0118375975726,138.5298364011869,118.42902795582631,128.0442803995502,122.89840565237319,142.97200114113366
2025-12-12 20:49:44.674320,Right,121.23392070808768,108.69476992865384,103.00988200697611,112.0623839119362,113.96801932161179,99.90175522743812,93.16521771957196,115.53075965781318
2025-12-12 20:49:44.677253,Right,122.06694341275579,112.75786156636605,106.4244406108919,115.45166985101969,101.96007189006923,102.59972379288956,97.78165245459968,118.85752059987863
2025-12-12 20:49:44.681211,Right,151.5680417423864,145.91309725131578,139.38751639775,148.25891825608414,108.0754962643914,133.19569519159268,132.13719756325736,151.5180178947121
2025-12-12 20:49:44.684286,Right,165.13702838062454,158.91689584239793,150.97190852677886,160.97517329916445,128.76027208760934,143.65710048570327,143.18245532335277,165.30935631594912
2025-12-12 20:49:44.687270,Right,149.22104750858125,140.45319709569594,131.8418577375851,142.18235946268396,134.66083103780693,126.31583094300731,123.89783113777958,149.66409113883128
2025-12-12 20:49:44.692308,Right,142.03408936747292,133.57909849550197,126.71843815728789,135.0922066191415,122.37044890550897,122.83093521317642,121.46833414521825,144.98971751540375
2025-12-12 20:49:44.696319,Right,161.29720487211307,154.51319372803118,149.7460848895862,155.97820746337675,120.10840801607992,143.79259306294261,147.2651177638254,164.64422503682727
2025-12-12 20:49:44.700324,Right,172.20260499947472,163.72671382001135,159.1422069609398,165.26490219104744,135.41629656823352,148.78053221933078,155.71963631884137,170.85078107415757
2025-12-12 20:49:44.704281,Right,152.77702509563824,140.64887336126412,135.9517350642127,142.44671843279502,140.83588697384403,122.43687930751912,129.13915558804,146.98439369017433
2025-12-12 20:49:44.708333,Right,135.01519934767566,122.85973770046257,120.33956975827459,125.17703478575277,125.08800196941593,105.21288715459377,111.27010038106528,130.89031650612014
2025-12-12 20:49:44.712349,Right,146.92442211479647,138.52204509818694,139.35544635717815,141.38353975041537,115.75430281144509,121.93713683317765,129.44037825005944,147.87389318700298
2025-12-12 20:49:44.715366,Right,163.699479543473,157.8310471315781,160.44484177905542,160.7261160633061,130.8214251674508,139.63617036805954,149.05907624783868,167.28169128735317
2025-12-12 20:49:44.719379,Right,156.42615981983545,150.76535384150338,154.09255828424648,152.8976421780826,147.08956354386464,130.22594676920562,140.59791978842986,160.54197538144945
2025-12-12 20:49:44.724399,Right,145.29289686142874,141.27047382372257,146.5615884833678,142.1265936317359,142.52341653619078,119.77174157630361,131.5636167122284,151.07757093786495
2025-12-12 20:49:44.728415,Right,158.78062514512567,158.31128149367578,166.088794630341,157.82745378538675,134.3303288223542,134.8181766307389,149.10501590144122,165.49782108188083
2025-12-12 20:49:44.732401,Right,176.6757363560755,177.47480528194865,185.749240661331,175.88327898539137,143.49635803121782,149.08217943334603,164.5492428192956,180.29046505510632
2025-12-12 20:49:44.736423,Right,165.13594850925438,164.02429140976164,171.61252574573155,161.72352492609934,153.4193745742523,131.17738146916963,145.5291683159594,164.87248630110116
2025-12-12 20:49:44.740446,Right,140.0760261442192,138.40219652559608,147.28541540753213,135.6996576167876,141.13229624775704,104.5888445640303,118.62971538722923,140.65206339384895
2025-12-12 20:49:44.745466,Right,139.71555754017027,140.61331022671948,152.77505182664027,137.51109483170148,122.36523196693452,106.88673911012302,123.6768167236587,144.07166553192656
2025-12-12 20:49:44.748474,Right,155.53016701858724,157.87172249723517,172.24319968244527,154.22138080440345,124.49856975099829,122.28499390915385,142.2552296701906,160.575544288964
2025-12-12 20:49:44.751454,Right,150.20069319673348,150.61672900483245,165.5271023157984,146.45538354253222,137.43054568248044,113.22222660934494,133.64302255680377,153.15239689068403
2025-12-12 20:49:44.756421,Right,128.19908413061057,127.6868946479226,144.12744652750553,123.58428728142462,133.84124016977148,91.8929620058625,111.63160103092378,132.51175727663212
2025-12-12 20:49:44.760501,Right,126.30702670206665,129.21108780312352,148.86187252262607,126.31725337330136,120.11525484287995,97.03562501455599,118.26817558551556,136.95144603750668
2025-12-12 20:49:44.764506,Right,143.57392069752677,150.47577570329304,172.19586548916413,149.84655633759394,123.23272432608064,119.89887908651144,144.02563868489233,159.86707106267568
2025-12-12 20:49:44.767503,Right,142.9181317097973,149.9895255578158,171.39163103073952,151.75663611770142,138.95732427103212,118.82599437108729,144.20402816828573,160.88478002912598
2025-12-12 20:49:44.771510,Right,120.91708016523626,126.624110324512,147.9222232181055,129.89559128304245,138.54903284975444,95.72664920336683,120.91852386543178,139.91870009733248
2025-12-12 20:49:44.775545,Right,115.01403802999994,122.03887899886467,145.02241880245856,125.4144321361673,122.17504069485585,92.30831133497122,118.34097026390373,136.6202980215603
2025-12-12 20:49:44.779558,Right,133.9039464702073,143.30771634058328,167.36574399253004,145.470811073581,119.11866603558883,112.884353495916,140.68231258695596,156.46492646849947
2025-12-12 20:49:44.785556,Right,140.48212849121774,149.41337141528493,172.16422292450443,149.48219034131034,133.33445183865842,116.83065045189869,145.2000932568044,160.6549638575816
2025-12-12 20:49:44.788525,Right,119.79840118656284,127.04984760200023,148.6023765601276,124.55021273047896,135.60827042907476,94.10594849174959,122.16569274177891,138.3851989095274
2025-12-12 20:49:44.792606,Right,105.64937381420168,114.33668853860581,137.35663926336565,108.99350514548132,117.16489071809337,82.47683730149583,111.74529914543382,126.4722664692963
2025-12-12 20:49:44.795526,Right,116.70733348518843,128.69403905179934,154.15285385164316,120.3220493204717,105.31043570538168,95.39770549460081,127.09075128129916,139.96794536081143
2025-12-12 20:49:44.799601,Right,122.9821806914697,135.43610024050577,161.78514869051287,124.10271065749112,113.47139382141177,98.0198463731358,130.3411840570916,145.2491254992201
2025-12-12 20:49:44.803626,Right,104.96913447490078,115.63825979130343,142.49303660169244,102.21171343937749,119.12268626471632,76.31940268320614,107.17666513574659,126.13795000003302
2025-12-12 20:49:44.807646,Right,91.80766173367738,103.09114591300022,132.05054383343668,89.64945215228363,108.0802314322209,66.29993119930441,96.67535899201175,115.9354348370689
2025-12-12 20:49:44.811657,Right,105.7224126427318,119.75549309633789,150.76004494226072,108.79564912844216,100.38048248438281,86.1419841475581,117.73697933580843,133.54696641984629
2025-12-12 20:49:44.816669,Right,118.69062505746842,132.7981225287076,163.25988764074282,125.49899600303615,110.83001948244055,99.61658254136273,131.26436745046522,145.57910959553556
2025-12-12 20:49:44.819676,Right,104.10901399419527,115.49655752032413,144.26217951919534,111.0013161257375,120.1433022847632,81.34502769290702,111.27171364289825,127.56292592675891
2025-12-12 20:49:44.823700,Right,86.91052626509918,97.90633067756426,126.7844875602459,94.49479568251991,111.17607384012081,63.29266223932791,93.09812805053662,110.04122302235919
2025-12-12 20:49:44.827718,Right,97.94242564571323,111.70215412971447,141.6241887996439,108.36927904150798,101.89286793093197,76.29234760065447,108.70450387863093,122.88140606888919
2025-12-12 20:49:44.831738,Right,116.64270196270081,130.88410075652064,159.66806532931514,127.73333961871685,111.9830563882715,94.36405285206274,128.16834360861685,140.23259151002276
2025-12-12 20:49:44.835752,Right,108.9028935940878,119.0669199291442,144.84189032838913,116.51007971048239,124.91647897008806,84.07207342660695,115.33743101128493,128.09692552295746
2025-12-12 20:49:44.839706,Right,91.08795910689514,97.20384976244532,121.32055559774744,94.9098571872164,117.95091331767617,67.0379950152128,94.8291028830281,107.38173207876389
2025-12-12 20:49:44.844825,Right,100.28319705917966,105.51764841703698,129.88607799250167,101.84787225120817,104.80206602124963,78.72460289242736,105.5864810256171,115.18382299994119
2025-12-12 20:49:44.847828,Right,123.83451939828228,128.41997395525686,152.33431924998877,120.89756237078109,109.90459149796516,99.74241341804736,126.91240825483692,135.04060016639414
2025-12-12 20:49:44.850837,Right,119.88009850354865,122.1060577626049,144.2135630979028,108.99877130059758,121.87503971831757,89.36550771632756,115.80554794738418,126.36444422768545
2025-12-12 20:49:44.855840,Right,92.70853176736273,94.55260998639278,115.94999694364378,76.16183501874912,113.78862482489785,60.40202405968739,86.67292373316013,99.10556181828724
2025-12-12 20:49:44.859826,Right,84.19047841252177,90.02299798571039,112.53592639125418,68.30471914832015,93.28021931706462,56.1578601031506,84.94763036971563,95.25976061119582
2025-12-12 20:49:44.863859,Right,98.43864826179924,108.27150802258984,131.15920709923375,85.48760348121868,89.82575786288362,72.61661034934514,104.40730848608655,112.63343531783903
2025-12-12 20:49:44.867875,Right,98.57331924478058,108.03860516037093,129.40777211883687,85.78805491575622,102.10485840408364,69.48812483117217,101.30763294300414,111.78327013499802
2025-12-12 20:49:44.871875,Right,78.2787652904808,85.67594553381787,106.08497918248759,64.5982644011383,101.92103927963763,47.19132849300513,77.04338460837607,90.84200576433796
2025-12-12 20:49:44.875894,Right,73.07810393930413,81.13517537692678,102.5690942958172,61.009683830081485,86.69249994360143,45.487152239569696,74.63604548704461,87.85257147962693
2025-12-12 20:49:44.878889,Right,91.72815608046949,101.55527889821678,123.44831032527145,81.65419050233322,82.96851793676615,67.61747916972672,96.93522967892932,107.7083650851273
2025-12-12 20:49:44.883925,Right,98.85216576530365,107.73178020230262,127.4986800410552,87.38322837429587,95.90316929004621,73.71317939176515,101.38718134150258,112.72265217005042
2025-12-12 20:49:44.887922,Right,81.66673410395742,88.66479867641465,106.09642378805438,67.72054873569869,99.74157474908861,55.64625499471731,80.60067694025929,94.20069752758718
2025-12-12 20:49:44.891930,Right,73.73100724793039,82.15153231541626,99.73383107461268,61.00114856331493,85.84447485097917,51.228837489004945,75.45235107580083,88.35660724309855
2025-12-12 20:49:44.895960,Right,90.16531772134476,101.79864306008676,120.3469437691383,81.15737597670523,77.7186850614089,70.75277052908496,95.71692468141555,105.90769824525341
2025-12-12 20:49:44.899985,Right,96.6332697632024,108.47657550379517,126.01862490939675,89.2560111231287,85.87223787489347,75.10240826559311,98.81808062456548,109.00476704817265
2025-12-12 20:49:44.904006,Right,72.55724513612222,82.45620575189241,98.12489992871997,65.4315400388441,88.27720433220384,48.80091766195255,69.30976985112648,81.67718272676575
2025-12-12 20:49:44.907002,Right,52.330736350122606,63.31553583490313,78.73914387883269,48.512331392557826,73.64928606338799,32.53845354617806,51.7801107034029,63.630484574940056
2025-12-12 20:49:44.911015,Right,65.90739268242032,80.99747061019298,96.62235585911549,67.47386007686146,65.40857287403196,51.93904297404515,72.86197649250971,81.49979341495782
2025-12-12 20:49:44.916035,Right,85.51901685123448,102.18132139430963,115.65399109906866,88.69323960895417,78.8641792741546,71.37975685838319,93.16784568727599,101.093141663383
2025-12-12 20:49:44.920032,Right,76.43344031975721,90.68026954040397,100.69193970540073,76.68847746026586,90.9267004391586,58.39758701948449,78.17172415097593,88.83964592716075
2025-12-12 20:49:44.924065,Right,58.42812021350255,71.04774183238624,79.78060425294098,57.0187758487009,80.5009258367354,40.62615272212133,58.53432863432681,70.29065800644457
2025-12-12 20:49:44.928081,Right,65.20667274884181,79.04989725234918,88.6801550599921,65.73531134682707,65.5742247372109,50.93119121530617,69.52916352453758,78.81502326144255
2025-12-12 20:49:44.932097,Right,80.17736214789329,94.17204920525546,103.75619506562361,81.81965208405745,69.07037224675878,65.57594063141732,84.95078035033657,92.58850110386265
2025-12-12 20:49:44.935102,Right,69.1795632596477,80.363660180039,88.60053137061186,68.87489016316249,77.46754280640744,51.0254602371424,69.04753025161335,77.78386203490663
2025-12-12 20:49:44.939116,Right,47.09284297155682,56.512547892081784,64.79482623114018,45.972540583170485,68.44898727966938,29.454019658995094,46.63861816437566,54.99008660358959
2025-12-12 20:49:44.944119,Right,52.645644678530516,63.82047484331997,73.5638456887973,54.32367385807447,55.3333806291339,39.6630527099187,59.05210770087433,63.54918989370344
2025-12-12 20:49:44.948133,Right,76.73078041445115,89.4307011537021,98.67999342895928,80.66717935167253,63.60591792545165,65.19732155653764,87.00567914071144,88.86088285769802
2025-12-12 20:49:44.952159,Right,76.36621852914686,87.30555745481979,93.2518260103825,78.80289579654345,81.27960220776731,62.07583895760763,82.85790452314541,86.45161205585464
2025-12-12 20:49:44.956175,Right,49.77322322849068,59.01915920051397,62.184638711827574,50.635016986721894,76.63215598632814,35.74455234152265,53.68942763944506,59.215817636519205
2025-12-12 20:49:44.960177,Right,35.993270088059944,47.08400512553635,49.7683420178073,38.9396158028394,53.19396024334128,27.037882623102632,43.96341709027183,47.48749033821514
2025-12-12 20:49:44.963201,Right,43.00069413127494,56.47379292792175,58.47488649946172,48.46632584097097,42.3529366053117,36.407508482414414,53.4351146647241,54.21146383555606
2025-12-12 20:49:44.967205,Right,38.74984068241611,51.27390323282452,50.67138863465516,42.953848520541214,48.431150996504584,28.39782259213098,43.82467052980792,45.51673999012564
2025-12-12 20:49:44.971171,Right,17.6543331699213,28.45421562640695,25.65994204999879,19.485975446135853,46.08042251478764,4.514193500275724,17.55008694717253,21.353750541456975
2025-12-12 20:49:44.976247,Right,13.625134378162329,26.103803286358016,23.421173000504496,16.641924770228798,30.83222741447389,3.959066908500972,16.59853341539565,19.100217798608355
2025-12-12 20:49:44.980250,Right,33.91158268410072,49.25894765451085,46.84071827805019,39.756100070648245,26.405877162178513,28.806613084932906,41.83726764671155,41.394205318414606
2025-12-12 20:49:44.984237,Right,39.871251757547725,54.409644210740225,50.26443843884044,45.19479971648252,36.34354398594587,34.85102241432469,45.62134398694616,45.28573369825608
2025-12-12 20:49:44.987286,Right,15.266688545234501,26.54293312781374,20.582403231645003,17.664968756653252,33.973489017094835,9.443135151363094,16.314720636219135,18.100975412904518
2025-12-12 20:49:44.991249,Right,-3.2681125237431843,7.4149142376409145,2.011043810925912,-1.225184380688006,11.924386465951102,-5.977466989977984,-0.24659034865908325,1.2608680463163182
2025-12-12 20:49:44.995310,Right,8.49531132375705,21.388285571636516,17.453940301114926,12.86963216222648,-1.5667778873321367,9.543420221292763,17.102910243615042,16.749152348318603
2025-12-12 20:49:44.999322,Right,21.16109339808463,34.82329848094378,30.763688172679394,26.356119210613542,8.27476139641658,22.166571265872335,30.05664014631475,30.76980977455969
2025-12-12 20:49:45.004325,Right,8.354112563509261,20.913791259605205,16.347666656656656,12.689205598755507,17.18544589227531,9.317062357367831,14.335592402421753,18.407271250151098
2025-12-12 20:49:45.008335,Right,-5.800549447085359,7.246618710938492,4.268798368429998,-0.14433329734310973,6.142417102571926,0.26221336009621155,2.494616215772112,7.051069299122901
2025-12-12 20:49:45.012292,Right,5.37399048806401,20.081836935773026,19.33575260589714,14.07787253166316,-5.5869921781122684,17.227784575123223,18.739795689383755,20.496369545551715
2025-12-12 20:49:45.015317,Right,19.673279026901582,32.794774510432035,31.598709656100255,28.122314441308845,1.7520189517526887,30.497044410847593,30.92190718720667,31.70014579486451
2025-12-12 20:49:45.019367,Right,7.99681183413486,16.401334936294006,12.787295770540368,12.55886357788404,11.53803522058297,13.756888824835187,11.234553155270987,14.184085590168252
2025-12-12 20:49:45.023382,Right,-9.485731656226562,-3.173277258683811,-7.462347110034898,-6.556434140278725,3.5006497250433313,-3.91190675344842,-8.604823330941144,-4.986197250967962
2025-12-12 20:49:45.027385,Right,-0.40385756580508314,8.573120985762216,5.780502601992339,5.45277362158231,-7.2232781950588105,10.268837271229131,5.713575758738443,6.737332277785754
2025-12-12 20:49:45.031406,Right,17.902065944916103,29.60740544908913,27.356932129740017,26.371596811397467,0.8693284425535239,31.439025780244265,26.560396708286135,26.1757403187803
2025-12-12 20:49:45.036421,Right,9.559483563149115,20.91054996853927,17.507970590231707,17.05946295945614,13.956763728056103,21.784655692841625,14.615893334659631,16.219781141291605
2025-12-12 20:49:45.039417,Right,-12.615705255695502,-1.734721054759575,-5.276148960896535,-6.495687681454001,7.630031470456743,-0.7705154230934568,-8.92985551559832,-6.201902183456696
2025-12-12 20:49:45.043363,Right,-10.652004724470316,1.8761761339119403,-0.11319296772126108,-3.9424290072056465,-8.362247656405088,2.215859710595396,-3.4734603987599257,-3.153396769776009
2025-12-12 20:49:45.047457,Right,7.664294902380789,20.783937148487894,19.385995144664776,13.816460537054809,-8.72375227761222,17.736135761595506,14.487973897703341,12.914360062539345
2025-12-12 20:49:45.051457,Right,3.169433801289415,13.685955727662076,11.332982749911025,5.920678992697503,0.7283602055395022,7.7155923114478355,3.2142358225246426,3.497801088829874
2025-12-12 20:49:45.055470,Right,-21.2320492578001,-12.482907150668325,-14.283485567080788,-20.103301582246786,-4.21559150381654,-16.506951308299904,-23.77187600491743,-21.535207657681894
2025-12-12 20:49:45.059496,Right,-24.49925243917096,-13.131312516605249,-11.716142643315834,-19.748761473761988,-18.18620211412781,-12.251142917048128,-19.661361958569614,-19.14496625927859
2025-12-12 20:49:45.064514,Right,-2.377656804572325,12.350461454087053,16.55055518489098,6.918674882384948,-14.525391463350388,15.45901954893634,9.978693241602741,8.282428050777526
2025-12-12 20:49:45.067508,Right,4.906635207378713,18.738545230196905,23.25026404261007,14.308907123209792,4.021633685159031,20.541810368966253,15.933235066651832,15.838786957436241
2025-12-12 20:49:45.071508,Right,-13.512954300269485,-2.9431572303001303,1.7465283781202743,-6.421125341417792,7.784695491369348,-2.0723981251212535,-6.586271972104441,-3.71952541139035
2025-12-12 20:49:45.075609,Right,-20.756765680933313,-10.87639301859599,-4.050573725748109,-13.426892202849558,-6.858738521419582,-9.307470239684335,-12.122971684962977,-9.531366824623547
2025-12-12 20:49:45.079550,Right,-3.107718691426271,8.15214185907098,16.87821053196967,6.274131863137882,-12.130251147813397,9.610812788865587,8.926350174886466,9.565722457919037
2025-12-12 20:49:45.083533,Right,3.5210157763722236,14.350578559970018,22.30041920785152,12.850259503524285,-0.7197708556923317,14.907368900079746,13.396840658715519,14.669971218812861
2025-12-12 20:49:45.087509,Right,-18.323425986520306,-9.15904669786687,-2.7083704925025813,-10.343551234305778,1.878364363219589,-7.148661517006985,-11.644943343002524,-8.644826047078823
2025-12-12 20:49:45.092566,Right,-34.25306970720703,-24.48609898827999,-17.353639272449072,-25.346837818557105,-14.190900965695619,-18.70444694757316,-24.08915943334432,-22.92033043281117
2025-12-12 20:49:45.095569,Right,-22.27399605883693,-10.789849920838606,-2.0219038439536234,-11.603721997744287,-25.02897265665524,-3.096922481454385,-6.656231258937623,-9.650484038858849
2025-12-12 20:49:45.098581,Right,-13.140421175477968,-3.0858698688462027,5.633240750466939,-4.364727487358323,-17.516264774989395,3.287377556807769,0.5687675773733645,-3.2855228127446026
2025-12-12 20:49:45.103579,Right,-32.01143189481081,-25.631794086220907,-17.470433593422058,-27.601733637340658,-12.98370498859731,-19.961513190311962,-24.079427467193455,-25.218512233666843
2025-12-12 20:49:45.107594,Right,-50.575959780406265,-44.96251352281979,-35.06614739027282,-47.27928677179443,-26.186920529071358,-37.19301702532539,-41.784319641003094,-41.98999891679705
2025-12-12 20:49:45.111546,Right,-38.16541679326474,-30.098726759824785,-17.284729904364212,-32.371332022637944,-36.23048805590952,-20.938323632639367,-23.444571141066262,-25.691502120156656
2025-12-12 20:49:45.115608,Right,-17.762028271361487,-9.065354133577785,4.38367710885359,-11.593663102517894,-24.928431065985933,-2.2455285007199564,-2.9473444377217675,-5.403759677268681
2025-12-12 20:49:45.119620,Right,-23.932127426272928,-17.51561593262886,-5.603238972820691,-21.212450620296295,-11.957760293778847,-14.120649947901256,-15.376634331485548,-14.703850933314243
2025-12-12 20:49:45.123645,Right,-40.74809140535581,-34.54491861223505,-23.21707743233128,-40.161440742900595,-20.090363439136127,-32.34145896384871,-34.24660551187844,-31.880713239414035
2025-12-12 20:49:45.126663,Right,-34.09163079223799,-23.988864984472457,-11.949743748962646,-31.649351514090085,-33.763257034697745,-22.181657500925212,-22.97218977639568,-22.67781711434509
2025-12-12 20:49:45.131674,Right,-16.148190161075036,-2.6934026725793956,8.778476204286562,-12.058839721255936,-27.71360851463396,-2.7611489147675456,-3.169751646288205,-4.560009541615727
2025-12-12 20:49:45.135676,Right,-20.85785060075068,-7.919016978645232,1.788559422682738,-18.46426747847363,-12.734409568998672,-9.497639617977256,-12.36699556788517,-12.433227377609
2025-12-12 20:49:45.139701,Right,-38.026554240572295,-26.42431361249328,-16.451682187369443,-37.5668063926787,-14.594835281110136,-26.884374529108754,-32.175046818330884,-31.60832896879583
2025-12-12 20:49:45.143686,Right,-31.36037073911575,-19.218656357268628,-6.36729637280223,-30.385911356217548,-26.37439918826567,-18.089724245177422,-22.64762953607351,-24.696009520099324
2025-12-12 20:49:45.147702,Right,-7.568344166938914,4.117457025386102,19.127838358996087,-6.501420723721822,-22.981091609872237,4.4944610777674825,1.4731412784822169,-2.3742306571803056
2025-12-12 20:49:45.151660,Right,-7.323433522235064,0.6911809954654018,15.631287576681643,-8.770813939470827,-10.2482522733917,-0.019826728452244424,-4.501904536959046,-5.800642816924665
2025-12-12 20:49:45.154674,Right,-33.04046538577677,-28.090221319082048,-12.820337416989787,-35.83665434069917,-15.650652554330009,-26.72108991105233,-34.35910113484715,-32.43612716188727
2025-12-12 20:49:45.158747,Right,-46.062085568406474,-39.98034563762849,-22.409731889158138,-45.77853460739789,-37.09691676928924,-34.91920542220214,-43.5065338156528,-42.19654788116168
2025-12-12 20:49:45.163757,Right,-37.184742532010205,-28.82730923033523,-9.54124494203279,-33.069861599624346,-45.555331732484774,-23.057904221785066,-30.391841438864503,-30.992958891249145
2025-12-12 20:49:45.167821,Right,-38.86349862031875,-31.27170336450581,-12.909417330440192,-34.82125761887801,-36.580011862064566,-27.8667029219705,-34.600170494979466,-33.91725782237336
2025-12-12 20:49:45.172838,Right,-58.672584996522346,-52.89385645801485,-36.03666562918079,-56.45327247238674,-35.175957361003384,-50.69700740327926,-57.44141833136382,-54.34878533860319
2025-12-12 20:49:45.176832,Right,-61.57200118078572,-54.73262959224303,-37.87564973036933,-58.454946226540415,-46.59147821688748,-51.48515357065787,-56.46305959215715,-54.6461966414754
2025-12-12 20:49:45.179820,Right,-36.884069379433186,-27.979842126083895,-11.397069025639212,-31.71816440229486,-46.99966548330485,-24.41012756101418,-26.658958186721975,-28.420239192295412
2025-12-12 20:49:45.182815,Right,-23.790374989828592,-16.098279076359177,-1.9811195351649076,-19.897516749526403,-31.4947898877017,-13.464672563487056,-15.542522814746007,-18.190977217820546
2025-12-12 20:49:45.186831,Right,-41.81465970985482,-37.03817118342158,-25.36082327362965,-41.236145741822384,-26.050440623443137,-33.674633885893854,-38.00597778130668,-39.46447068341422
2025-12-12 20:49:45.191775,Right,-53.619337817886844,-48.60822884497429,-36.33344089917955,-53.39295915202979,-38.90693827513314,-42.78330273003394,-47.566043305318544,-50.3606924955302
2025-12-12 20:49:45.195809,Right,-32.48449671991875,-24.98223866219905,-10.262441952552763,-29.917830512981368,-43.86812049382206,-18.847153071266803,-20.89711015175077,-26.63032566965012
2025-12-12 20:49:45.199866,Right,-11.323125334791257,-4.497455049689762,11.479406424186891,-8.494850972059794,-28.486048408298302,-0.8673040037519968,-0.7251940563924109,-5.505138672901012
2025-12-12 20:49:45.203890,Right,-24.17997797249609,-21.719617813357445,-5.284310061822907,-23.505814662467856,-18.77053044972854,-18.532235611117358,-19.19562004312229,-19.31384214257008
2025-12-12 20:49:45.206904,Right,-48.39041417947374,-48.8123333787762,-30.314253030002874,-47.766004089295166,-34.078968724304104,-41.62361140933717,-43.5590890985286,-41.63034296547903
2025-12-12 20:49:45.210914,Right,-49.20659579223684,-48.989126632135594,-27.47574096509561,-45.773248007570146,-52.539223096962814,-38.15966390174435,-39.46241085514248,-39.977340288333835
2025-12-12 20:49:45.214924,Right,-40.5515755926026,-39.77186511776199,-16.960929919085174,-35.917359255370684,-49.35949297782645,-30.19299487592434,-30.764583941478122,-33.0078059666821
2025-12-12 20:49:45.218943,Right,-51.35624647491204,-51.772645681079666,-28.932852705962432,-48.376612927026144,-38.220611527072606,-45.66684403014369,-47.106765080014156,-47.80452903063269
2025-12-12 20:49:45.223951,Right,-65.21408705878457,-65.29869324203719,-40.7382908716645,-62.21017691844463,-41.30904326422757,-60.248081659818126,-62.06313929152202,-62.120906690897755
2025-12-12 20:49:45.227955,Right,-50.67519496736895,-47.56894234566789,-19.604179181855216,-43.85314385885977,-46.8585466151942,-41.87506518442751,-41.841110349425435,-44.4241509717649
2025-12-12 20:49:45.232983,Right,-26.11645334933928,-20.849372282835247,8.881540550297359,-15.723977957490206,-34.48722469204631,-15.741110348746588,-13.91797131140811,-17.904233133500384
2025-12-12 20:49:45.236933,Right,-33.13273623919304,-28.79250041105115,-0.03381234895641683,-21.96180486373669,-18.5600338178092,-24.432739444451727,-22.88144117187767,-24.65253056090114
2025-12-12 20:49:45.240015,Right,-62.33948920724288,-58.1165017982421,-30.47189449407597,-49.586931706118776,-24.646230230390756,-52.318047756478336,-50.61694064804033,-51.30404859623377
2025-12-12 20:49:45.243017,Right,-68.15773342222747,-60.413743977289414,-32.76638028425259,-50.430102101687226,-41.05558994790954,-52.99008301901995,-48.04777925635426,-52.57392475823508
2025-12-12 20:49:45.246964,Right,-47.87563539614712,-36.64267116303745,-9.962396694957079,-25.67308460296408,-37.43580249025581,-30.663681086236465,-21.84730701814624,-30.87119356104813
2025-12-12 20:49:45.252037,Right,-42.05179479148501,-31.218341095591313,-7.27598466020072,-19.659609866117535,-18.53488979627582,-27.603591347320616,-18.416979134315625,-27.39840440968692
2025-12-12 20:49:45.256055,Right,-58.15780838381397,-49.12380091278101,-27.036616272540186,-37.13045490002696,-14.550050743104293,-43.95176574799552,-37.4327623172685,-44.22588051830826
2025-12-12 20:49:45.259052,Right,-59.496806602182915,-49.9765886395071,-27.40143797360406,-37.739364581691916,-26.260441009095302,-40.008732030943065,-35.79623723422992,-43.004333233060606
2025-12-12 20:49:45.263067,Right,-37.42861813922718,-27.32741445642023,-4.371385211170491,-15.204078558777837,-26.18952454796272,-14.344973890707479,-11.812666189147421,-20.35939972131746
2025-12-12 20:49:45.267115,Right,-29.484016723719833,-22.583333122267504,-1.2400532785004543,-10.655218407795473,-11.920338137195358,-8.982825148446864,-9.906817300423427,-16.47945351501403
2025-12-12 20:49:45.271091,Right,-49.64401017840282,-47.72552130764234,-27.889626904119723,-35.32285923089876,-11.29122378779175,-31.54618262319127,-37.210724030032,-40.366858160508855
2025-12-12 20:49:45.275190,Right,-62.44258617125524,-62.64591410247158,-42.221398919515195,-48.54755061351898,-30.096631408727262,-40.86784349084337,-49.23294581535447,-52.3336705597394
2025-12-12 20:49:45.279070,Right,-48.95410540159719,-49.15904017932917,-28.209772293770584,-32.50056258087352,-39.96712741346346,-23.085614045427064,-31.67739202818848,-36.81251787722431
2025-12-12 20:49:45.284127,Right,-40.73966690164161,-42.92501220203121,-24.079660243995022,-23.973616452738497,-29.33856314735749,-16.230320590715564,-25.57942995481062,-29.749694425961934
2025-12-12 20:49:45.287129,Right,-58.33810724597788,-64.00905401614,-48.1522791388561,-43.941966700374905,-23.034902837116533,-37.67719076441426,-48.887116457473894,-49.625609233051364
2025-12-12 20:49:45.291170,Right,-69.9784439243449,-76.86435484461981,-62.05792420281796,-56.90631659691644,-34.56431036797221,-50.18270193079661,-61.59365232188429,-61.675194456998724
2025-12-12 20:49:45.295163,Right,-49.98769459058167,-56.570132512948476,-42.26594274218223,-37.4331916257579,-41.32062571422284,-31.108398867982032,-41.12466001042776,-43.6997930853322
2025-12-12 20:49:45.299138,Right,-28.493523014582024,-37.61485316378821,-26.354688382965833,-19.386875343298016,-28.72995374749371,-15.74471770333912,-26.739514901055372,-29.902556858789467
2025-12-12 20:49:45.303128,Right,-37.5929272058238,-51.67423521908495,-45.07187423814685,-33.84747201810387,-18.93498653810093,-32.40584385559487,-47.71726687494811,-48.498212175843946
2025-12-12 20:49:45.307168,Right,-52.89383869869198,-69.07295307765162,-65.36921122681088,-50.771217944664386,-29.469155193142797,-49.61640141044336,-68.26777608963312,-68.52672420291492
2025-12-12 20:49:45.312212,Right,-39.148187701797724,-53.47208414063061,-50.85845172691552,-33.934035433092504,-39.707581177917746,-34.04011872094998,-52.311488506238675,-55.43265599267761
2025-12-12 20:49:45.315230,Right,-15.078773354682198,-28.673860103408515,-27.94529755381518,-7.6911635004289565,-28.79087223379247,-11.54733778397349,-28.474274611122382,-32.92241067173018
2025-12-12 20:49:45.319222,Right,-17.22074356680605,-33.5864692967225,-35.44139979450847,-11.561452927249775,-14.600546926343668,-18.21724817872746,-35.53266790523048,-37.35895631105086
2025-12-12 20:49:45.323207,Right,-31.607171106545138,-50.10738559607125,-52.78953145886044,-27.644934331721743,-20.87486455243925,-33.76349582738476,-51.27648691638751,-50.96043167293101
2025-12-12 20:49:45.327242,Right,-21.15208128275117,-38.37290056954953,-40.51206267915404,-15.782592016526905,-33.52898193096553,-21.5294736509386,-36.91184807677928,-37.822230341203976
2025-12-12 20:49:45.331260,Right,3.6525556570559274,-12.187072859946056,-15.458748210774502,10.635615848637826,-27.142866143909487,1.492030211702513,-11.725382704353251,-13.396606021691696
2025-12-12 20:49:45.335267,Right,3.0722329025084036,-13.769936546057579,-19.94899069231178,9.556095626096067,-12.366748300810286,-4.0736088498088066,-17.89859172514116,-16.88027646255796
2025-12-12 20:49:45.340303,Right,-19.19781719148159,-36.11168290141359,-43.54823286449391,-12.215506500280753,-16.63621564151981,-27.022133070575364,-42.36081539613224,-38.81647081923438
2025-12-12 20:49:45.343318,Right,-23.723138626271975,-37.317250664680614,-43.37798611650942,-13.257536111486843,-33.94112931110794,-27.149118038098095,-41.57668831236515,-39.10332483187085
2025-12-12 20:49:45.346312,Right,-7.4669146070446,-18.250484715499624,-23.65893498668447,5.130332671105862,-36.07253629997285,-9.812643920624396,-21.79286933183903,-20.82278272183612
2025-12-12 20:49:45.351304,Right,-6.192196303985838,-18.478945962058788,-25.93022203599685,3.298161963066377,-24.09294623902315,-14.21609601052478,-25.1180727709434,-22.32822573050362
2025-12-12 20:49:45.355335,Right,-24.720258394852863,-39.818487707751046,-49.423952694523905,-20.15281551224325,-24.822239548360812,-38.098963120042754,-48.60847089011804,-43.604657307812886
2025-12-12 20:49:45.360353,Right,-26.90108844658971,-41.6795090912492,-51.26743208980042,-23.836655409897503,-39.66655121004442,-40.121941862751555,-48.293191571341595,-45.08584588764643
2025-12-12 20:49:45.364308,Right,-5.075991335404979,-18.17392693444708,-27.410679900611285,-1.1568721824733075,-42.376626490353374,-17.065019029585528,-21.983159457988222,-22.178788629331393
2025-12-12 20:49:45.368377,Right,1.5977408357575769,-12.453516099849367,-23.101353368554555,4.8054674617160344,-29.971374051798193,-12.177277901646448,-16.226903844770277,-16.34815495017392
2025-12-12 20:49:45.371329,Right,-22.83435515180463,-38.66490446608077,-50.98870784605242,-20.713615873333765,-29.809558957502304,-36.9636095009846,-42.05809594667517,-40.04355523210688
2025-12-12 20:49:45.376402,Right,-41.44847819340794,-55.31016653620463,-67.709671245364,-36.97607683482056,-48.15896815578162,-50.4819342251576,-55.02418202447734,-54.12193339464284
2025-12-12 20:49:45.379420,Right,-30.239763338424382,-39.67022763471323,-52.00790791394684,-21.55151058796764,-56.39846273263538,-34.168903103040066,-36.229013316005876,-39.34362980136939
2025-12-12 20:49:45.383428,Right,-18.312605076265754,-26.217070382212114,-40.08870227083389,-8.536095462724916,-41.79864543052827,-23.375432077940786,-24.15585869599454,-29.17893950027792
2025-12-12 20:49:45.387423,Right,-30.271557800428127,-39.90673247988161,-55.017997828064836,-22.321101033136074,-29.60422239847685,-38.8056456023769,-40.173488357977476,-44.66215273590933
2025-12-12 20:49:45.391392,Right,-39.49654588403064,-49.38897737336811,-63.035587314232544,-31.56156324900803,-35.59465971925965,-46.94744093769987,-47.804447458009236,-53.91275938733452
2025-12-12 20:49:45.395457,Right,-19.451051758303947,-26.949212341751263,-38.28190995425393,-9.147171515163791,-37.54675231921283,-23.521563362170127,-21.888122639116773,-32.20524266805296
2025-12-12 20:49:45.399476,Right,3.1907267191636492,-3.052109457552433,-14.713872487387562,14.04719910123822,-19.069967439041648,-1.361483771193889,1.5456853172727278,-10.591184917844657
2025-12-12 20:49:45.402464,Right,-6.084871493469109,-13.147115225809102,-27.144944480256527,2.819360438399599,-3.7430542912043165,-12.632905704806035,-11.367297808610601,-21.592961349386314
2025-12-12 20:49:45.407492,Right,-29.527269474303466,-35.648045682792144,-50.61974484331586,-20.759413119158125,-15.139544139055943,-32.88815351653466,-33.31150310735393,-42.58856628149806
2025-12-12 20:49:45.411503,Right,-32.60457874731219,-34.979535267128085,-49.37270451860968,-21.000520654364664,-35.63689632717433,-29.795914789909148,-29.405627588392235,-40.56782529344491
2025-12-12 20:49:45.415453,Right,-25.65242083209887,-25.609261074772803,-40.613917239315924,-12.654225683676486,-38.01310793950688,-21.86427716871549,-19.71392966814892,-31.233599213359412
2025-12-12 20:49:45.419526,Right,-36.71013314374795,-37.29327560750244,-54.288321354863,-25.678286320442567,-30.32456802773231,-37.029113880038494,-33.90500486559904,-42.286640095604525
2025-12-12 20:49:45.423539,Right,-51.48315442092644,-51.869249120602035,-69.49608161032666,-41.74918770772638,-33.96053056866367,-53.3259290057249,-48.35763810842036,-54.80938392837561
2025-12-12 20:49:45.428555,Right,-38.277288044875604,-35.61274927191698,-51.983984600927215,-26.78986890696251,-40.59321110836754,-37.64794075645477,-28.94828228917322,-37.49239534309163
2025-12-12 20:49:45.431536,Right,-12.536503579838609,-7.886674577952363,-23.49491145751381,0.09660868874198059,-30.41859503040905,-11.573652507584484,-0.5046987760215416,-10.598910300279385
2025-12-12 20:49:45.434563,Right,-15.930415175796952,-13.190111698037072,-28.797315280651674,-5.595136789168464,-15.188276901062636,-17.87206216881168,-8.54203687523841,-15.88550913092331
2025-12-12 20:49:45.439578,Right,-42.49377097897741,-42.051662065241544,-55.66659585859452,-34.75709758175071,-20.46371349949186,-44.33554011421802,-38.07482846942003,-42.32610891823424
2025-12-12 20:49:45.443529,Right,-47.24559957547535,-45.933608338549675,-55.177997648192104,-39.51041840443213,-37.21106465456978,-44.67143931421015,-38.771873317906284,-44.09591438862117
2025-12-12 20:49:45.447589,Right,-24.766364685372537,-22.076208801663597,-28.32623950652487,-17.59085682215664,-35.12594682039344,-20.622455537406495,-13.480698219464102,-21.210672351480753
2025-12-12 20:49:45.450624,Right,-15.930940565147466,-14.894176293069904,-21.892675728391623,-13.145142042863881,-16.522203084619832,-16.17539652762207,-9.765572650336253,-16.903764807313564
2025-12-12 20:49:45.454618,Right,-32.187214496130764,-33.253678022665554,-42.45350723929005,-34.12030375795439,-11.824137459763733,-36.11387265506346,-31.807214471882617,-37.60702868303633
2025-12-12 20:49:45.458630,Right,-37.55892224171839,-37.042539116228,-47.476535664260155,-39.6814578804333,-24.53948193481483,-39.7388327960216,-35.61804554637638,-43.33338155997626
2025-12-12 20:49:45.462643,Right,-18.574689071203466,-14.99381440133584,-27.00379006168805,-18.546734984651266,-26.436839360983868,-18.52131087637099,-13.18126127315918,-23.623064415551198
2025-12-12 20:49:45.466658,Right,-9.484385242434655,-6.356741775372939,-21.710014747804962,-10.316954143127077,-10.506990722409682,-11.409511520221713,-6.851059623193578,-16.0883666506561
2025-12-12 20:49:45.471659,Right,-27.14515537290572,-27.084506798048096,-45.312069401770714,-31.11147096611967,-3.571393278609321,-31.069286108700908,-29.05129356971156,-35.08333783138369
2025-12-12 20:49:45.475771,Right,-38.804560960699746,-39.635644483620126,-57.92010076294537,-43.420690210587054,-16.025191058062774,-40.22106654178788,-38.87597704925429,-45.309163748337596
2025-12-12 20:49:45.479643,Right,-22.797749790825037,-22.34882975048822,-39.74580814811634,-25.983770488652226,-22.63838797963399,-21.7092830275069,-18.77472235007008,-28.657351563088014
2025-12-12 20:49:45.482719,Right,-8.042105558088224,-8.122696545833605,-26.58106813293125,-12.398945149267092,-9.694258072595403,-10.088372153848468,-6.786963839775126,-17.674536471953616
2025-12-12 20:49:45.486721,Right,-18.189996504803275,-20.330919802727294,-40.65339305884845,-26.24318537781801,0.3649935593857663,-24.946839270291093,-23.477298286903533,-32.35868032689905
2025-12-12 20:49:45.490704,Right,-25.988135563377,-27.5518693618651,-47.70621106578619,-35.475266706736875,-7.634928474850312,-32.1493661426648,-31.662356514541898,-40.201886824303074
2025-12-12 20:49:45.494806,Right,-4.919516225843836,-3.59764609112608,-22.39685699515394,-13.140084766222571,-12.706719608380808,-7.867174307280948,-6.451824736897834,-16.90539679711219
2025-12-12 20:49:45.498772,Right,18.62775447761669,20.10069216642296,0.8884241639025277,9.537310037332645,2.251855507496657,14.42548507686297,15.599519075585704,5.6977915025127
2025-12-12 20:49:45.503823,Right,11.82133456275551,9.943949551125115,-10.971964482509065,-1.3503428998519666,16.94571893277316,3.711255509984767,2.070527194562601,-3.9088200517289806
2025-12-12 20:49:45.506817,Right,-5.443504092825606,-9.027712694107322,-29.85209901513008,-21.1057302917543,9.750053648647736,-12.73771597238374,-16.60736174602789,-20.322004660672974
2025-12-12 20:49:45.510834,Right,1.1494850971030246,-0.5107258170755813,-19.375779184076237,-13.463030187187542,-3.5993049279677507,-1.4465419176631258,-4.84708743502415,-9.712112503300887
2025-12-12 20:49:45.514840,Right,16.510931070202787,15.93319183022686,-2.0432871956872987,2.327622164848435,-0.057269287506642286,14.9555373915573,11.985218139365315,7.386974402797932
2025-12-12 20:49:45.518849,Right,5.851206454120984,3.0201013619080186,-15.639076431369176,-10.57054757183505,8.623001516141812,1.5095016811828827,-3.6041960565926274,-4.1669707403634675
2025-12-12 20:49:45.522876,Right,-18.35636939718279,-22.76901934997295,-41.09905335806252,-35.55773452718131,-0.2438895305749611,-21.74806429860837,-29.396365863867686,-26.956551454844885
2025-12-12 20:49:45.526888,Right,-17.39108656687131,-19.937865182961104,-36.53739214512461,-31.666626793892647,-15.83977817019695,-15.05109254924173,-22.928753672153107,-21.977723238029284
2025-12-12 20:49:45.531914,Right,3.913775054823418,2.7767619519945583,-13.60100948314357,-8.469675009058847,-12.30064226639297,8.78728901514478,1.4770885291000013,0.3739770078464062
2025-12-12 20:49:45.535910,Right,7.128721993743966,3.524479385712766,-14.962102652076283,-8.2167373062548,3.2548629514712957,8.360255142757524,0.15838539374817628,0.5106511649137246
2025-12-12 20:49:45.538924,Right,-9.462152679803694,-15.981964507969678,-35.82083153503481,-28.726588891418942,2.6403618043113966,-11.207123204603704,-20.0969221288251,-17.56966686083615
2025-12-12 20:49:45.542870,Right,-9.330932134618706,-15.288142054247146,-34.11540844335104,-28.596197484286677,-11.815027422610001,-9.67107656629014,-16.557401611556998,-15.102630530709575
2025-12-12 20:49:45.546921,Right,13.416888375833878,8.799944837788644,-9.296894251718186,-4.171424162443145,-11.467811785405502,13.070879319689993,9.12480537618103,8.51002779186092
2025-12-12 20:49:45.550947,Right,22.60845975888151,16.03153746789758,-3.62142706332088,3.871294221164135,5.4308864758386335,17.400239332477213,13.836572193984466,13.97292704971187
2025-12-12 20:49:45.554899,Right,6.776914397574728,-2.991567516393843,-24.33205771127541,-14.521587961993646,10.061649283758015,-1.9398661851373618,-7.16382450578385,-5.700427548676089
2025-12-12 20:49:45.559973,Right,-1.382069546767525,-11.49180851631536,-32.504943179679685,-22.770837719632254,-4.783799727654696,-7.7505675976208295,-13.451965428241238,-14.144285524176667
2025-12-12 20:49:45.562967,Right,11.043860059675353,1.9456919335279963,-18.525501233918476,-9.195014183875173,-13.740815708148148,7.192419556762616,2.3709611736703664,-1.5767287874550675
2025-12-12 20:49:45.566981,Right,12.721990781275053,2.17111581116842,-19.66579408875259,-8.518509524146793,-6.919155214422062,6.297621481935494,1.2458681704338233,-1.9949094011026318
2025-12-12 20:49:45.570983,Right,-9.500366822428987,-22.39323493925258,-45.745622428745264,-32.10223038644472,-5.612503190470306,-18.64808166547664,-24.810652692762233,-24.786583804350812
2025-12-12 20:49:45.574936,Right,-21.06906790897665,-32.780587478202506,-55.47531464303029,-41.22047706077865,-18.46703380481995,-27.329025102306332,-32.733786764056276,-32.195272025317536
2025-12-12 20:49:45.579005,Right,-1.9751289366258789,-10.138595905853435,-31.684171613203944,-17.54117903842416,-23.09874456362013,-4.130855135132151,-7.093573561327503,-8.423292258594302
2025-12-12 20:49:45.582996,Right,13.83846571997492,6.200225534423225,-16.407309364469256,-0.8049924368096981,-9.273424670962413,10.318531602380972,8.036896827081364,7.377037092621322
2025-12-12 20:49:45.588031,Right,-2.0802036980417142,-12.598437827644375,-37.062677441354026,-19.912157125647354,-1.4254045818415761,-9.2366235987447,-13.328566042433522,-10.949782913339732
2025-12-12 20:49:45.591024,Right,-20.563264640153648,-32.20515485697979,-56.149642449614475,-40.30364810953324,-14.399485252972227,-26.620157241539346,-31.531186059408356,-29.10987878956803
2025-12-12 20:49:45.594071,Right,-6.873807383087751,-16.458106525911717,-38.28710027298075,-25.554949101242528,-24.104360738947435,-9.295074097071847,-12.518786548276694,-13.780359002106707
2025-12-12 20:49:45.599058,Right,16.577903118542963,7.765603003947035,-13.665885191308917,-2.326521815819433,-10.626724140845909,13.243282625449865,10.907947733201581,7.711182126950007
2025-12-12 20:49:45.603016,Right,10.928551727115348,-0.03659615904689417,-22.720238638226874,-10.809169067681069,4.144406598436035,3.7261909512235434,-0.8080326688068453,-2.1210258711726055
2025-12-12 20:49:45.607056,Right,-10.710794935118201,-22.418200964348216,-44.97867042423604,-33.33389723426808,-5.306434077283484,-17.15891800614554,-24.206750773439126,-24.268012023851043
2025-12-12 20:49:45.611085,Right,-10.174394459766518,-19.12164999774177,-39.918629663101456,-29.85174008890317,-22.169803879958636,-11.706884479344808,-18.673649104199285,-20.411544837152178
2025-12-12 20:49:45.617135,Right,7.598260485179708,0.7456611981870083,-19.452996256273764,-9.909948543783685,-16.66660909881466,7.461011898572906,1.489661650488415,-0.8892718566166877
2025-12-12 20:49:45.620132,Right,9.75695117000214,1.6695183260089834,-19.528948876941286,-9.194754020296386,2.3976515672620735,6.68782720539275,0.11131926455709618,0.4050744132582622
2025-12-12 20:49:45.623207,Right,-0.08492819895263892,-8.909377971456706,-29.95398435575771,-20.134559483525663,6.249321762632462,-3.1652005335599824,-10.635368772691436,-8.660300007933984
2025-12-12 20:49:45.627144,Right,8.44068643441642,2.54095109004993,-16.60683299896482,-9.112224897504348,-2.225876200653147,9.842834330542246,3.2418758911335317,2.6255171547927603
2025-12-12 20:49:45.631157,Right,28.776856420988224,25.999697941966588,7.60536008044437,13.819987991533708,0.7190243278964772,32.10635389045001,26.507759789954434,22.83026754895036
2025-12-12 20:49:45.635164,Right,24.150167406763103,20.9032307114976,1.1745234243498999,8.227818299437786,10.750030825380236,24.440614056568847,17.695772786093585,14.513435901204502
2025-12-12 20:49:45.639176,Right,-3.8234528879675054,-8.438886801537592,-28.533119365223683,-21.238761079068354,3.3626815458810597,-4.675274013093258,-12.927463254065515,-14.910073100836598
2025-12-12 20:49:45.643196,Right,-13.222131939606697,-16.154995962504472,-33.93244708699058,-28.483447807724588,-16.162285178341335,-9.862433690499529,-16.993675116882514,-21.031038199551404
2025-12-12 20:49:45.647203,Right,5.543462814445775,5.157190918976994,-10.257056157162879,-6.188439071735047,-17.39190457490622,12.241039606687536,7.454272933333414,0.7866571753802418
2025-12-12 20:49:45.650206,Right,14.163400547036872,13.05237778621813,-2.1105398635263555,2.9318599241050833,0.9632119724337826,19.284377266130832,14.264296082259534,8.858152916927793
2025-12-12 20:49:45.654234,Right,-3.2538493438405567,-6.639146670822811,-21.620051113663067,-15.611273526792502,7.402688933647369,0.9191950360873307,-6.58955085029811,-8.981671576184453
2025-12-12 20:49:45.659240,Right,-13.108246400281132,-15.92927648359182,-28.7235310368269,-24.137824614044803,-6.803125053857002,-5.4355006269727255,-13.575496851466596,-16.122695614812983
2025-12-12 20:49:45.663272,Right,3.7214480309830833,3.2943934492232074,-7.388751439721091,-4.6730656468753295,-13.517787778819184,13.160366590213926,7.463368701848594,2.7589369473644183
2025-12-12 20:49:45.667365,Right,17.697339457017733,17.204585878935177,6.003663282717753,9.185432481124735,0.5313510292526189,22.06678721871691,18.79993377601204,14.613641908006684
2025-12-12 20:49:45.670299,Right,8.078971351347718,5.550432397811164,-7.091629395887139,-2.378841492012725,11.609863795207275,6.487594239365649,4.039804536154406,2.278789494677767
2025-12-12 20:49:45.674324,Right,1.5455983675201423,-0.9306786513716361,-13.06476972757082,-8.528280833499593,4.711914948911726,0.22325041753083497,-1.133017395153729,-3.3425642711445107
2025-12-12 20:49:45.678344,Right,19.07109304662299,18.30448751599215,7.505328246981662,10.8837608057147,-0.13453736489282164,20.62562661345305,21.049136855737743,15.793799273571494
2025-12-12 20:49:45.682341,Right,32.54044425532811,30.78266454709774,19.411651468733908,23.026334809794207,10.877873361774618,32.54325520631255,32.83645838172379,27.07086930382502
2025-12-12 20:49:45.687378,Right,15.507290536021173,10.213253572746908,-2.6975118862319505,1.7648729924294457,16.840795038046053,11.878002178664701,9.731570972913687,6.710217181615008
2025-12-12 20:49:45.691359,Right,-5.524043340821663,-11.861113641851261,-24.44721458810818,-20.843471443065937,2.002092915949106,-8.050179082427348,-11.503319042025396,-13.521531599801165
2025-12-12 20:49:45.695374,Right,2.6277131346450915,-1.2197055263277434,-12.30122384391143,-10.204369933911948,-11.65714892483993,4.210198311549902,2.1171469872697344,-2.1701090592287073
2025-12-12 20:49:45.698398,Right,19.858849824566278,17.236861589890395,5.79179777445097,8.665411238267552,-2.8856067876768066,21.366215693027698,20.286593192129658,15.162447752767548
2025-12-12 20:49:45.702372,Right,11.027693419047864,6.443700351004736,-6.995797562209191,-1.815531630320038,9.914757331960573,8.758341429077518,6.321653224859801,4.0341193358144665
2025-12-12 20:49:45.706401,Right,-8.325664553067327,-13.890751048792481,-27.81273800281633,-22.388681244217878,2.327551119522468,-11.427053125572456,-15.0479819424163,-14.923511029968722
2025-12-12 20:49:45.710355,Right,-1.7315745864980272,-5.1736667051027325,-17.845469155770843,-14.343819663923568,-12.1290705516858,-2.8523430576615283,-5.338573327671838,-5.668569191451752
2025-12-12 20:49:45.714431,Right,19.3155500449393,17.007953430697853,4.13104681383993,7.433412777048943,-8.298506938625906,16.628857238139062,15.163548398076273,15.025463667985605
2025-12-12 20:49:45.719438,Right,17.704272892115114,12.899101999999402,-2.3523318333682255,3.795539429782366,5.072223095757181,10.373469392031438,7.35397397818997,9.873717052223583
2025-12-12 20:49:45.723460,Right,1.6638210300370702,-5.411446591586355,-21.967097018678032,-13.26842325740472,4.701582751694332,-5.742973180340414,-10.627563136364188,-7.373132502819317
2025-12-12 20:49:45.726444,Right,9.50820338050471,3.664087346998258,-11.593850412842585,-2.9200905084398983,-2.159372245901068,7.62509498856889,3.433319548327745,2.783320507892313
2025-12-12 20:49:45.730479,Right,35.70025536148751,31.390345389726008,17.41628159445827,25.189180065128312,6.806302297103684,36.91727579533108,34.14634183480166,29.725767706231636
2025-12-12 20:49:45.734492,Right,36.49787607480903,30.70176068808496,16.341727889208414,23.6786276895873,22.057317844651152,35.22889514171038,31.599047863379383,28.423590565013
2025-12-12 20:49:45.738447,Right,7.827658590184001,0.6777313700815739,-13.449212206731318,-7.6518871180032875,15.124321803129078,5.3021401113473985,0.12642354785657517,0.4341247424154062
2025-12-12 20:49:45.742458,Right,-5.626071339334885,-10.066624936517883,-21.763321844297025,-19.197599538834766,-8.041370271123014,-4.259296452179115,-8.355923235280898,-7.344768243742237
2025-12-12 20:49:45.746525,Right,12.290243920091598,11.721620694185845,2.2199463696815656,2.515721875093732,-12.807735656074783,16.665639837900017,14.878571806131959,15.110656915865093
2025-12-12 20:49:45.751581,Right,24.601614238923503,24.07660980976607,14.540440538257826,15.089314988907972,5.35083340098663,26.73256015352672,24.354521013652175,26.3544783504899
2025-12-12 20:49:45.754542,Right,10.802978645027906,8.097776574219722,-1.5049006379704224,-0.7416845305506286,14.125657303468643,11.067687757995373,5.444924396603451,10.12547755381729
2025-12-12 20:49:45.758499,Right,0.7982977705396479,-1.3265466124994418,-8.807969338897237,-10.159861590217588,1.6174879106485776,4.535908237046897,-2.8055396189286057,0.942959116680413
2025-12-12 20:49:45.762560,Right,14.131280752233579,14.561577152367818,9.292566982294375,5.696213868099221,-6.013405706425999,21.228969476214843,14.804681429087623,15.308090695178237
2025-12-12 20:49:45.766572,Right,22.393604595035868,22.48928823936717,16.84230707462848,13.876012315556636,4.591583774915193,26.486394867497438,20.694180890514644,20.919296610189434
2025-12-12 20:49:45.770606,Right,5.880244044259598,2.9827022968015626,-3.8754511838560575,-4.657354554878566,11.263666687867726,4.977556070996798,-1.2919689773038954,1.6807426690073726
2025-12-12 20:49:45.775582,Right,-4.769259549349954,-8.391335204306415,-14.163486810186441,-14.368056934489914,1.8035719937024624,-5.534946427878822,-10.725177932322367,-6.7379176686670235
2025-12-12 20:49:45.779604,Right,15.955807326135982,14.39330134075135,10.938984473341407,10.009820641662827,-1.2265184822508672,17.761071055992943,15.584622999959265,18.31105174955701
2025-12-12 20:49:45.782629,Right,38.651565703250526,37.19927060475675,34.17207038687047,33.59228900373071,15.97917783399771,38.75304409142518,37.94372209493304,41.437997874976645
2025-12-12 20:49:45.786622,Right,30.045707964680332,25.714043675585344,21.649809427413857,22.102091993848376,29.40470976198003,26.21793204070491,23.65645324543584,30.255649594648276
2025-12-12 20:49:45.790637,Right,12.406809288873774,6.921719593249691,3.0854661558587395,3.0521198776809797,19.48888990140904,9.045798634972016,4.937398174747614,11.942130257092685
2025-12-12 20:49:45.795680,Right,21.86181232002491,18.728718414238756,16.11747649866811,14.675460003396438,7.487706219543725,21.7208560259387,18.446383482048077,21.92471331152865
2025-12-12 20:49:45.799599,Right,42.32525365413312,40.579982067126366,37.53669783162695,36.52808730271272,17.11202992907056,41.1857653739462,38.2461445817471,39.5014343761668
2025-12-12 20:49:45.802615,Right,36.888789147571515,33.10051991448745,28.082368643094014,29.55806604665713,31.564005300571807,31.639063831051317,26.121847705511755,28.99385466365129
2025-12-12 20:49:45.807687,Right,16.630891594235436,11.245041674400454,5.633679580158059,9.213831915212722,25.03753722084093,11.86358080042919,3.9982309687411544,7.969851931912672
2025-12-12 20:49:45.810680,Right,17.825894398501987,13.896069141289445,9.66727638080556,14.394188215729628,9.230428044090331,18.261560735358216,11.97466056983285,13.760204189968135
2025-12-12 20:49:45.814693,Right,33.348548853686225,30.440506996486874,27.014605675898565,33.57092919484239,10.315724801853321,35.694145205921814,32.91554080804963,33.233222783766905
2025-12-12 20:49:45.818702,Right,28.423522117900575,23.612706935879032,19.78504825166783,28.134286204456657,21.34068210667556,27.521453099860082,26.184788933662276,28.939630434254468
2025-12-12 20:49:45.822718,Right,8.343114911054727,2.3594641186500667,-0.28375079026409367,6.33255382387415,17.039066625095984,6.150318380241515,4.524938174757153,10.011811363845482
2025-12-12 20:49:45.826738,Right,8.869535018795432,5.436017899977742,6.530473350347165,7.378934968334761,1.3435563881012058,9.922815892401559,8.672104224637224,13.379064736644068
2025-12-12 20:49:45.830751,Right,27.38218386333756,26.50479880849707,30.6668367725797,26.178303204385884,-1.084851149829774,29.65393572861649,28.541374986385563,31.679285394220642
2025-12-12 20:49:45.836812,Right,25.53199315711754,22.893150825962948,27.231709641540874,21.43631274249674,7.810313927195239,23.926341109519853,20.481488960773277,24.862107958344495
2025-12-12 20:49:45.839813,Right,0.7044231194340682,-5.61818009570743,-1.8103808594023576,-6.21106789840087,3.3024882895933843,-3.2821208022396604,-10.01702998280416,-4.3279826874240825
2025-12-12 20:49:45.843812,Right,-6.937083680193609,-14.300554816791191,-9.506662150490229,-12.379435750917764,-13.947121490431527,-7.565959713570919,-15.147150597069412,-11.985684443172431
2025-12-12 20:49:45.846827,Right,12.848030210850993,5.9587124797544675,11.841726135390672,10.58193389443477,-17.109533721280968,15.261968247763434,8.823112975183903,8.591991827714082
2025-12-12 20:49:45.850825,Right,21.43902840321607,13.011735440111806,18.76747084366434,19.187312158370332,-2.9415406035241176,21.382949216895213,14.887389753655953,15.621916341908218
2025-12-12 20:49:45.854783,Right,1.606346264208696,-8.35642240544621,-1.5072909372979666,-1.9840329047929117,1.2545970845822012,-1.1824387608248799,-8.591580778756907,-4.179980493818221
2025-12-12 20:49:45.858847,Right,-13.088025682911393,-19.99722217444105,-8.395564059709614,-14.181263413938723,-12.730099738633726,-12.97614503407749,-18.654822186163074,-13.214165667661291
2025-12-12 20:49:45.862874,Right,-3.071356844251568,-3.8502542430578615,14.118781952785412,1.2526921491607936,-19.997926818941778,1.511449693403847,0.2792301814406528,4.569343530525657
2025-12-12 20:49:45.865858,Right,0.9891593837237451,3.916669857524539,26.344998239275128,8.500671541267366,-9.61794229599036,5.796953087367001,7.844987989457877,13.535078552955383
2025-12-12 20:49:45.869915,Right,-21.749276888687746,-17.91485608745279,7.058194723618271,-13.327690935706414,-4.569855462174019,-17.636227494920604,-14.738143326640056,-5.66129980416008
2025-12-12 20:49:45.875025,Right,-39.169080948002374,-33.100764196737146,-5.841516880342958,-27.718888943043567,-17.115627352721276,-31.18748475971006,-26.893384834482276,-18.012070152226443
2025-12-12 20:49:45.878930,Right,-22.222992260449246,-12.584545024863473,15.402768391611062,-5.747247740500825,-23.226898323389833,-9.387445174274035,-1.9735045501784043,2.37451014310318
2025-12-12 20:49:45.882919,Right,1.7413985308776319,11.87663263837203,36.56403442561964,20.325834208386368,-5.873521943536616,13.825578317173495,23.120922333411727,24.012973683189557
2025-12-12 20:49:45.888944,Right,-2.8393102467089193,4.3490796241567296,23.173902764693594,14.11503938916394,12.118280157024856,5.539331475181825,13.833461218215234,14.405726555207366
2025-12-12 20:49:45.891943,Right,-17.532586691311735,-11.816271471625441,2.6058515176214314,-1.166476057969703,8.011521206297402,-8.335938080294,-1.5555253436577914,-2.2070322585605027
2025-12-12 20:49:45.894956,Right,-6.952389363286784,0.3597866208801861,12.655610307605912,11.535241026303993,-0.8169957601712667,6.48218795323919,12.737217326764949,8.626416723549482
2025-12-12 20:49:45.898939,Right,15.66391313729764,23.159927720907945,33.427372447513335,34.52169875564141,9.943986567845059,29.03355255462884,33.531235378888596,28.44115538454207
2025-12-12 20:49:45.902942,Right,15.152755126367992,19.059607732842778,27.55573557750995,30.19744248978168,26.80182906218033,23.745378561252437,23.81045160195208,22.217587167133388
2025-12-12 20:49:45.906969,Right,0.7190680197745678,1.2082228027793462,10.781241442654391,11.78711233501599,24.135612654794386,7.228317603294272,2.9706728232831665,4.230749623724478
2025-12-12 20:49:45.910967,Right,7.8944214143375575,8.070419736541226,21.141795677289338,18.004353642783826,12.001193920459627,16.512746847216476,10.875336473192874,10.812926836500992
2025-12-12 20:49:45.915033,Right,30.15391645102136,29.747762275968853,44.7200629939789,39.347796003388794,16.546403030377405,38.44495521468343,32.49995127865441,31.076006081104424
2025-12-12 20:49:45.917983,Right,28.509788509225473,23.970000846302355,37.66855810302877,34.27062898096847,29.54886008156427,32.46209181598897,24.10574524331787,25.367001909253304
2025-12-12 20:49:45.921935,Right,3.588608254398423,-5.613356195291999,6.57436266316472,7.08037411386249,23.178247676865794,5.964853126286471,-5.5469772276792355,-0.8043171473127586
2025-12-12 20:49:45.925989,Right,-4.060992536098638,-14.547449522951865,-2.162445861762535,1.8785397489773459,3.236656413982928,1.876990355343878,-10.050140221945185,-5.357171972525975
2025-12-12 20:49:45.930013,Right,12.617183198508428,2.239072178639617,14.455530405626632,22.279211541768746,0.2944288535454689,20.64981879338302,10.361457433989926,13.800149487969975
2025-12-12 20:49:45.935011,Right,17.571638351153524,5.291416304304221,15.46107218474026,27.37670841318686,15.167138807693846,22.671731873535464,12.753712464542332,17.737306269254987
2025-12-12 20:49:45.938980,Right,1.9545532069751061,-12.285568778519519,-3.902998299970932,9.901764979906147,19.49491378750099,4.6305987178238865,-6.062064984298559,1.1613099950427568
2025-12-12 20:49:45.943058,Right,-0.680378566019499,-13.642544507405546,-5.256587072337425,7.410817729363771,7.771508992031158,3.8539842850950663,-6.279131681920262,-0.1844896684779087
2025-12-12 20:49:45.946065,Right,19.03057829235331,8.362365863640662,16.233445022282467,28.03910359213478,4.659535996121122,24.524390401689743,15.586691590353439,19.276226232905174
2025-12-12 20:49:45.950080,Right,26.52274329431748,15.230572957707409,20.138507020692487,33.84240192970901,17.1100046090869,27.819367680731375,18.05307864429051,22.862639328661317
2025-12-12 20:49:45.954048,Right,8.535659492124978,-4.394909443886718,-2.6310894953421666,13.382786728394422,21.843952243343665,5.549138535337988,-6.115105734546887,1.8732400985463755
2025-12-12 20:49:45.958106,Right,0.6420654535322683,-10.354584365761184,-9.410511197602318,6.421677194033691,10.98635312114493,-1.4348381336894818,-12.423300534797818,-4.627385864085227
2025-12-12 20:49:45.962134,Right,23.193113037475996,16.437841899019986,17.05679878097726,31.82549354194998,8.494291642193275,22.678401279616082,15.1958488617056,19.796742531700147
2025-12-12 20:49:45.967141,Right,42.80081423083175,37.233889879647904,35.284441627978595,51.0530586673849,24.60562337779993,38.34866260932904,33.57111944352073,37.38515737492344
2025-12-12 20:49:45.971178,Right,31.40828049224001,23.65445454881774,18.581024701386923,36.17343669497495,33.78343135007526,21.550758259221766,17.03160438314444,23.02838660110865
2025-12-12 20:49:45.974191,Right,15.282963967616524,6.830134767486015,1.6196290037332801,18.564226277303533,19.671256314959464,5.927164858541801,1.5933334310630016,7.7226602027258195
2025-12-12 20:49:45.978188,Right,24.85541323981306,18.462245129627263,15.510985943310516,29.857757126817887,5.075617274196702,19.45080079728723,16.556079832582327,19.659004982462648
2025-12-12 20:49:45.982219,Right,39.0902379520594,33.50245782294587,31.692031216514806,45.01241369845957,11.102266217076249,33.54178825634517,31.0285204436841,32.641329367408616
2025-12-12 20:49:45.986214,Right,27.443439713770204,20.02872505108462,17.714550909366153,32.3036128491658,20.752091923350235,18.5037748615905,14.202373037349389,17.33324098817684
2025-12-12 20:49:45.990177,Right,9.742738012337213,1.605584252603876,-0.4663304627138132,15.155777864798438,13.342090697187814,0.886285449101706,-4.465555930328264,-1.3755300169432303
2025-12-12 20:49:45.995224,Right,20.395932650601026,14.10240879808407,13.081609626988211,28.72084696111051,3.913000732783985,14.7518769215676,10.95872825616243,10.598908019306691
